Ne-22(n,tot) ENDFB-8.0
Energy(eV) XS(b)
1.00000E-05 66.5636
1.03125E-05 65.5528
1.06250E-05 64.5870
1.09375E-05 63.6630
1.12500E-05 62.7779
1.15625E-05 61.9290
1.18750E-05 61.1138
1.21875E-05 60.3303
1.25000E-05 59.5765
1.28125E-05 58.8504
1.31250E-05 58.1505
1.34375E-05 57.4752
1.37500E-05 56.8231
1.43750E-05 55.5835
1.50000E-05 54.4223
1.56250E-05 53.3318
1.62500E-05 52.3049
1.68750E-05 51.3358
1.75000E-05 50.4192
1.81250E-05 49.5506
1.87500E-05 48.7260
1.93750E-05 47.9417
2.00000E-05 47.1946
2.09375E-05 46.1376
2.18750E-05 45.1494
2.28125E-05 44.2231
2.37500E-05 43.3524
2.46875E-05 42.5320
2.56250E-05 41.7573
2.65625E-05 41.0241
2.75000E-05 40.3289
2.84375E-05 39.6685
2.93750E-05 39.0402
3.03125E-05 38.4414
3.12500E-05 37.8699
3.21875E-05 37.3236
3.31250E-05 36.8009
3.40625E-05 36.3001
3.50000E-05 35.8196
3.59375E-05 35.3581
3.68750E-05 34.9145
3.78125E-05 34.4876
3.87500E-05 34.0764
3.96875E-05 33.6799
4.06250E-05 33.2974
4.25000E-05 32.5709
4.43750E-05 31.8912
4.62500E-05 31.2537
4.81250E-05 30.6541
5.00000E-05 30.0888
5.15625E-05 29.6417
5.31250E-05 29.2146
5.46875E-05 28.8062
5.62500E-05 28.4151
5.78125E-05 28.0400
5.93750E-05 27.6801
6.09375E-05 27.3342
6.25000E-05 27.0015
6.40625E-05 26.6812
6.56250E-05 26.3725
6.71875E-05 26.0748
6.87500E-05 25.7874
7.18750E-05 25.2413
7.50000E-05 24.7302
7.81250E-05 24.2504
8.12500E-05 23.7990
8.43750E-05 23.3732
8.75000E-05 22.9708
9.06250E-05 22.5897
9.37500E-05 22.2281
9.68750E-05 21.8845
0.000100000 21.5573
0.000103125 21.2454
0.000106250 20.9476
0.000109375 20.6629
0.000112500 20.3904
0.000115625 20.1292
0.000118750 19.8786
0.000121875 19.6379
0.000125000 19.4065
0.000128125 19.1838
0.000131250 18.9692
0.000134375 18.7624
0.000137500 18.5628
0.000143750 18.1838
0.000150000 17.8293
0.000156250 17.4968
0.000162500 17.1843
0.000168750 16.8897
0.000175000 16.6115
0.000181250 16.3483
0.000187500 16.0987
0.000193750 15.8617
0.000200000 15.6363
0.000209375 15.3179
0.000218750 15.0209
0.000228125 14.7431
0.000237500 14.4826
0.000246875 14.2376
0.000256250 14.0067
0.000265625 13.7887
0.000275000 13.5825
0.000284375 13.3870
0.000293750 13.2013
0.000303125 13.0248
0.000312500 12.8567
0.000321875 12.6963
0.000331250 12.5432
0.000340625 12.3968
0.000350000 12.2566
0.000359375 12.1223
0.000368750 11.9934
0.000378125 11.8696
0.000387500 11.7507
0.000396875 11.6362
0.000406250 11.5260
0.000425000 11.3173
0.000443750 11.1229
0.000462500 10.9413
0.000481250 10.7712
0.000500000 10.6114
0.000515625 10.4855
0.000531250 10.3657
0.000546875 10.2515
0.000562500 10.1424
0.000578125 10.0382
0.000593750 9.93853
0.000609375 9.84305
0.000625000 9.75152
0.000640625 9.66367
0.000656250 9.57929
0.000671875 9.49816
0.000687500 9.42010
0.000718750 9.27248
0.000750000 9.13517
0.000781250 9.00709
0.000812500 8.88732
0.000843750 8.77506
0.000875000 8.66959
0.000906250 8.57032
0.000937500 8.47669
0.000968750 8.38824
0.00100000 8.30453
0.00103125 8.22518
0.00106250 8.14986
0.00109375 8.07827
0.00112500 8.01012
0.00115625 7.94518
0.00118750 7.88322
0.00121875 7.82404
0.00125000 7.76745
0.00128125 7.71328
0.00131250 7.66139
0.00134375 7.61162
0.00137500 7.56386
0.00143750 7.47386
0.00150000 7.39056
0.00156250 7.31323
0.00162500 7.24125
0.00168750 7.17408
0.00175000 7.11125
0.00181250 7.05237
0.00187500 6.99706
0.00193750 6.94502
0.00200000 6.89596
0.00209375 6.82744
0.00218750 6.76435
0.00228125 6.70607
0.00237500 6.65208
0.00246875 6.60192
0.00256250 6.55521
0.00265625 6.51160
0.00275000 6.47080
0.00284375 6.43253
0.00293750 6.39659
0.00303125 6.36276
0.00312500 6.33086
0.00321875 6.30073
0.00331250 6.27223
0.00340625 6.24524
0.00350000 6.21963
0.00359375 6.19531
0.00368750 6.17217
0.00378125 6.15015
0.00387500 6.12914
0.00396875 6.10910
0.00406250 6.08995
0.00425000 6.05411
0.00443750 6.02120
0.00462500 5.99088
0.00481250 5.96286
0.00500000 5.93688
0.00515625 5.91664
0.00531250 5.89756
0.00546875 5.87954
0.00562500 5.86250
0.00578125 5.84635
0.00593750 5.83104
0.00609375 5.81649
0.00625000 5.80265
0.00640625 5.78947
0.00656250 5.77691
0.00671875 5.76491
0.00687500 5.75345
0.00718750 5.73198
0.00750000 5.71226
0.00781250 5.69409
0.00812500 5.67727
0.00843750 5.66168
0.00875000 5.64717
0.00906250 5.63364
0.00937500 5.62099
0.00968750 5.60913
0.0100000 5.59800
0.0103125 5.58752
0.0106250 5.57764
0.0109375 5.56832
0.0112500 5.55949
0.0115625 5.55114
0.0118750 5.54321
0.0121875 5.53567
0.0125000 5.52850
0.0128125 5.52167
0.0131250 5.51516
0.0134375 5.50894
0.0137500 5.50300
0.0143750 5.49186
0.0150000 5.48163
0.0156250 5.47218
0.0162500 5.46345
0.0168750 5.45534
0.0175000 5.44779
0.0181250 5.44074
0.0187500 5.43415
0.0193750 5.42797
0.0200000 5.42216
0.0206625 5.41638
0.0213250 5.41094
0.0219875 5.40582
0.0226500 5.40098
0.0233125 5.39641
0.0239750 5.39209
0.0246375 5.38799
0.0253000 5.38409
0.0264578 5.37773
0.0276156 5.37189
0.0287734 5.36650
0.0299313 5.36151
0.0310891 5.35687
0.0322469 5.35256
0.0334047 5.34853
0.0345625 5.34476
0.0355274 5.34179
0.0364922 5.33898
0.0374570 5.33631
0.0384219 5.33376
0.0393867 5.33133
0.0403516 5.32901
0.0413164 5.32680
0.0422813 5.32468
0.0442109 5.32071
0.0461406 5.31706
0.0480703 5.31368
0.0500000 5.31056
0.0515625 5.30819
0.0531250 5.30595
0.0546875 5.30383
0.0562500 5.30183
0.0578125 5.29993
0.0593750 5.29812
0.0609375 5.29640
0.0625000 5.29476
0.0640625 5.29320
0.0656250 5.29171
0.0671875 5.29028
0.0687500 5.28891
0.0718750 5.28635
0.0750000 5.28399
0.0781250 5.28180
0.0812500 5.27977
0.0843750 5.27789
0.0875000 5.27613
0.0906250 5.27448
0.0937500 5.27294
0.0968750 5.27149
0.100000 5.27012
0.103125 5.26883
0.106250 5.26762
0.109375 5.26646
0.112500 5.26537
0.115625 5.26433
0.118750 5.26334
0.121875 5.26240
0.125000 5.26151
0.128125 5.26065
0.131250 5.25983
0.134375 5.25905
0.137500 5.25830
0.143750 5.25689
0.150000 5.25558
0.156250 5.25438
0.162500 5.25326
0.168750 5.25221
0.175000 5.25124
0.181250 5.25032
0.187500 5.24947
0.193750 5.24866
0.200000 5.24790
0.209375 5.24683
0.218750 5.24585
0.228125 5.24494
0.237500 5.24410
0.246875 5.24332
0.256250 5.24258
0.265625 5.24190
0.275000 5.24125
0.284375 5.24065
0.293750 5.24008
0.303125 5.23954
0.312500 5.23903
0.321875 5.23854
0.331250 5.23808
0.340625 5.23765
0.350000 5.23723
0.359375 5.23683
0.368750 5.23646
0.378125 5.23609
0.387500 5.23575
0.396875 5.23542
0.406250 5.23510
0.425000 5.23450
0.443750 5.23394
0.462500 5.23343
0.500000 5.23250
0.531250 5.23181
0.562500 5.23119
0.593750 5.23062
0.625000 5.23010
0.687500 5.22919
0.750000 5.22841
0.812500 5.22773
0.875000 5.22713
0.937500 5.22659
1.00000 5.22611
1.06250 5.22568
1.12500 5.22528
1.18750 5.22492
1.25000 5.22458
1.37500 5.22398
1.50000 5.22346
1.62500 5.22300
1.75000 5.22258
1.87500 5.22220
2.00000 5.22186
2.18750 5.22139
2.37500 5.22098
2.56250 5.22060
2.75000 5.22025
2.93750 5.21992
3.12500 5.21962
3.31250 5.21934
3.50000 5.21907
3.87500 5.21858
4.25000 5.21812
4.62500 5.21770
5.00000 5.21730
5.31250 5.21699
5.62500 5.21668
5.93750 5.21639
6.25000 5.21611
6.87500 5.21556
7.50000 5.21505
8.12500 5.21455
8.75000 5.21406
9.37500 5.21360
10.0000 5.21314
10.6250 5.21269
11.2500 5.21225
11.8750 5.21181
12.5000 5.21139
13.7500 5.21055
15.0000 5.20972
16.2500 5.20891
17.5000 5.20811
18.7500 5.20732
20.0000 5.20654
21.8750 5.20538
23.7500 5.20423
25.6250 5.20309
27.5000 5.20196
29.3750 5.20084
31.2500 5.19972
33.1250 5.19861
35.0000 5.19750
36.8750 5.19640
38.7500 5.19531
42.5000 5.19313
46.2500 5.19096
50.0000 5.18880
53.1250 5.18702
56.2500 5.18524
59.3750 5.18347
62.5000 5.18170
68.7500 5.17819
75.0000 5.17469
81.2500 5.17123
87.5000 5.16778
93.7500 5.16435
100.000 5.16094
106.250 5.15755
112.500 5.15417
125.000 5.14748
137.500 5.14085
150.000 5.13429
162.500 5.12780
175.000 5.12137
187.500 5.11499
200.000 5.10868
218.750 5.09933
237.500 5.09010
256.250 5.08100
275.000 5.07202
312.500 5.05443
350.000 5.03730
387.500 5.02061
425.000 5.00435
462.500 4.98850
500.000 4.97304
562.500 4.94811
625.000 4.92416
687.500 4.90115
750.000 4.87901
812.500 4.85769
875.000 4.83715
1000.00 4.79824
1125.00 4.76196
1250.00 4.72806
1375.00 4.69630
1500.00 4.66647
1750.00 4.61196
2000.00 4.56334
2167.38 4.53360
2334.75 4.50585
2355.67 4.50251
2407.98 4.49429
2460.28 4.48623
2486.44 4.48226
2512.59 4.47833
2538.74 4.47445
2551.82 4.47252
2564.89 4.47060
2573.39 4.46937
2581.89 4.46813
2590.39 4.46691
2598.89 4.46569
2607.39 4.46448
2611.64 4.46389
2615.89 4.46329
2620.14 4.46271
2624.39 4.46213
2628.64 4.46156
2632.89 4.46101
2635.67 4.46066
2638.45 4.46032
2641.23 4.46001
2644.00 4.45972
2646.78 4.45948
2648.17 4.45939
2649.56 4.45931
2650.95 4.45927
2652.34 4.45927
2653.73 4.45933
2655.12 4.45947
2656.26 4.45969
2657.41 4.46004
2657.98 4.46029
2658.55 4.46061
2659.12 4.46103
2659.69 4.46161
2660.27 4.46241
2660.84 4.46357
2661.12 4.46434
2661.41 4.46529
2661.70 4.46645
2661.98 4.46789
2662.27 4.46967
2662.55 4.47187
2662.84 4.47458
2663.13 4.47790
2663.41 4.48196
2663.70 4.48687
2663.98 4.49277
2664.27 4.49981
2664.68 4.51209
2665.09 4.52728
2665.50 4.54561
2665.91 4.56706
2666.31 4.59155
2666.72 4.61849
2667.54 4.67645
2667.91 4.70225
2668.28 4.72634
2668.64 4.74760
2669.01 4.76495
2669.23 4.77292
2669.44 4.77908
2669.66 4.78329
2669.88 4.78547
2670.00 4.78579
2670.32 4.78342
2670.64 4.77657
2670.89 4.76835
2671.14 4.75783
2671.39 4.74526
2671.64 4.73100
2671.96 4.71058
2672.28 4.68858
2672.92 4.64273
2673.24 4.62021
2673.56 4.59868
2673.88 4.57857
2674.20 4.56016
2674.54 4.54276
2674.87 4.52753
2675.21 4.51445
2675.55 4.50343
2675.89 4.49424
2676.22 4.48673
2676.56 4.48062
2676.90 4.47574
2677.24 4.47185
2677.58 4.46878
2677.91 4.46636
2678.25 4.46445
2678.59 4.46294
2678.93 4.46175
2679.26 4.46078
2679.60 4.45999
2680.10 4.45907
2680.60 4.45835
2681.09 4.45777
2681.59 4.45729
2682.59 4.45653
2683.58 4.45593
2684.58 4.45544
2685.57 4.45502
2686.57 4.45466
2687.56 4.45434
2689.55 4.45379
2691.54 4.45332
2693.54 4.45289
2695.53 4.45250
2697.94 4.45206
2700.36 4.45164
2702.78 4.45124
2705.19 4.45085
2707.61 4.45048
2710.03 4.45011
2714.86 4.44939
2719.70 4.44868
2724.53 4.44798
2729.36 4.44729
2734.20 4.44661
2741.59 4.44558
2748.99 4.44455
2756.38 4.44353
2763.77 4.44251
2778.56 4.44049
2793.35 4.43848
2808.13 4.43649
2822.92 4.43451
2852.49 4.43058
2884.34 4.42640
2916.19 4.42227
2979.89 4.41414
3107.28 4.39840
3180.08 4.38971
3453.07 4.35892
3726.06 4.33070
3999.04 4.30462
4272.03 4.28050
4490.42 4.26247
4708.81 4.24545
4745.21 4.24270
4872.61 4.23329
4936.30 4.22868
5000.00 4.22416
5053.20 4.22043
5079.79 4.21858
5106.39 4.21675
5132.99 4.21493
5146.29 4.21402
5159.59 4.21312
5172.89 4.21222
5186.19 4.21133
5199.48 4.21044
5212.78 4.20955
5220.34 4.20906
5227.89 4.20856
5235.45 4.20807
5243.01 4.20758
5246.78 4.20735
5250.56 4.20711
5254.34 4.20688
5258.12 4.20665
5261.90 4.20642
5265.67 4.20621
5269.45 4.20600
5273.23 4.20582
5275.95 4.20569
5278.67 4.20559
5281.39 4.20551
5284.11 4.20547
5285.47 4.20546
5286.83 4.20548
5288.19 4.20552
5289.55 4.20558
5290.91 4.20570
5292.27 4.20587
5293.63 4.20614
5294.31 4.20633
5294.99 4.20658
5295.56 4.20684
5296.13 4.20719
5296.69 4.20766
5297.26 4.20828
5297.83 4.20913
5298.39 4.21031
5298.96 4.21195
5299.53 4.21421
5299.81 4.21564
5300.09 4.21732
5300.38 4.21928
5300.66 4.22155
5301.23 4.22721
5301.79 4.23463
5302.36 4.24419
5302.93 4.25621
5303.49 4.27094
5304.06 4.28846
5304.50 4.30381
5304.93 4.32062
5305.80 4.35783
5306.67 4.39723
5307.54 4.43465
5307.93 4.44977
5308.33 4.46299
5308.73 4.47393
5309.12 4.48221
5309.53 4.48767
5309.94 4.48984
5310.00 4.48987
5310.20 4.48946
5310.39 4.48827
5310.79 4.48356
5311.15 4.47673
5311.50 4.46766
5311.86 4.45659
5312.22 4.44386
5312.65 4.42672
5313.08 4.40821
5313.94 4.36929
5314.80 4.33140
5315.23 4.31390
5315.65 4.29775
5316.19 4.27967
5316.73 4.26411
5317.27 4.25106
5317.80 4.24038
5318.34 4.23180
5318.88 4.22506
5319.41 4.21985
5319.95 4.21589
5320.49 4.21291
5321.02 4.21068
5321.56 4.20902
5322.10 4.20779
5322.63 4.20686
5323.17 4.20615
5323.71 4.20560
5324.24 4.20517
5324.89 4.20475
5325.53 4.20441
5326.82 4.20389
5328.11 4.20350
5329.39 4.20318
5330.68 4.20291
5331.97 4.20267
5333.26 4.20247
5334.55 4.20228
5337.12 4.20196
5339.70 4.20168
5342.27 4.20142
5344.85 4.20118
5348.43 4.20088
5352.01 4.20059
5355.58 4.20032
5359.16 4.20005
5362.74 4.19980
5366.32 4.19954
5369.90 4.19929
5373.47 4.19905
5380.63 4.19856
5387.78 4.19808
5394.94 4.19761
5402.09 4.19714
5408.39 4.19673
5414.69 4.19632
5427.28 4.19550
5439.88 4.19470
5452.47 4.19389
5465.06 4.19309
5477.66 4.19229
5502.85 4.19070
5528.03 4.18911
5553.22 4.18755
5578.41 4.18598
5603.60 4.18443
5640.23 4.18219
5676.87 4.17996
5750.14 4.17556
5896.69 4.16698
5969.96 4.16278
6153.15 4.15257
6336.33 4.14272
6739.33 4.12227
7142.34 4.10329
7948.35 4.06904
8461.26 4.04950
8974.17 4.03135
10000.0 3.99860
12500.0 3.93362
15000.0 3.88241
17500.0 3.83989
19687.5 3.80756
20000.0 3.80323
20859.5 3.79165
21719.1 3.78051
22312.5 3.77305
22334.3 3.77278
22356.0 3.77251
22377.8 3.77224
22399.5 3.77197
22421.3 3.77170
22443.0 3.77143
22453.9 3.77130
22464.7 3.77117
22475.6 3.77104
22486.5 3.77091
22496.1 3.77079
22505.7 3.77068
22515.3 3.77057
22524.9 3.77046
22534.5 3.77035
22539.3 3.77030
22544.1 3.77026
22548.9 3.77021
22553.6 3.77017
22558.4 3.77014
22563.2 3.77011
22567.4 3.77009
22571.6 3.77009
22575.7 3.77010
22579.9 3.77014
22581.9 3.77018
22584.0 3.77023
22586.1 3.77031
22588.2 3.77043
22589.2 3.77051
22590.3 3.77062
22591.3 3.77077
22592.3 3.77097
22593.4 3.77125
22594.4 3.77164
22595.5 3.77219
22596.0 3.77255
22596.5 3.77296
22597.4 3.77387
22598.2 3.77506
22599.1 3.77663
22600.0 3.77868
22600.9 3.78132
22601.8 3.78467
22602.6 3.78889
22603.5 3.79405
22604.4 3.80041
22605.3 3.80807
22606.2 3.81713
22607.0 3.82767
22607.9 3.83973
22608.8 3.85328
22610.5 3.88415
22613.3 3.93813
22614.6 3.96449
22616.0 3.98782
22617.2 4.00431
22618.4 4.01571
22619.5 4.02100
22620.0 4.02162
22620.3 4.02151
22620.5 4.02109
22621.1 4.01884
22621.8 4.01497
22623.2 3.99971
22624.7 3.97754
22626.4 3.94654
22628.0 3.91310
22629.7 3.88061
22631.4 3.85162
22632.4 3.83659
22633.4 3.82361
22634.4 3.81253
22635.3 3.80327
22636.3 3.79562
22637.3 3.78954
22638.3 3.78474
22639.3 3.78102
22640.3 3.77815
22640.8 3.77700
22641.3 3.77602
22641.8 3.77515
22642.3 3.77442
22643.3 3.77324
22644.3 3.77238
22645.3 3.77174
22646.3 3.77127
22647.2 3.77092
22648.3 3.77063
22649.3 3.77042
22650.4 3.77025
22651.4 3.77012
22653.5 3.76991
22655.6 3.76975
22657.7 3.76962
22659.8 3.76951
22661.9 3.76941
22664.0 3.76932
22668.1 3.76918
22672.3 3.76906
22676.5 3.76895
22680.7 3.76885
22686.1 3.76874
22691.5 3.76864
22697.0 3.76854
22702.4 3.76845
22707.8 3.76837
22713.3 3.76829
22724.1 3.76813
22735.0 3.76797
22745.9 3.76783
22756.7 3.76768
22767.6 3.76754
22781.8 3.76736
22796.0 3.76718
22810.2 3.76700
22824.4 3.76682
22838.6 3.76664
22852.8 3.76647
22867.0 3.76629
22881.2 3.76612
22909.6 3.76577
22938.0 3.76542
22966.4 3.76507
22994.8 3.76473
23038.3 3.76420
23081.7 3.76367
23125.2 3.76315
23168.6 3.76262
23342.4 3.76054
23690.0 3.75642
24759.5 3.74406
25829.0 3.73214
26470.8 3.72518
28075.0 3.70836
29679.3 3.69227
32887.8 3.66188
44866.4 3.56309
50000.0 3.52544
62500.0 3.44107
75000.0 3.36378
87500.0 3.29118
100000 3.22179
129441 3.06554
162563 2.89251
195684 2.71190
215925 2.59291
236166 2.46450
269287 2.23401
279408 2.16518
284468 2.13451
289528 2.10898
293208 2.09572
296889 2.08926
299649 2.09071
302409 2.09965
305169 2.11870
307929 2.15154
310459 2.19843
311724 2.22938
312989 2.26703
314254 2.31158
315519 2.36544
316784 2.42967
318049 2.50543
319027 2.57472
320005 2.65437
320982 2.74591
321960 2.85122
322937 2.97259
323915 3.11083
324892 3.27218
325381 3.36222
325870 3.45927
326502 3.59701
327135 3.74802
327767 3.91466
328400 4.09989
329032 4.30332
329665 4.52989
330297 4.78075
330930 5.05711
331572 5.37168
331893 5.53957
332214 5.71868
332855 6.10479
333176 6.31300
333497 6.53457
334139 7.00745
334781 7.53565
335102 7.81631
335423 8.11466
336064 8.74942
336465 9.17939
336866 9.63031
337668 10.5916
338469 11.6383
339271 12.7418
340874 14.9555
341275 15.4690
341675 15.9504
342076 16.3954
342477 16.7963
342878 17.1242
343279 17.3902
343679 17.6019
344080 17.7294
344614 17.7771
345015 17.7157
345416 17.5885
345817 17.4016
346218 17.1562
346618 16.8427
347019 16.4885
347821 15.6821
351027 11.9879
351824 11.1364
352622 10.3378
353419 9.60721
353817 9.26063
354216 8.93552
355013 8.32002
355811 7.76581
356209 7.50419
356608 7.25978
357405 6.79783
358226 6.37019
359047 5.97940
359867 5.62345
360688 5.30048
361509 5.00310
362329 4.73170
363150 4.48189
363971 4.25028
364791 4.03773
365612 3.83956
366433 3.65507
367254 3.48366
368074 3.32252
368895 3.17197
369716 3.03038
370536 2.89655
371879 2.69463
373222 2.50986
374565 2.34014
375237 2.25946
375908 2.18391
376580 2.10959
377251 2.04002
378594 1.90768
379937 1.78643
381280 1.67621
382325 1.59898
383369 1.52883
384414 1.46605
384936 1.43640
385458 1.40979
386503 1.36358
387547 1.32676
388070 1.31214
388592 1.30020
389114 1.29110
389636 1.28506
390233 1.28229
391052 1.28633
391462 1.29111
391872 1.29903
392691 1.32167
393100 1.33724
393510 1.35584
393919 1.37678
394329 1.40093
395148 1.45948
395558 1.49322
395967 1.53159
396786 1.61732
397196 1.66702
397605 1.72005
398015 1.77631
398424 1.83798
399243 1.97263
399653 2.04679
400062 2.12559
400472 2.20788
400881 2.29483
401700 2.48261
402110 2.58224
402519 2.68739
403338 2.90755
404008 3.10006
404678 3.30194
406019 3.73030
407359 4.17900
408699 4.63838
410337 5.19170
411156 5.46040
411975 5.71518
412794 5.95680
413613 6.18641
414432 6.39580
415251 6.58529
416070 6.75957
416889 6.91311
417708 7.04339
418527 7.15858
419346 7.25640
420165 7.33116
421803 7.44231
423589 7.49339
425376 7.49657
427332 7.44911
429288 7.36809
431243 7.26269
433199 7.14259
441021 6.61166
445170 6.34080
449320 6.09080
453469 5.86355
457619 5.65839
461768 5.47411
465917 5.30789
470067 5.15761
474216 5.02135
478366 4.89819
482515 4.78495
490814 4.58598
499113 4.41606
507411 4.26899
516464 4.12942
525518 4.00687
534571 3.89790
543624 3.79988
560222 3.64245
576819 3.50593
593417 3.38439
610014 3.27367
616050 3.23549
632647 3.13484
649245 3.03877
682440 2.85460
724688 2.63053
741286 2.55229
749584 2.51961
757883 2.49498
763919 2.48523
769200 2.48532
774481 2.49576
779762 2.52215
782402 2.54292
785043 2.57000
789192 2.62934
791267 2.66789
793342 2.71422
795416 2.76843
797491 2.83305
799566 2.90901
801640 2.99721
803727 3.10307
805814 3.22559
807901 3.36868
808945 3.44900
809988 3.53643
812075 3.72893
814162 3.95415
815206 4.07692
816249 4.21224
818336 4.50472
820479 4.85031
821550 5.03583
822621 5.23533
824764 5.66093
826906 6.12455
831191 7.11374
833333 7.60668
835476 8.07132
836644 8.29895
837813 8.50696
838982 8.69379
840150 8.85696
841709 9.02378
843268 9.13607
844826 9.19354
846385 9.19835
847624 9.16421
848862 9.10435
850101 9.02184
851339 8.91926
852578 8.79856
853816 8.65440
856293 8.35630
866201 7.04957
869256 6.68157
872312 6.34238
875367 6.03253
878422 5.75091
881478 5.49717
884533 5.26539
887588 5.05464
890644 4.86371
893699 4.68802
896754 4.52763
899809 4.37977
902865 4.24225
908975 3.99661
915086 3.78028
921196 3.58634
927307 3.40939
937306 3.14585
947305 2.90146
971748 2.32439
983969 2.03017
990079 1.88663
993135 1.81889
996190 1.75572
998968 1.70555
1.00036E+06 1.68316
1.00175E+06 1.66425
1.00313E+06 1.64735
1.00452E+06 1.63497
1.00730E+06 1.62190
1.00889E+06 1.62500
1.01049E+06 1.63704
1.01208E+06 1.65931
1.01288E+06 1.67380
1.01368E+06 1.69214
1.01527E+06 1.73983
1.01686E+06 1.80161
1.01766E+06 1.83814
1.01846E+06 1.87962
1.01925E+06 1.92565
1.02005E+06 1.97641
1.02087E+06 2.03422
1.02170E+06 2.09744
1.02252E+06 2.16607
1.02334E+06 2.24114
1.02416E+06 2.32040
1.02499E+06 2.40609
1.02581E+06 2.49500
1.02663E+06 2.59189
1.02746E+06 2.69082
1.02828E+06 2.79696
1.02992E+06 3.01807
1.03157E+06 3.25116
1.03321E+06 3.49102
1.03541E+06 3.80985
1.03760E+06 4.11534
1.03979E+06 4.39024
1.04089E+06 4.51527
1.04199E+06 4.63109
1.04309E+06 4.73305
1.04418E+06 4.82497
1.04638E+06 4.97961
1.04857E+06 5.08960
1.05076E+06 5.16717
1.05296E+06 5.20878
1.05515E+06 5.23300
1.05808E+06 5.23047
1.06243E+06 5.18190
1.06678E+06 5.10108
1.07548E+06 4.89743
1.08381E+06 4.69245
1.09214E+06 4.49869
1.09972E+06 4.33766
1.10729E+06 4.19048
1.11487E+06 4.05698
1.12245E+06 3.93456
1.13078E+06 3.81153
1.13911E+06 3.69826
1.15578E+06 3.49446
1.17093E+06 3.32859
1.19517E+06 3.08802
1.21941E+06 2.86977
1.23608E+06 2.73677
1.24441E+06 2.67998
1.25274E+06 2.63429
1.25729E+06 2.61669
1.25956E+06 2.61006
1.26070E+06 2.60755
1.26127E+06 2.60629
1.26155E+06 2.60566
1.26169E+06 2.60864
1.26173E+06 2.62383
1.26175E+06 2.64340
1.26176E+06 2.67440
1.26178E+06 2.72419
1.26179E+06 2.75623
1.26180E+06 2.79291
1.26182E+06 2.87808
1.26183E+06 2.96754
1.26184E+06 3.34072
1.30000E+06 3.28994
1.33304E+06 3.24635
1.33304E+06 3.24635
1.40000E+06 3.26616
1.50000E+06 3.19008
1.60000E+06 3.11541
1.70000E+06 3.04363
1.80000E+06 2.97318
1.90000E+06 2.90631
2.00000E+06 2.84074
2.05718E+06 2.80546
2.10000E+06 2.77904
2.20000E+06 2.71862
2.30000E+06 2.66221
2.40000E+06 2.60696
2.50000E+06 2.55556
2.60000E+06 2.50534
2.70000E+06 2.45885
2.80000E+06 2.41351
2.90000E+06 2.37168
3.00000E+06 2.33094
3.10000E+06 2.29349
3.20000E+06 2.25712
3.30000E+06 2.22377
3.40000E+06 2.19144
3.50000E+06 2.15786
3.51171E+06 2.15399
3.60000E+06 2.13336
3.70000E+06 2.10731
3.80000E+06 2.08219
3.90000E+06 2.05933
4.00000E+06 2.03736
4.20000E+06 1.99822
4.40000E+06 1.96419
4.60000E+06 1.93465
4.66017E+06 1.91532
4.66017E+06 1.91532
4.80000E+06 1.90909
5.00000E+06 1.88687
5.20000E+06 1.86752
5.38234E+06 1.84676
5.38234E+06 1.84676
5.40000E+06 1.85061
5.57635E+06 1.83167
5.57635E+06 1.83167
5.60000E+06 1.83573
5.60919E+06 1.83365
5.60919E+06 1.83365
5.77705E+06 1.82232
5.77705E+06 1.82232
5.80000E+06 1.82252
5.90015E+06 1.81132
5.90015E+06 1.81132
5.97311E+06 1.81081
5.97311E+06 1.81081
6.00000E+06 1.81069
6.07351E+06 1.80500
6.18117E+06 1.79708
6.18118E+06 1.79708
6.20000E+06 1.79998
6.40000E+06 1.79019
6.40081E+06 1.79007
6.52024E+06 1.78277
6.52025E+06 1.78277
6.59973E+06 1.78115
6.59973E+06 1.78115
6.60000E+06 1.78115
6.63759E+06 1.77835
6.63759E+06 1.77835
6.80000E+06 1.77273
6.93974E+06 1.76471
6.93974E+06 1.76471
6.99789E+06 1.76483
6.99789E+06 1.76483
7.00000E+06 1.76494
7.13218E+06 1.75511
7.13218E+06 1.75511
7.16994E+06 1.75506
7.20000E+06 1.75740
7.21679E+06 1.75599
7.21679E+06 1.75599
7.37430E+06 1.74952
7.40000E+06 1.75036
7.51231E+06 1.74652
7.60000E+06 1.74369
7.67739E+06 1.73731
7.67739E+06 1.73731
7.67959E+06 1.73716
7.74558E+06 1.73500
7.74558E+06 1.73500
7.76252E+06 1.73549
7.76253E+06 1.73549
7.80000E+06 1.73737
7.81158E+06 1.73636
7.83459E+06 1.73508
7.99356E+06 1.73093
8.00000E+06 1.73137
8.01636E+06 1.72989
8.07618E+06 1.72588
8.28598E+06 1.71774
8.28598E+06 1.71774
8.44683E+06 1.71626
8.44684E+06 1.71626
8.45338E+06 1.71645
8.50000E+06 1.71782
8.87957E+06 1.70890
9.00000E+06 1.70636
9.18120E+06 1.70277
9.27125E+06 1.70108
9.35293E+06 1.69961
9.50000E+06 1.69708
1.00000E+07 1.69005
1.00257E+07 1.68978
1.00258E+07 1.68978
1.00990E+07 1.68901
1.02709E+07 1.68733
1.04960E+07 1.68534
1.04960E+07 1.68534
1.04997E+07 1.68531
1.05000E+07 1.68531
1.05709E+07 1.68419
1.08203E+07 1.68045
1.08396E+07 1.68017
1.08397E+07 1.68017
1.10000E+07 1.68280
1.12376E+07 1.68250
1.15000E+07 1.68239
1.19812E+07 1.68385
1.20000E+07 1.68392
1.21983E+07 1.68513
1.25000E+07 1.68714
1.26035E+07 1.68807
1.30000E+07 1.69180
1.31862E+07 1.69394
1.35000E+07 1.69764
1.36232E+07 1.69927
1.36397E+07 1.69950
1.38114E+07 1.70181
1.39324E+07 1.70345
1.40000E+07 1.70437
1.40311E+07 1.70483
1.45000E+07 1.71175
1.47911E+07 1.71627
1.50000E+07 1.71952
1.53495E+07 1.72513
1.53496E+07 1.72513
1.54494E+07 1.72673
1.54750E+07 1.72714
1.55000E+07 1.72754
1.55685E+07 1.72863
1.57730E+07 1.73187
1.59663E+07 1.73490
1.59663E+07 1.73490
1.60000E+07 1.73543
1.62546E+07 1.73944
1.64289E+07 1.74215
1.65000E+07 1.74325
1.65972E+07 1.74473
1.66738E+07 1.74590
1.67159E+07 1.74653
1.69377E+07 1.74984
1.70000E+07 1.75076
1.75000E+07 1.75792
1.78146E+07 1.76220
1.80000E+07 1.76464
1.84455E+07 1.77023
1.84455E+07 1.77023
1.85000E+07 1.77089
1.90000E+07 1.77660
1.95000E+07 1.78180
1.95376E+07 1.78217
1.95376E+07 1.78217
2.00000E+07 1.78643
2.10000E+07 1.79413
2.20000E+07 1.79975
2.21128E+07 1.80017
2.24266E+07 1.80132
2.28575E+07 1.80291
2.30000E+07 1.80343
2.36295E+07 1.80458
2.38253E+07 1.80494
2.40000E+07 1.80526
2.44393E+07 1.80531
2.44567E+07 1.80531
2.50000E+07 1.80537
2.51758E+07 1.80509
2.52830E+07 1.80493
2.60000E+07 1.80381
2.66958E+07 1.80169
2.67833E+07 1.80142
2.70000E+07 1.80076
2.74946E+07 1.79851
2.76096E+07 1.79799
2.80000E+07 1.79622
2.89708E+07 1.79050
2.90000E+07 1.79033
3.00000E+07 1.78312
3.00000E+07 1.78233
3.00000E+07 1.78233
3.10000E+07 1.77413
3.20000E+07 1.76451
3.30000E+07 1.75418
3.40000E+07 1.74260
3.50000E+07 1.73043
3.60000E+07 1.71721
3.70000E+07 1.70355
3.80000E+07 1.68898
3.90000E+07 1.67410
4.00000E+07 1.65847
4.10000E+07 1.64262
4.20000E+07 1.62618
4.30000E+07 1.60962
4.40000E+07 1.59257
4.50000E+07 1.57549
4.60000E+07 1.55803
4.70000E+07 1.54062
4.80000E+07 1.52291
4.90000E+07 1.50531
5.00000E+07 1.48750
5.10000E+07 1.46984
5.20000E+07 1.45204
5.30000E+07 1.43444
5.40000E+07 1.41674
5.50000E+07 1.39928
5.60000E+07 1.38173
5.70000E+07 1.36448
5.80000E+07 1.34724
5.90000E+07 1.33027
6.00000E+07 1.31334
6.10000E+07 1.29685
6.20000E+07 1.28044
6.30000E+07 1.26410
6.40000E+07 1.24786
6.50000E+07 1.23172
6.60000E+07 1.21618
6.70000E+07 1.20076
6.80000E+07 1.18546
6.90000E+07 1.17030
7.00000E+07 1.15527
7.10000E+07 1.14080
7.20000E+07 1.12648
7.30000E+07 1.11231
7.40000E+07 1.09829
7.50000E+07 1.08443
7.60000E+07 1.07108
7.70000E+07 1.05802
7.80000E+07 1.04499
7.90000E+07 1.03225
8.00000E+07 1.01955
8.10000E+07 1.00746
8.20000E+07 0.995653
8.30000E+07 0.983884
8.40000E+07 0.972404
8.50000E+07 0.960959
8.60000E+07 0.949673
8.70000E+07 0.938673
8.80000E+07 0.927703
8.90000E+07 0.917017
9.00000E+07 0.906360
9.10000E+07 0.896327
9.20000E+07 0.886574
9.30000E+07 0.876844
9.40000E+07 0.867388
9.50000E+07 0.857954
9.60000E+07 0.848663
9.70000E+07 0.839641
9.80000E+07 0.830636
9.90000E+07 0.821891
1.00000E+08 0.813161
1.02000E+08 0.796941
1.04000E+08 0.781122
1.06000E+08 0.765929
1.08000E+08 0.751225
1.10000E+08 0.736992
1.12000E+08 0.723646
1.14000E+08 0.710859
1.16000E+08 0.698493
1.18000E+08 0.686421
1.20000E+08 0.674856
1.22000E+08 0.664122
1.24000E+08 0.653640
1.26000E+08 0.643621
1.28000E+08 0.633937
1.30000E+08 0.624467
1.32000E+08 0.615735
1.34000E+08 0.607301
1.36000E+08 0.599049
1.38000E+08 0.591179
1.40000E+08 0.583573
1.42000E+08 0.576418
1.44000E+08 0.569610
1.46000E+08 0.563036
1.48000E+08 0.556591
1.50000E+08 0.550464
1.52000E+08 0.544664
1.54000E+08 0.539165
1.56000E+08 0.533858
1.58000E+08 0.528645
1.60000E+08 0.523707
1.62000E+08 0.519178
1.64000E+08 0.514723
1.66000E+08 0.510523
1.68000E+08 0.506388
1.70000E+08 0.502496
1.72000E+08 0.498747
1.74000E+08 0.495052
1.76000E+08 0.491582
1.78000E+08 0.488155
1.80000E+08 0.484946
1.82000E+08 0.482019
1.84000E+08 0.479302
1.86000E+08 0.476701
1.88000E+08 0.474128
1.90000E+08 0.471753
1.92000E+08 0.469399
1.94000E+08 0.467238
1.96000E+08 0.465180
1.98000E+08 0.463138
2.00000E+08 0.461280
