Mg-24(n,tot) ENDFB-8.0
Energy(eV) XS(b)
1.00000E-05 46.7680
1.03125E-05 46.0581
1.06250E-05 45.3798
1.09375E-05 44.7309
1.12500E-05 44.1092
1.15625E-05 43.5130
1.18750E-05 42.9405
1.21875E-05 42.3902
1.25000E-05 41.8608
1.28125E-05 41.3508
1.31250E-05 40.8593
1.34375E-05 40.3850
1.37500E-05 39.9270
1.43750E-05 39.0565
1.50000E-05 38.2410
1.56250E-05 37.4751
1.62500E-05 36.7540
1.68750E-05 36.0734
1.75000E-05 35.4298
1.81250E-05 34.8198
1.87500E-05 34.2407
1.93750E-05 33.6900
2.00000E-05 33.1653
2.09375E-05 32.4231
2.18750E-05 31.7292
2.28125E-05 31.0787
2.37500E-05 30.4674
2.46875E-05 29.8913
2.56250E-05 29.3473
2.65625E-05 28.8325
2.75000E-05 28.3444
2.84375E-05 27.8807
2.93750E-05 27.4396
3.03125E-05 27.0192
3.12500E-05 26.6179
3.21875E-05 26.2344
3.31250E-05 25.8675
3.40625E-05 25.5158
3.50000E-05 25.1785
3.59375E-05 24.8546
3.68750E-05 24.5431
3.78125E-05 24.2434
3.87500E-05 23.9548
3.96875E-05 23.6765
4.06250E-05 23.4079
4.25000E-05 22.8980
4.43750E-05 22.4209
4.62500E-05 21.9734
4.81250E-05 21.5526
5.00000E-05 21.1558
5.15625E-05 20.8421
5.31250E-05 20.5423
5.46875E-05 20.2557
5.62500E-05 19.9812
5.78125E-05 19.7180
5.93750E-05 19.4654
6.09375E-05 19.2227
6.25000E-05 18.9893
6.40625E-05 18.7645
6.56250E-05 18.5479
6.71875E-05 18.3391
6.87500E-05 18.1374
7.18750E-05 17.7543
7.50000E-05 17.3957
7.81250E-05 17.0592
8.12500E-05 16.7425
8.43750E-05 16.4438
8.75000E-05 16.1616
9.06250E-05 15.8943
9.37500E-05 15.6407
9.68750E-05 15.3997
0.000100000 15.1703
0.000103125 14.9516
0.000106250 14.7428
0.000109375 14.5432
0.000112500 14.3522
0.000115625 14.1690
0.000118750 13.9934
0.000121875 13.8247
0.000125000 13.6624
0.000128125 13.5063
0.000131250 13.3560
0.000134375 13.2110
0.000137500 13.0711
0.000143750 12.8055
0.000150000 12.5572
0.000156250 12.3243
0.000162500 12.1053
0.000168750 11.8990
0.000175000 11.7041
0.000181250 11.5198
0.000187500 11.3451
0.000193750 11.1791
0.000200000 11.0213
0.000209375 10.7984
0.000218750 10.5906
0.000228125 10.3962
0.000237500 10.2139
0.000246875 10.0425
0.000256250 9.88101
0.000265625 9.72855
0.000275000 9.58431
0.000284375 9.44762
0.000293750 9.31785
0.000303125 9.19446
0.000312500 9.07696
0.000321875 8.96491
0.000331250 8.85792
0.000340625 8.75563
0.000350000 8.65773
0.000359375 8.56391
0.000368750 8.47392
0.000378125 8.38751
0.000387500 8.30445
0.000396875 8.22456
0.000406250 8.14763
0.000425000 8.00202
0.000443750 7.86640
0.000462500 7.73973
0.000481250 7.62110
0.000500000 7.50975
0.000515625 7.42202
0.000531250 7.33851
0.000546875 7.25893
0.000562500 7.18298
0.000578125 7.11042
0.000593750 7.04101
0.000609375 6.97455
0.000625000 6.91084
0.000640625 6.84971
0.000656250 6.79100
0.000671875 6.73457
0.000687500 6.68028
0.000718750 6.57763
0.000750000 6.48219
0.000781250 6.39319
0.000812500 6.30999
0.000843750 6.23203
0.000875000 6.15882
0.000906250 6.08992
0.000937500 6.02496
0.000968750 5.96360
0.00100000 5.90555
0.00103125 5.85055
0.00106250 5.79834
0.00109375 5.74873
0.00112500 5.70153
0.00115625 5.65655
0.00118750 5.61364
0.00121875 5.57267
0.00125000 5.53350
0.00128125 5.49602
0.00131250 5.46011
0.00134375 5.42568
0.00137500 5.39265
0.00143750 5.33042
0.00150000 5.27284
0.00156250 5.21940
0.00162500 5.16967
0.00168750 5.12328
0.00175000 5.07990
0.00181250 5.03924
0.00187500 5.00106
0.00193750 4.96515
0.00200000 4.93129
0.00209375 4.88401
0.00218750 4.84049
0.00228125 4.80029
0.00237500 4.76305
0.00246875 4.72846
0.00256250 4.69624
0.00265625 4.66616
0.00275000 4.63801
0.00284375 4.61162
0.00293750 4.58682
0.00303125 4.56348
0.00312500 4.54146
0.00321875 4.52067
0.00331250 4.50100
0.00340625 4.48236
0.00350000 4.46468
0.00359375 4.44788
0.00368750 4.43189
0.00378125 4.41667
0.00387500 4.40215
0.00396875 4.38829
0.00406250 4.37505
0.00425000 4.35025
0.00443750 4.32746
0.00462500 4.30646
0.00481250 4.28704
0.00500000 4.26902
0.00515625 4.25497
0.00531250 4.24172
0.00546875 4.22920
0.00562500 4.21735
0.00578125 4.20612
0.00593750 4.19546
0.00609375 4.18533
0.00625000 4.17569
0.00640625 4.16650
0.00656250 4.15773
0.00671875 4.14936
0.00687500 4.14136
0.00718750 4.12635
0.00750000 4.11256
0.00781250 4.09982
0.00812500 4.08804
0.00843750 4.07709
0.00875000 4.06690
0.00906250 4.05738
0.00937500 4.04847
0.00968750 4.04012
0.0100000 4.03226
0.0103125 4.02487
0.0106250 4.01789
0.0109375 4.01129
0.0112500 4.00505
0.0115625 3.99913
0.0118750 3.99350
0.0121875 3.98816
0.0125000 3.98307
0.0128125 3.97821
0.0131250 3.97358
0.0134375 3.96915
0.0137500 3.96492
0.0143750 3.95697
0.0150000 3.94966
0.0156250 3.94291
0.0162500 3.93665
0.0168750 3.93083
0.0175000 3.92541
0.0181250 3.92035
0.0187500 3.91560
0.0193750 3.91114
0.0200000 3.90695
0.0206625 3.90277
0.0213250 3.89884
0.0219875 3.89513
0.0226500 3.89162
0.0233125 3.88830
0.0239750 3.88516
0.0246375 3.88217
0.0253000 3.87934
0.0264578 3.87470
0.0276156 3.87043
0.0287734 3.86648
0.0299313 3.86282
0.0310891 3.85942
0.0322469 3.85624
0.0334047 3.85327
0.0345625 3.85049
0.0355274 3.84830
0.0364922 3.84622
0.0374570 3.84424
0.0384219 3.84235
0.0393867 3.84055
0.0403516 3.83882
0.0413164 3.83718
0.0422813 3.83560
0.0442109 3.83264
0.0461406 3.82991
0.0480703 3.82738
0.0500000 3.82503
0.0515625 3.82325
0.0531250 3.82157
0.0546875 3.81997
0.0562500 3.81846
0.0578125 3.81702
0.0593750 3.81565
0.0609375 3.81435
0.0625000 3.81310
0.0640625 3.81192
0.0656250 3.81078
0.0671875 3.80969
0.0687500 3.80865
0.0718750 3.80669
0.0750000 3.80488
0.0781250 3.80321
0.0812500 3.80165
0.0843750 3.80019
0.0875000 3.79884
0.0906250 3.79756
0.0937500 3.79637
0.0968750 3.79524
0.100000 3.79418
0.103125 3.79317
0.106250 3.79222
0.109375 3.79132
0.112500 3.79047
0.115625 3.78965
0.118750 3.78888
0.121875 3.78814
0.125000 3.78743
0.128125 3.78676
0.131250 3.78611
0.134375 3.78549
0.137500 3.78490
0.143750 3.78378
0.150000 3.78274
0.156250 3.78178
0.162500 3.78089
0.168750 3.78005
0.175000 3.77927
0.181250 3.77854
0.187500 3.77785
0.193750 3.77719
0.200000 3.77658
0.209375 3.77572
0.218750 3.77492
0.228125 3.77418
0.237500 3.77350
0.246875 3.77286
0.256250 3.77226
0.265625 3.77170
0.275000 3.77117
0.284375 3.77067
0.293750 3.77020
0.303125 3.76975
0.312500 3.76933
0.321875 3.76893
0.331250 3.76855
0.340625 3.76819
0.350000 3.76785
0.359375 3.76752
0.368750 3.76720
0.378125 3.76690
0.387500 3.76661
0.396875 3.76633
0.406250 3.76607
0.425000 3.76557
0.443750 3.76510
0.462500 3.76467
0.500000 3.76389
0.531250 3.76331
0.562500 3.76279
0.593750 3.76232
0.625000 3.76188
0.687500 3.76111
0.750000 3.76046
0.812500 3.75988
0.875000 3.75938
0.937500 3.75894
1.00000 3.75854
1.06250 3.75818
1.12500 3.75785
1.18750 3.75756
1.25000 3.75728
1.37500 3.75680
1.50000 3.75639
1.62500 3.75603
1.75000 3.75571
1.87500 3.75543
2.00000 3.75517
2.18750 3.75483
2.37500 3.75454
2.56250 3.75428
2.75000 3.75406
2.93750 3.75385
3.12500 3.75367
3.31250 3.75350
3.50000 3.75335
3.87500 3.75308
4.25000 3.75284
4.62500 3.75264
5.00000 3.75247
5.31250 3.75233
5.62500 3.75221
5.93750 3.75210
6.25000 3.75200
6.87500 3.75182
7.50000 3.75166
8.12500 3.75152
8.75000 3.75140
9.37500 3.75129
10.0000 3.75119
10.6250 3.75110
11.2500 3.75101
11.8750 3.75094
12.5000 3.75087
13.7500 3.75074
15.0000 3.75063
16.2500 3.75053
17.5000 3.75045
18.7500 3.75037
20.0000 3.75029
21.8750 3.75020
23.7500 3.75011
25.6250 3.75004
27.5000 3.74997
29.3750 3.74990
31.2500 3.74984
33.1250 3.74979
35.0000 3.74974
38.7500 3.74965
42.5000 3.74957
46.2500 3.74949
50.0000 3.74943
53.1250 3.74937
56.2500 3.74932
59.3750 3.74928
62.5000 3.74924
68.7500 3.74915
75.0000 3.74908
81.2500 3.74901
87.5000 3.74894
93.7500 3.74888
100.000 3.74882
106.250 3.74877
112.500 3.74871
125.000 3.74861
137.500 3.74851
150.000 3.74842
162.500 3.74833
175.000 3.74824
187.500 3.74816
200.000 3.74808
218.750 3.74795
237.500 3.74784
256.250 3.74772
275.000 3.74761
312.500 3.74739
350.000 3.74718
387.500 3.74697
425.000 3.74676
462.500 3.74656
500.000 3.74636
562.500 3.74603
625.000 3.74570
687.500 3.74537
750.000 3.74505
875.000 3.74440
1000.00 3.74377
1125.00 3.74314
1250.00 3.74251
1375.00 3.74189
1500.00 3.74127
1750.00 3.74003
2000.00 3.73881
2375.00 3.73699
2750.00 3.73519
3125.00 3.73340
3500.00 3.73163
4250.00 3.72815
5000.00 3.72473
5625.00 3.72193
6250.00 3.71917
7500.00 3.71380
8750.00 3.70861
10000.0 3.70362
12500.0 3.69425
13125.0 3.69204
15000.0 3.68576
17500.0 3.67826
20000.0 3.67189
23705.4 3.66495
27410.7 3.66161
31116.0 3.66296
34821.4 3.67059
36998.0 3.67910
39174.6 3.69126
41351.1 3.70794
43527.7 3.73036
44000.0 3.73612
44994.4 3.74946
45243.0 3.75306
45491.7 3.75679
45740.3 3.76067
45864.6 3.76269
45926.7 3.76373
45988.9 3.76482
46050.0 3.76594
46080.5 3.76655
46111.1 3.76720
46141.7 3.76792
46156.9 3.76833
46172.2 3.76877
46187.5 3.76927
46202.8 3.76986
46218.0 3.77058
46233.3 3.77150
46242.2 3.77218
46251.0 3.77300
46259.9 3.77404
46268.7 3.77542
46273.1 3.77629
46277.5 3.77732
46282.0 3.77856
46286.4 3.78009
46290.8 3.78200
46295.2 3.78446
46299.7 3.78776
46301.9 3.78989
46304.1 3.79249
46305.8 3.79497
46307.5 3.79803
46309.2 3.80195
46310.9 3.80713
46312.6 3.81423
46314.3 3.82424
46315.2 3.83082
46316.0 3.83864
46316.9 3.84808
46317.7 3.85946
46318.6 3.87336
46319.5 3.88994
46320.3 3.91013
46321.2 3.93409
46322.0 3.96309
46322.9 3.99722
46323.7 4.03815
46324.6 4.08584
46325.4 4.14241
46326.3 4.20754
46327.2 4.28382
46328.0 4.37047
46328.9 4.47053
46329.7 4.58256
46330.6 4.70841
46331.4 4.84867
46332.8 5.11399
46334.2 5.41991
46335.6 5.76392
46337.0 6.13780
46338.5 6.53834
46339.9 6.94830
46341.3 7.35919
46342.7 7.74899
46343.7 8.02163
46344.8 8.26673
46345.8 8.47733
46346.9 8.64585
46347.7 8.74429
46348.5 8.81487
46349.1 8.84832
46349.7 8.86559
46350.0 8.86812
46350.9 8.84859
46351.5 8.81320
46352.2 8.76033
46352.9 8.68035
46353.5 8.58148
46354.2 8.46218
46354.9 8.32738
46355.8 8.14271
46356.6 7.94115
46357.4 7.72136
46358.3 7.49219
46361.6 6.52053
46363.2 6.07976
46364.7 5.67024
46365.5 5.48074
46366.3 5.30272
46367.1 5.13678
46367.9 4.98327
46368.6 4.84230
46369.4 4.71377
46370.2 4.59737
46371.0 4.49267
46371.8 4.39910
46372.5 4.31599
46374.1 4.17900
46375.1 4.10434
46376.2 4.04288
46377.3 3.99273
46378.3 3.95215
46379.4 3.91955
46380.4 3.89351
46381.5 3.87282
46382.6 3.85657
46383.6 3.84358
46384.7 3.83330
46385.7 3.82514
46386.8 3.81869
46387.8 3.81345
46388.9 3.80921
46391.0 3.80287
46393.1 3.79836
46395.2 3.79501
46397.4 3.79239
46399.5 3.79028
46403.7 3.78702
46407.9 3.78463
46414.2 3.78208
46420.4 3.78027
46426.7 3.77895
46432.9 3.77797
46439.1 3.77721
46445.4 3.77663
46451.6 3.77618
46457.8 3.77583
46470.3 3.77534
46482.8 3.77504
46495.3 3.77487
46507.7 3.77478
46520.6 3.77477
46533.6 3.77480
46559.4 3.77497
46585.2 3.77522
46611.1 3.77554
46636.9 3.77588
46662.7 3.77626
46714.4 3.77706
46766.1 3.77790
46817.8 3.77878
46921.1 3.78057
47020.9 3.78236
47120.7 3.78419
47320.2 3.78791
47719.3 3.79565
48859.7 3.82016
50000.0 3.84823
52265.5 3.91788
54530.9 4.00957
55663.7 4.06734
56796.4 4.13416
57929.2 4.21161
59061.9 4.30169
60307.9 4.42050
61553.9 4.56334
62799.9 4.73621
63422.9 4.83663
64045.9 4.94708
64668.9 5.07121
65291.9 5.20843
65914.9 5.36152
66537.9 5.53405
67160.9 5.72619
67783.9 5.94428
68406.9 6.19071
69029.9 6.46801
69539.7 6.72626
70049.4 7.01459
70559.1 7.33715
70814.0 7.50964
71068.9 7.69910
71323.7 7.89313
71578.6 8.10653
72088.3 8.56667
72343.2 8.81676
72598.1 9.08644
72852.9 9.37413
73107.8 9.68165
73419.3 10.0894
73730.8 10.5306
74042.3 11.0110
74353.8 11.5380
74665.3 12.1103
74976.8 12.7404
75288.3 13.4311
75599.8 14.1855
75911.3 15.0239
76222.8 15.9426
76534.3 16.9563
76845.8 18.0835
77157.3 19.3221
77468.8 20.7031
77624.6 21.4422
77780.3 22.2333
78091.8 23.9198
78289.2 25.0913
78486.5 26.3429
78683.8 27.6766
78881.1 29.0966
79078.5 30.6124
79275.8 32.2032
79473.1 33.9276
79670.4 35.7379
79867.7 37.6316
80065.1 39.6506
80459.7 43.9558
80657.0 46.2330
80854.4 48.6124
81249.0 53.4074
81512.8 56.6425
81776.6 59.7858
82040.4 62.7380
82304.2 65.3923
82436.1 66.6085
82568.0 67.6843
82699.9 68.6342
82831.7 69.4469
82963.6 70.1128
83095.5 70.6238
83227.4 70.9731
83359.3 71.1561
83500.0 71.1675
83658.3 70.9539
83816.6 70.5094
83974.8 69.8503
84133.1 68.9925
84291.4 67.9537
84449.7 66.7139
84607.9 65.4071
84766.2 63.9194
85082.7 60.7458
85399.3 57.3398
86032.4 50.4365
86372.3 46.8773
86712.3 43.5133
86882.2 41.8971
87052.2 40.3742
87392.1 37.4739
87732.1 34.8211
88072.0 32.4182
88412.0 30.2319
88751.9 28.2524
89009.7 26.8847
89267.4 25.6115
89525.2 24.4305
89783.0 23.3400
90040.7 22.3226
90298.5 21.3816
90556.3 20.5066
90814.0 19.6892
91060.1 18.9701
91306.2 18.2929
91798.3 17.0602
92044.3 16.5048
92290.4 15.9832
92536.4 15.4850
92782.5 15.0253
93274.6 14.1743
93766.7 13.4245
94012.7 13.0740
94258.8 12.7503
94750.9 12.1427
95266.4 11.5781
95782.0 11.0670
96297.5 10.6057
96813.0 10.1909
97328.6 9.81174
97844.1 9.46844
98359.7 9.15481
98875.2 8.86610
99437.6 8.58078
100000 8.31796
100824 7.97598
101648 7.67104
102472 7.39988
103296 7.15949
104120 6.94221
104944 6.74779
105767 6.57197
106591 6.41149
108239 6.13434
109887 5.90186
111535 5.70485
113183 5.53649
114831 5.39293
116478 5.26712
118126 5.15728
119774 5.06172
121422 4.97675
123070 4.90216
126365 4.77660
129960 4.66945
133556 4.58614
137151 4.52181
140746 4.47315
146738 4.42157
152730 4.39981
156925 4.40226
161119 4.41805
165314 4.44751
169508 4.49139
172804 4.53749
174451 4.56433
175275 4.57887
175687 4.58644
175893 4.59029
176099 4.59425
176207 4.59637
176261 4.59747
176315 4.59859
176368 4.59976
176395 4.60038
176422 4.60102
176449 4.60171
176476 4.60246
176503 4.60332
176516 4.60382
176530 4.60436
176543 4.60496
176556 4.60567
176569 4.60653
176581 4.60762
176588 4.60830
176594 4.60910
176601 4.61008
176607 4.61130
176614 4.61296
176617 4.61403
176620 4.61538
176623 4.61713
176626 4.61949
176630 4.62275
176633 4.62736
176635 4.63232
176638 4.63891
176640 4.64768
176643 4.65927
176645 4.67452
176648 4.69438
176650 4.71996
176653 4.75248
176655 4.79324
176658 4.84355
176660 4.90464
176663 4.97756
176665 5.06301
176668 5.16126
176673 5.38898
176677 5.60822
176681 5.84032
176685 6.06730
176689 6.26355
176693 6.39912
176696 6.48896
176699 6.52432
176700 6.52576
176703 6.50983
176705 6.46553
176708 6.39815
176710 6.30511
176712 6.19756
176717 5.94573
176723 5.61215
176729 5.30849
176733 5.13949
176737 4.99613
176739 4.93750
176740 4.88848
176742 4.84548
176744 4.80810
176746 4.77422
176748 4.74693
176749 4.72379
176751 4.70432
176753 4.68724
176755 4.67388
176757 4.66287
176759 4.65383
176760 4.64608
176762 4.64014
176764 4.63532
176766 4.63142
176768 4.62810
176770 4.62556
176771 4.62349
176773 4.62181
176777 4.61921
176780 4.61746
176784 4.61616
176788 4.61521
176795 4.61386
176800 4.61321
176805 4.61270
176814 4.61195
176824 4.61144
176834 4.61110
176843 4.61088
176853 4.61074
176873 4.61063
176892 4.61067
176911 4.61081
176931 4.61102
176950 4.61126
176989 4.61184
177028 4.61248
177067 4.61317
177105 4.61388
177183 4.61536
177261 4.61688
177338 4.61842
177416 4.61998
177571 4.62314
177727 4.62632
177882 4.62955
178192 4.63608
178938 4.65228
179683 4.66906
182291 4.73370
184900 4.80682
187508 4.89023
190117 4.98377
192725 5.08880
195334 5.20793
197942 5.34056
200550 5.48796
202982 5.64264
205413 5.81330
207844 6.00122
210275 6.21060
212706 6.43941
215138 6.68996
217569 6.96360
218784 7.11260
219392 7.18710
219696 7.22435
219848 7.24296
219924 7.25221
219962 7.24568
219981 7.20648
220000 7.12475
220000 7.12377
220001 7.12084
220001 7.11790
220003 7.11206
220005 7.10050
220010 7.07839
220019 7.04125
220039 7.00289
220097 6.99847
220155 7.01552
220177 7.01780
220186 7.01817
220212 7.02010
220237 7.02405
220288 7.03210
220407 7.04695
220511 7.06106
220660 7.07968
220868 7.10901
221165 7.15136
221462 7.18971
221848 7.24888
222234 7.29542
222888 7.38872
223839 7.52051
225146 7.72771
226572 7.93848
228927 8.33624
231936 8.87087
233342 9.12677
234748 9.40101
236998 9.84313
239248 10.3097
243220 11.1273
247302 11.9602
248651 12.2341
249326 12.3703
249663 12.4390
249831 12.4730
249916 12.4899
249958 12.4830
249979 12.4221
250000 12.2871
250000 12.2856
250001 12.2782
250002 12.2716
250004 12.2578
250008 12.2314
250015 12.1826
250030 12.1148
250060 12.0780
250119 12.0848
250239 12.1031
250477 12.1404
250954 12.2131
252274 12.4156
253594 12.6169
254297 12.7092
254999 12.8013
255435 12.8577
255652 12.8861
255870 12.9143
256092 12.9432
256202 12.9577
256313 12.9721
256379 12.9807
256444 12.9893
256510 12.9980
256575 13.0067
256618 13.0125
256661 13.0183
256704 13.0260
256747 13.0413
256775 13.0534
256802 13.0657
256830 13.0781
256857 13.0908
256880 13.1017
256903 13.1147
256925 13.1335
256948 13.1602
256963 13.1810
256978 13.2042
256992 13.2319
257007 13.2664
257018 13.2983
257029 13.3367
257040 13.3832
257051 13.4401
257065 13.5365
257072 13.5980
257079 13.6719
257090 13.8234
257096 13.9215
257101 14.0402
257109 14.2623
257117 14.5665
257122 14.8029
257127 15.0849
257131 15.4353
257136 15.8507
257139 16.1912
257143 16.5757
257146 17.0071
257149 17.4717
257155 18.3589
257160 19.3661
257167 20.8042
257173 22.1236
257179 23.3202
257184 24.1280
257188 24.7934
257192 25.2401
257196 25.5050
257200 25.5869
257201 25.5803
257201 25.5776
257202 25.5619
257202 25.5569
257203 25.5421
257203 25.5282
257204 25.4901
257204 25.4804
257205 25.4541
257205 25.4249
257206 25.3582
257208 25.1920
257212 24.7501
257216 24.2201
257219 23.6132
257226 22.2592
257232 21.0447
257240 19.3084
257241 19.1334
257241 19.0949
257242 18.9993
257242 18.9234
257243 18.7550
257245 18.4455
257248 17.8464
257254 17.0289
257259 16.3420
257259 16.3190
257260 16.2622
257260 16.2064
257261 16.1086
257263 15.9226
257267 15.5791
257270 15.2829
257274 15.0287
257275 14.9543
257280 14.6865
257285 14.4683
257286 14.4212
257289 14.3303
257291 14.2480
257296 14.1056
257306 13.8909
257315 13.7510
257319 13.6985
257330 13.5893
257340 13.5067
257345 13.4742
257354 13.4268
257362 13.3873
257379 13.3265
257394 13.2863
257409 13.2552
257426 13.2270
257443 13.2051
257463 13.1872
257482 13.1749
257502 13.1649
257521 13.1555
257560 13.1378
257598 13.1249
257635 13.1198
257671 13.1168
257708 13.1141
257744 13.1125
257789 13.1137
257835 13.1162
257925 13.1212
258020 13.1265
258114 13.1319
258209 13.1373
258303 13.1427
258475 13.1526
258647 13.1626
258990 13.1826
259506 13.2126
260021 13.2420
261052 13.3006
261602 13.3318
261678 13.3342
261943 13.3410
262208 13.3470
262739 13.3599
263801 13.3856
263901 13.3869
264163 13.3889
264426 13.3899
264951 13.3893
266000 13.3783
266249 13.3752
266773 13.3646
267296 13.3522
268343 13.3107
270437 13.1986
272531 13.0383
274625 12.8384
277499 12.5300
277617 12.5162
277954 12.4767
278291 12.4367
278966 12.3550
280314 12.1875
280376 12.1790
280579 12.1519
280782 12.1249
281188 12.0704
282000 11.9601
284250 11.6558
286500 11.3568
291000 10.7249
295500 10.1290
300000 9.56457
304500 9.03642
306750 8.78742
309000 8.55738
313500 8.11230
318000 7.71923
320750 7.49068
323500 7.27904
323659 7.26715
324009 7.24106
324358 7.21521
325057 7.16398
326455 7.06539
329251 6.87575
329394 6.86652
329735 6.84432
330077 6.82231
330761 6.77886
332128 6.69288
332263 6.68409
332637 6.66238
333012 6.64096
333760 6.59864
335257 6.51409
338251 6.34078
338545 6.32328
339523 6.27467
340501 6.22723
340754 6.21489
341753 6.16390
342751 6.11392
346410 5.94070
346504 5.93670
346863 5.92074
347223 5.90488
347942 5.87314
349379 5.81070
349501 5.80520
349782 5.79235
350064 5.77956
350626 5.75424
351751 5.70905
354001 5.62349
358501 5.45706
360752 5.38371
360880 5.37960
361229 5.36767
361578 5.35583
362276 5.33251
363672 5.28666
364129 5.27394
365113 5.24692
366098 5.22057
368066 5.16685
370034 5.11255
372002 5.07154
376235 4.98149
376693 4.97530
377756 4.96017
378820 4.94505
380946 4.91505
383252 4.90072
385502 4.88655
387935 4.89287
390368 4.91215
392435 4.95138
393469 4.97083
394502 5.00129
397094 5.10089
399173 5.21570
401253 5.36181
402563 5.48069
403874 5.61950
404548 5.69613
405222 5.78782
405896 5.87956
406570 5.98565
407316 6.10792
407689 6.16929
408062 6.24386
409554 6.54758
410588 6.79323
411621 7.06854
412584 7.35983
413546 7.68315
413935 7.81765
414323 7.96823
414712 8.11441
415100 8.27785
415563 8.46897
416532 8.91427
417192 9.23730
417851 9.58098
419117 10.3065
419893 10.7851
420668 11.2976
421831 12.0853
422994 12.9476
424092 13.7619
424789 14.2820
425403 14.7383
425847 15.0587
426193 15.3055
426441 15.4945
426689 15.6353
427000 15.8432
427355 16.0814
427932 16.4580
428286 16.6505
428730 16.8946
429452 17.2499
429971 17.4656
430000 17.4780
430066 17.5049
430131 17.5300
430263 17.5749
430525 17.6589
430940 17.7928
431375 17.8952
431539 17.9224
431631 17.9405
432000 17.9819
432323 18.0288
432461 18.0383
432645 18.0576
432669 18.0609
432732 18.0644
432796 18.0669
432922 18.0733
432968 18.0777
433095 18.0880
433222 18.0909
433475 18.0718
433521 18.0693
433701 18.0627
433752 18.0613
433933 18.0504
434114 18.0264
434476 17.9751
434490 17.9731
434536 17.9673
434582 17.9615
434675 17.9483
434859 17.9155
435227 17.8301
435251 17.8242
435320 17.8089
435497 17.7686
435673 17.7236
436026 17.6213
436057 17.6128
436149 17.5882
436242 17.5626
436426 17.5091
436795 17.3924
436801 17.3906
436826 17.3835
436850 17.3766
436899 17.3623
437008 17.3255
437117 17.2867
437334 17.2071
437769 17.0372
438639 16.6812
439902 16.1274
439930 16.1148
440005 16.0814
440080 16.0480
440230 15.9805
440530 15.8448
441129 15.5694
442328 15.0146
444541 13.9883
444553 13.9830
444601 13.9620
444650 13.9412
444746 13.8998
444940 13.8174
445327 13.6538
446100 13.3235
446128 13.3117
446151 13.3015
446223 13.2705
446295 13.2396
446438 13.1780
446725 13.0564
446754 13.0450
446869 13.0013
446984 12.9566
447214 12.8673
447243 12.8563
447270 12.8457
447366 12.8088
447462 12.7722
447654 12.6991
447676 12.6906
447748 12.6624
447820 12.6343
447964 12.5785
448252 12.4681
448828 12.2454
449403 12.0399
449691 11.9382
449835 11.8879
449907 11.8618
449943 11.8303
449961 11.7825
449979 11.6937
450000 11.5446
450000 11.5431
450001 11.5370
450002 11.5316
450003 11.5202
450006 11.4982
450012 11.4549
450024 11.3780
450047 11.2790
450077 11.2358
450107 11.2224
450166 11.2029
450285 11.1646
450523 11.0887
450999 10.9372
451951 10.6324
453855 10.0843
455272 9.70761
456689 9.36514
459523 8.75347
461594 8.37220
463666 8.02929
465737 7.71671
467808 7.44726
469165 7.27267
470522 7.12259
473235 6.83093
473837 6.77382
474137 6.74527
474438 6.71670
474631 6.69845
474727 6.68934
474823 6.68025
474871 6.67574
474919 6.67123
474967 6.66673
475015 6.66225
475045 6.65953
475074 6.65685
475104 6.65446
475133 6.65315
475160 6.65393
475187 6.65700
475202 6.65952
475217 6.66263
475231 6.66671
475246 6.67259
475253 6.67670
475261 6.68199
475268 6.68919
475275 6.69901
475282 6.71322
475290 6.73376
475293 6.74794
475297 6.76487
475300 6.78561
475304 6.81102
475310 6.86114
475315 6.92867
475321 7.01843
475326 7.13569
475329 7.22143
475333 7.31683
475339 7.55094
475345 7.81758
475351 8.13188
475356 8.44431
475362 8.78086
475367 9.12945
475367 9.14264
475368 9.17560
475368 9.20193
475369 9.26103
475369 9.27413
475370 9.30680
475370 9.33287
475371 9.39122
475371 9.40413
475372 9.43628
475372 9.46188
475373 9.51905
475373 9.53166
475374 9.56304
475374 9.58798
475375 9.64351
475375 9.65573
475376 9.68609
475376 9.71016
475377 9.76359
475377 9.77532
475378 9.80440
475378 9.82740
475379 9.87828
475379 9.88941
475380 9.91696
475380 9.93869
475381 9.98657
475381 9.99701
475382 10.0228
475382 10.0431
475383 10.0875
475383 10.0971
475384 10.1209
475384 10.1395
475385 10.1801
475385 10.1889
475386 10.2230
475386 10.2313
475387 10.2636
475387 10.2714
475388 10.2905
475388 10.3053
475389 10.3370
475389 10.3438
475390 10.3602
475390 10.3729
475391 10.3998
475391 10.4055
475392 10.4270
475392 10.4321
475393 10.4443
475393 10.4535
475394 10.4726
475394 10.4765
475395 10.4857
475395 10.4925
475396 10.5061
475396 10.5088
475397 10.5172
475398 10.5240
475399 10.5331
475399 10.5339
475400 10.5354
475400 10.5360
475401 10.5354
475401 10.5349
475402 10.5322
475403 10.5280
475404 10.5150
475404 10.5126
475405 10.5061
475405 10.5004
475406 10.4857
475406 10.4821
475407 10.4726
475407 10.4645
475408 10.4444
475408 10.4396
475409 10.4193
475409 10.4139
475410 10.3913
475410 10.3853
475411 10.3605
475411 10.3540
475412 10.3373
475412 10.3235
475413 10.2908
475413 10.2833
475414 10.2522
475414 10.2441
475415 10.2110
475415 10.2025
475416 10.1808
475416 10.1630
475417 10.1217
475417 10.1123
475418 10.0884
475418 10.0689
475419 10.0239
475419 10.0137
475420 9.97735
475421 9.94012
475422 9.86316
475422 9.85191
475423 9.82352
475423 9.80054
475424 9.74803
475424 9.73622
475425 9.69447
475426 9.65215
475427 9.56593
475427 9.55346
475428 9.52213
475428 9.49691
475429 9.43973
475429 9.42695
475430 9.38201
475431 9.33680
475432 9.24572
475432 9.23266
475433 9.19994
475433 9.17373
475434 9.11466
475434 9.10153
475435 9.05554
475436 9.00956
475437 8.91778
475437 8.90470
475438 8.85251
475439 8.80701
475440 8.71024
475443 8.52068
475449 8.17011
475450 8.11431
475452 8.00627
475453 7.95410
475455 7.85359
475456 7.80530
475459 7.66842
475460 7.62549
475462 7.54367
475463 7.50476
475465 7.43093
475466 7.39597
475468 7.32989
475470 7.26878
475472 7.21244
475476 7.11323
475478 7.06987
475480 7.03036
475483 6.97773
475486 6.93230
475489 6.89086
475492 6.85674
475495 6.82773
475499 6.80311
475502 6.78160
475505 6.76396
475511 6.73614
475516 6.72010
475520 6.70751
475525 6.69724
475530 6.68874
475539 6.67537
475548 6.66552
475560 6.65620
475571 6.64905
475583 6.64332
475594 6.63852
475614 6.63143
475634 6.62505
475653 6.61906
475673 6.61366
475698 6.60802
475724 6.60398
475749 6.60096
475774 6.59835
475817 6.59406
475860 6.58980
475946 6.58135
476052 6.57094
476158 6.56059
476370 6.53989
476616 6.51588
477117 6.46707
477250 6.45525
477565 6.42941
477880 6.40353
478510 6.35177
479770 6.24834
482289 6.04921
488123 5.60734
488141 5.60591
488205 5.60058
488269 5.59511
488438 5.58060
488607 5.56599
488945 5.53688
489620 5.47876
490971 5.36228
491040 5.35512
491305 5.32675
491570 5.29839
492366 5.21297
492386 5.21065
492451 5.20237
492516 5.19366
492646 5.17605
492907 5.14116
493427 5.07110
493448 5.06806
493504 5.05928
493559 5.05000
493671 5.03103
493894 4.99353
494339 4.91036
494785 4.81543
495230 4.69720
495469 4.62563
495708 4.54163
495946 4.44756
496185 4.34052
496189 4.33858
496197 4.33454
496205 4.33042
496222 4.32204
496254 4.30468
496320 4.26934
496450 4.19779
496455 4.19483
496474 4.18303
496494 4.17086
496532 4.14587
496610 4.09556
496764 3.99329
496768 3.99042
496779 3.98218
496791 3.97375
496813 3.95658
496858 3.92151
496948 3.85127
497038 3.78104
497129 3.71110
497253 3.61665
497316 3.57221
497378 3.53722
497404 3.52596
497431 3.51732
497472 3.51170
497508 3.51595
497545 3.53085
497581 3.56079
497617 3.60971
497638 3.64972
497660 3.70000
497681 3.76234
497703 3.83824
497719 3.90884
497736 3.99000
497752 4.08354
497769 4.19104
497787 4.32784
497806 4.48553
497824 4.66886
497842 4.87914
497853 5.02530
497865 5.18307
497876 5.35627
497887 5.54289
497901 5.79301
497914 6.06696
497928 6.36848
497942 6.69957
497954 7.03718
497967 7.40075
497979 7.79408
497992 8.21817
498010 8.87865
498028 9.60349
498045 10.3227
498061 11.0907
498078 11.9015
498094 12.7459
498142 15.2636
498166 16.4596
498178 17.0172
498190 17.5385
498200 17.9405
498210 18.3095
498213 18.4133
498221 18.6862
498230 18.9318
498247 19.3362
498263 19.6281
498280 19.8057
498296 19.8763
498315 19.8466
498333 19.7114
498334 19.7014
498337 19.6666
498341 19.6291
498347 19.5462
498360 19.3537
498387 18.8797
498413 18.3247
498439 17.7308
498495 16.4234
498552 15.1930
498595 14.3413
498638 13.5847
498668 13.1142
498698 12.6842
498727 12.2887
498757 11.9273
498790 11.5615
498823 11.2292
498856 10.9245
498889 10.6448
498933 10.3103
498976 10.0120
499020 9.74493
499063 9.50423
499118 9.23340
499173 8.99337
499228 8.77802
499283 8.58473
499367 8.32637
499368 8.32356
499370 8.31767
499372 8.31181
499376 8.30045
499385 8.27807
499401 8.23420
499434 8.14947
499500 7.98883
499632 7.71798
499791 7.45369
499793 7.45083
499798 7.44339
499811 7.42493
499823 7.40718
499848 7.37265
499899 7.30517
500000 7.17994
500003 7.17658
500010 7.16912
500016 7.16181
500030 7.14719
500056 7.11812
500109 7.06096
500216 6.96244
500428 6.78457
500636 6.64286
500640 6.64036
500652 6.63325
500663 6.62633
500686 6.61297
500733 6.58717
500826 6.53573
501011 6.44553
501197 6.36210
501382 6.29511
501640 6.20655
501897 6.13268
502412 6.00384
502443 5.99741
502526 5.98136
502608 5.96588
502774 5.93539
503104 5.87378
503765 5.77664
503802 5.77202
503835 5.76818
503914 5.75934
503993 5.75073
504150 5.73328
504465 5.69811
505095 5.62799
505118 5.62564
505179 5.62018
505239 5.61514
505387 5.60302
505535 5.59077
505830 5.56627
506421 5.51718
506471 5.51320
506631 5.50241
506790 5.49177
507109 5.47065
507747 5.42847
507824 5.42348
507985 5.41488
508146 5.40666
508468 5.39019
509112 5.35698
510399 5.29056
510529 5.28395
510844 5.27189
511160 5.25998
511790 5.23607
513051 5.18827
514588 5.13012
514907 5.12094
516180 5.08512
517454 5.04922
518727 5.01355
519364 4.99893
519682 4.99155
519841 4.98785
519921 4.98423
519941 4.97807
519960 4.96186
519980 4.93041
520000 4.78938
523440 4.79030
525805 4.79094
528170 4.79156
531480 4.89507
534318 4.99846
535736 5.30673
539047 5.30759
541884 5.30832
545668 5.20665
548978 5.20750
555554 5.19135
564337 5.27906
574877 5.19609
587173 4.94242
599469 4.51762
600000 4.49706
608252 4.17774
608720 4.16419
617034 3.92344
624061 3.66866
627574 3.84061
629331 3.58446
632844 3.15769
636357 2.64539
638113 2.30371
641061 2.64656
641331 3.50192
641602 4.87048
641872 5.64033
642007 5.98248
642412 5.46940
642818 4.69972
643088 4.35768
643383 4.44328
643493 4.10119
644034 3.75920
644574 3.58827
645140 3.41733
645926 3.33199
647547 2.73368
648653 2.64842
649574 2.47759
650655 2.39232
652166 2.30716
654708 2.39330
656600 2.73588
658222 3.16392
659192 3.50627
662705 4.79007
664462 5.47474
667975 5.98875
669732 6.07469
675001 5.90487
680271 5.56397
685541 5.30859
692567 4.96806
699594 4.71305
700000 4.69832
706620 4.45823
713646 4.37446
718916 4.63236
722429 4.63322
725942 4.37749
729455 4.29282
729979 4.54953
730385 5.14835
730655 5.14842
731195 4.46430
732547 4.20804
732952 4.37919
734438 4.20849
736735 4.12351
738492 4.03840
741751 3.95365
750534 3.87020
759317 3.70120
768100 3.70321
775126 3.61927
782153 3.62085
785666 3.87823
790935 3.62280
797962 3.70988
800000 3.71032
800150 3.71036
801772 4.30946
802583 3.53988
807447 3.54106
810690 3.54184
812311 3.71330
813933 4.31240
814744 3.71389
815554 3.62855
817176 3.62894
820419 3.62971
822851 3.71582
825283 3.71639
829337 4.05946
832580 4.57340
834201 4.74484
835822 5.34394
837444 6.02856
839065 6.96976
841498 8.42434
843119 9.45107
843930 9.79339
845551 9.62270
847173 8.68224
848794 7.74176
850416 6.63025
852037 5.77530
853658 5.26249
855280 4.92073
856901 4.57897
859334 4.23740
861766 3.98136
863387 3.72513
866630 3.55478
869062 3.38426
873116 3.29962
879602 3.21552
884466 3.13105
886898 3.13157
888520 3.21745
890141 3.13227
892573 3.21832
895006 3.13332
896627 3.04813
899726 2.96326
900000 2.96032
915332 2.79581
929520 2.62797
942288 2.54528
949382 2.37578
950251 2.39227
951061 2.59772
951332 2.98267
951602 3.80382
951872 4.41971
952007 4.59935
952277 4.16320
952548 3.36782
952818 2.98299
953088 2.70080
953629 2.59828
954169 2.59840
955057 2.54808
962151 2.80621
967826 2.80743
976339 2.72371
986270 2.55474
997620 2.38604
1.00000E+06 2.35465
1.01039E+06 2.21790
1.01415E+06 2.17341
1.01748E+06 2.13407
1.01978E+06 2.61325
1.02126E+06 5.38480
1.02163E+06 7.38631
1.02201E+06 8.10486
1.02238E+06 6.87332
1.02312E+06 3.79440
1.02386E+06 2.66558
1.02423E+06 2.25512
1.02458E+06 2.13581
1.02535E+06 1.84484
1.02572E+06 1.74230
1.02609E+06 1.84502
1.02684E+06 2.35840
1.02721E+06 2.92299
1.02758E+06 2.20462
1.02795E+06 1.74284
1.02883E+06 1.53813
1.03025E+06 1.11083
1.03309E+06 0.854928
1.03427E+06 0.837794
1.03650E+06 1.11204
1.03734E+06 1.62572
1.03876E+06 2.39585
1.04018E+06 3.08043
1.04170E+06 3.33704
1.04302E+06 3.42323
1.04728E+06 3.08213
1.05295E+06 2.65582
1.05721E+06 2.22918
1.06146E+06 1.97358
1.06251E+06 2.00774
1.06288E+06 2.57227
1.06325E+06 3.39345
1.06362E+06 4.00936
1.06399E+06 2.67518
1.06436E+06 1.75153
1.06714E+06 1.03407
1.06998E+06 0.863674
1.07281E+06 0.949859
1.07565E+06 1.46369
1.07849E+06 2.31966
1.08275E+06 2.91934
1.08700E+06 3.26243
1.09126E+06 3.34892
1.09410E+06 3.43509
1.09791E+06 3.31591
1.10899E+06 3.24996
1.12284E+06 3.11615
1.13115E+06 3.18638
1.13946E+06 3.18817
1.14777E+06 3.12151
1.15608E+06 2.91800
1.16993E+06 2.78404
1.18655E+06 2.65059
1.19486E+06 2.58386
1.19763E+06 2.72126
1.20317E+06 2.58553
1.20871E+06 2.65505
1.21702E+06 2.65669
1.22533E+06 2.58991
1.24195E+06 2.59313
1.25580E+06 2.59577
1.26688E+06 2.66627
1.27156E+06 2.66714
1.27519E+06 2.66782
1.27764E+06 3.42095
1.27845E+06 4.85800
1.27926E+06 6.70562
1.27967E+06 7.66363
1.28088E+06 5.54270
1.28169E+06 3.83224
1.28251E+06 3.14814
1.28291E+06 2.87453
1.28413E+06 2.73790
1.28627E+06 2.66986
1.28778E+06 3.08069
1.28940E+06 4.38105
1.29021E+06 5.27071
1.29102E+06 6.63935
1.29142E+06 6.98156
1.29264E+06 6.63965
1.29345E+06 6.22925
1.29467E+06 5.95578
1.29588E+06 5.75072
1.29629E+06 5.75079
1.29791E+06 6.29849
1.29913E+06 6.98296
1.29994E+06 7.39365
1.30075E+06 7.66749
1.30156E+06 7.66764
1.30318E+06 6.98369
1.30440E+06 6.29966
1.30561E+06 5.47879
1.30723E+06 4.72642
1.30926E+06 4.24781
1.31088E+06 3.90598
1.31250E+06 3.76942
1.31397E+06 3.70125
1.31534E+06 3.49622
1.31615E+06 3.35952
1.31674E+06 3.42806
1.31858E+06 3.90736
1.31899E+06 4.66009
1.31980E+06 4.31812
1.32020E+06 3.63394
1.32223E+06 3.42903
1.32628E+06 3.42975
1.32791E+06 3.43004
1.33613E+06 3.29463
1.35275E+06 3.09224
1.36937E+06 2.88981
1.37768E+06 2.89122
1.38599E+06 2.75576
1.39430E+06 2.82557
1.39707E+06 2.62076
1.40261E+06 2.48482
1.41923E+06 2.48754
1.42615E+06 2.48865
1.42616E+06 2.48865
1.42616E+06 2.48865
1.42760E+06 2.48889
1.43308E+06 2.48965
1.43862E+06 2.69573
1.44139E+06 3.10670
1.44416E+06 2.49131
1.44970E+06 2.49221
1.45524E+06 2.49311
1.46355E+06 2.42615
1.46380E+06 2.42620
1.47186E+06 2.42730
1.47740E+06 2.56496
1.48294E+06 2.29208
1.48848E+06 2.29298
1.49402E+06 2.29388
1.49984E+06 2.22645
1.50000E+06 2.22568
1.52740E+06 2.09387
1.53774E+06 1.89026
1.55496E+06 1.61943
1.56186E+06 1.27848
1.56530E+06 0.321137
1.56875E+06 1.62180
1.57219E+06 1.82768
1.58253E+06 1.76109
1.59287E+06 2.17351
1.59976E+06 2.92743
1.60665E+06 3.61295
1.61354E+06 3.81954
1.61699E+06 3.82019
1.62019E+06 3.90558
1.62732E+06 4.09544
1.63421E+06 4.16481
1.64800E+06 3.82461
1.65833E+06 3.41555
1.66522E+06 3.34813
1.67556E+06 3.14439
1.67687E+06 3.15328
1.68590E+06 3.21447
1.69623E+06 3.55824
1.69968E+06 4.03778
1.70313E+06 4.99630
1.70657E+06 6.43378
1.71002E+06 6.84491
1.71346E+06 5.20331
1.71691E+06 4.17753
1.72035E+06 3.28859
1.72724E+06 3.01608
1.73414E+06 3.01729
1.73758E+06 3.08632
1.74447E+06 2.40330
1.74792E+06 2.26706
1.75000E+06 2.59795
1.75481E+06 3.36273
1.76170E+06 2.74763
1.76515E+06 2.54272
1.77893E+06 2.33895
1.79271E+06 2.20367
1.80305E+06 2.34172
1.80649E+06 3.16321
1.80994E+06 4.32685
1.81338E+06 4.87467
1.81683E+06 3.78029
1.82028E+06 3.02805
1.82372E+06 2.68636
1.82717E+06 2.61837
1.83406E+06 2.61924
1.84095E+06 2.55170
1.84784E+06 2.41575
1.85129E+06 3.23730
1.85473E+06 2.82721
1.85818E+06 2.48555
1.86507E+06 2.34963
1.87885E+06 2.69367
1.87892E+06 2.70481
1.88030E+06 2.92427
1.88574E+06 3.78946
1.89263E+06 4.88527
1.89952E+06 3.65465
1.90642E+06 3.03989
1.90986E+06 2.69829
1.91675E+06 2.49406
1.92709E+06 2.35884
1.93743E+06 2.15521
1.94015E+06 2.15565
1.95465E+06 2.15801
1.96155E+06 2.56970
1.96499E+06 2.91240
1.96844E+06 2.29715
1.97533E+06 2.09305
1.98566E+06 1.95797
1.99256E+06 1.95917
1.99767E+06 2.09692
2.00000E+06 2.13364
2.00206E+06 2.16596
2.01084E+06 1.89316
2.02402E+06 1.75768
2.03719E+06 1.96431
2.04401E+06 2.01817
2.04597E+06 2.03365
2.05476E+06 2.10303
2.06793E+06 3.06239
2.07232E+06 3.67866
2.07671E+06 3.88443
2.08550E+06 3.26956
2.09428E+06 2.51786
2.10306E+06 2.10826
2.11184E+06 1.90396
2.12502E+06 2.04226
2.13819E+06 1.77005
2.15137E+06 1.83995
2.16015E+06 1.63567
2.17772E+06 1.63767
2.19528E+06 1.63968
2.19967E+06 1.70862
2.20406E+06 2.32494
2.20846E+06 1.57279
2.21724E+06 2.18963
2.22602E+06 3.28543
2.23041E+06 3.69650
2.23920E+06 4.03966
2.24798E+06 4.31439
2.25000E+06 4.48779
2.25676E+06 5.06810
2.26115E+06 5.34233
2.26994E+06 4.45386
2.27872E+06 3.56538
2.28750E+06 3.22431
2.29189E+06 3.29327
2.30507E+06 2.74746
2.30946E+06 2.33744
2.31824E+06 1.99639
2.32703E+06 1.92903
2.33581E+06 2.20382
2.35777E+06 2.13810
2.37094E+06 2.07131
2.38411E+06 2.00453
2.38851E+06 2.48405
2.39729E+06 2.14303
2.40168E+06 2.07515
2.41046E+06 2.14470
2.41925E+06 2.28266
2.42364E+06 2.07793
2.44559E+06 1.80704
2.45877E+06 1.87716
2.46755E+06 1.60458
2.47194E+06 1.26304
2.47633E+06 1.53729
2.48512E+06 1.81214
2.50000E+06 1.81408
2.50268E+06 1.81430
2.51586E+06 2.02070
2.52464E+06 2.29514
2.53342E+06 2.98013
2.54660E+06 3.25496
2.55099E+06 3.32376
2.56416E+06 3.18806
2.57295E+06 3.12039
2.58612E+06 2.84783
2.59490E+06 3.05387
2.59777E+06 3.19097
2.60520E+06 4.01271
2.60891E+06 4.42359
2.61634E+06 3.87685
2.62006E+06 3.46662
2.63492E+06 4.08375
2.64236E+06 3.87913
2.64979E+06 3.40082
2.65722E+06 3.05936
2.66073E+06 2.96270
2.66465E+06 2.85474
2.66730E+06 2.85498
2.67951E+06 2.85607
2.69066E+06 2.72023
2.70181E+06 2.51595
2.71667E+06 2.10675
2.73154E+06 1.97125
2.74640E+06 1.83575
2.75755E+06 1.97362
2.77241E+06 1.76972
2.79099E+06 2.04512
2.80214E+06 2.59355
2.80957E+06 3.21006
2.81328E+06 3.41567
2.81700E+06 4.03185
2.82071E+06 4.10062
2.82815E+06 3.34863
2.83558E+06 2.66508
2.83929E+06 2.59701
2.84673E+06 1.98187
2.84822E+06 1.95457
2.85416E+06 1.84573
2.87274E+06 1.91591
2.88760E+06 1.84888
2.89875E+06 1.91837
2.90618E+06 1.85064
2.91361E+06 2.33032
2.91418E+06 2.39328
2.91733E+06 2.74122
2.92104E+06 1.98889
2.92847E+06 1.92119
2.93962E+06 1.85382
2.95448E+06 1.78682
2.96935E+06 1.71983
2.97678E+06 1.99424
2.98793E+06 2.26902
2.99164E+06 2.47465
2.99907E+06 2.20168
3.00000E+06 2.21888
3.01394E+06 2.47653
3.02137E+06 2.81923
3.03252E+06 2.88849
3.03995E+06 3.43646
3.04366E+06 3.71042
3.05110E+06 3.09518
3.05247E+06 3.01956
3.05410E+06 2.92956
3.06224E+06 2.48019
3.07711E+06 2.13918
3.09197E+06 2.07187
3.13316E+06 1.64696
3.15289E+06 1.42363
3.16557E+06 1.28010
3.17370E+06 1.18808
3.17628E+06 1.15886
3.18721E+06 1.03508
3.21423E+06 1.29359
3.24126E+06 1.19286
3.27705E+06 1.36527
3.29531E+06 1.45322
3.32233E+06 1.76301
3.33584E+06 2.63636
3.34935E+06 2.02146
3.36287E+06 2.43293
3.38989E+06 1.97291
3.40340E+06 1.71724
3.41692E+06 1.66685
3.45745E+06 2.54200
3.47096E+06 2.59422
3.50000E+06 2.22856
3.51150E+06 2.08367
3.52501E+06 1.98186
3.53852E+06 2.08529
3.54267E+06 2.30607
3.55151E+06 2.77636
3.55204E+06 2.80456
3.56555E+06 2.24084
3.57906E+06 1.98505
3.59257E+06 1.62659
3.60608E+06 1.57607
3.63311E+06 1.88553
3.64662E+06 1.78366
3.67365E+06 2.19575
3.70067E+06 1.68411
3.72729E+06 1.43282
3.72769E+06 1.42905
3.76823E+06 1.53393
3.78174E+06 1.89390
3.80877E+06 1.27958
3.83579E+06 1.07578
3.84845E+06 1.07646
3.85926E+06 1.48760
3.86282E+06 2.41152
3.87007E+06 2.97642
3.87682E+06 2.56623
3.88984E+06 1.07870
3.90335E+06 0.890777
3.91686E+06 0.841212
3.93628E+06 1.13252
3.94389E+06 1.13293
3.94979E+06 1.90301
3.95740E+06 2.00606
3.98442E+06 1.75090
3.99303E+06 1.75136
4.00000E+06 1.70692
4.02496E+06 1.54768
4.05198E+06 1.65162
4.06556E+06 1.78122
4.09347E+06 2.04755
4.10603E+06 2.16739
4.13100E+06 2.45304
4.14657E+06 2.63114
4.16008E+06 2.16990
4.17359E+06 1.75996
4.20062E+06 1.70988
4.21413E+06 2.27499
4.22348E+06 2.59505
4.22764E+06 2.73746
4.24115E+06 1.96829
4.26818E+06 1.86688
4.29330E+06 1.58172
4.29520E+06 1.56016
4.29618E+06 1.56765
4.32223E+06 1.76658
4.33574E+06 2.17771
4.34925E+06 2.89673
4.37628E+06 3.56504
4.40330E+06 2.69380
4.41664E+06 2.49168
4.43032E+06 2.28442
4.44384E+06 1.92576
4.44966E+06 1.85968
4.45735E+06 1.77236
4.48437E+06 2.18402
4.48563E+06 2.13141
4.49788E+06 1.62005
4.50000E+06 1.62013
4.50017E+06 1.62014
4.51887E+06 1.62099
4.53539E+06 1.62171
4.53842E+06 1.62184
4.59247E+06 1.88074
4.61949E+06 2.03582
4.64652E+06 2.44749
4.67354E+06 1.93540
4.68705E+06 1.83331
4.71408E+06 2.03966
4.72759E+06 2.39943
4.75000E+06 1.93211
4.75461E+06 1.83595
4.78164E+06 1.63160
4.80866E+06 2.45358
4.83569E+06 2.14654
4.86271E+06 3.17377
4.88974E+06 2.14825
4.90160E+06 2.01346
4.91262E+06 1.88823
4.91676E+06 1.84118
4.93113E+06 1.80524
4.95730E+06 1.73975
5.00000E+06 1.91405
5.02166E+06 2.00257
5.09022E+06 2.28275
5.09657E+06 2.30870
5.16502E+06 1.81575
5.16751E+06 1.79781
5.19588E+06 2.00400
5.20000E+06 1.92219
5.21454E+06 1.63340
5.22426E+06 1.44034
5.26682E+06 1.18496
5.29520E+06 1.95554
5.32357E+06 1.54580
5.38032E+06 1.90662
5.40870E+06 1.80477
5.42330E+06 2.04287
5.43707E+06 2.26743
5.45126E+06 1.80595
5.45630E+06 1.78786
5.47507E+06 1.72054
5.49383E+06 1.65320
5.49640E+06 1.65560
5.50000E+06 1.65896
5.55058E+06 1.70622
5.57895E+06 2.06629
5.60000E+06 1.96032
5.62693E+06 1.82469
5.64989E+06 1.70904
5.68650E+06 1.73648
5.68651E+06 1.73649
5.72083E+06 1.76221
5.77758E+06 2.43078
5.80000E+06 1.86377
5.80596E+06 1.71302
5.83433E+06 1.45707
5.89108E+06 2.02282
5.91089E+06 1.90382
5.93364E+06 1.76715
5.94783E+06 1.56216
5.99040E+06 1.40909
6.00000E+06 1.39539
6.06133E+06 1.30808
6.10000E+06 1.12431
6.10390E+06 1.07463
6.15355E+06 1.12872
6.20321E+06 1.15711
6.26306E+06 1.41810
6.27415E+06 1.46650
6.30000E+06 1.37358
6.32964E+06 1.26694
6.35928E+06 1.16029
6.43022E+06 1.46960
6.47278E+06 2.03499
6.50000E+06 1.92069
6.55790E+06 1.67737
6.60047E+06 1.37022
6.62884E+06 1.16544
6.64400E+06 1.14873
6.69978E+06 1.83386
6.70000E+06 1.83280
6.70270E+06 1.81982
6.72253E+06 1.72461
6.74235E+06 1.62939
6.75600E+06 1.59513
6.78491E+06 2.04071
6.79910E+06 2.34888
6.80800E+06 2.39998
6.84500E+06 2.26392
6.85585E+06 2.04198
6.90000E+06 1.93469
6.91200E+06 1.90552
6.94097E+06 1.68413
7.00000E+06 1.57043
7.03800E+06 1.49732
7.09953E+06 1.53250
7.10000E+06 1.53381
7.18601E+06 1.77334
7.21600E+06 1.82557
7.27249E+06 1.63778
7.31000E+06 1.87573
7.31573E+06 1.91206
7.35000E+06 1.86155
7.37300E+06 1.63900
7.41800E+06 1.45091
7.44800E+06 1.29811
7.50000E+06 1.66978
7.51000E+06 1.74125
7.51030E+06 1.74339
7.55354E+06 1.88076
7.57516E+06 1.70996
7.61840E+06 1.98418
7.62787E+06 1.93434
7.65691E+06 1.78153
7.68326E+06 1.64288
7.70000E+06 1.45767
7.70488E+06 1.40367
7.77500E+06 1.48950
7.87063E+06 1.59275
7.87100E+06 1.59315
7.90000E+06 1.58681
7.93649E+06 1.57883
7.94269E+06 1.57747
7.97135E+06 1.60230
8.00000E+06 1.62711
8.04200E+06 1.66343
8.07300E+06 1.65394
8.09403E+06 1.64752
8.11000E+06 1.63925
8.14053E+06 1.62344
8.15888E+06 1.61401
8.19131E+06 1.71708
8.22374E+06 1.82015
8.22843E+06 1.85361
8.26698E+06 2.12861
8.31022E+06 2.02650
8.31057E+06 2.02466
8.32296E+06 1.95945
8.37508E+06 1.68507
8.41832E+06 1.78813
8.50000E+06 1.59500
8.50479E+06 1.58366
8.63451E+06 1.75572
8.72099E+06 1.68787
8.82909E+06 1.44905
8.93718E+06 1.65489
9.00000E+06 1.55577
9.04528E+06 1.48446
9.17500E+06 1.69066
9.28309E+06 1.45190
9.39119E+06 1.55521
9.47767E+06 1.72677
9.50000E+06 1.54934
9.51000E+06 1.46987
9.54253E+06 1.72709
9.57300E+06 1.76134
9.65062E+06 1.48812
9.70625E+06 1.54416
9.75300E+06 1.59122
1.00000E+07 1.60491
1.02400E+07 1.61835
1.02843E+07 1.58742
1.03500E+07 1.54149
1.04205E+07 1.55109
1.04206E+07 1.55109
1.04603E+07 1.55657
1.05000E+07 1.56205
1.05400E+07 1.56751
1.06050E+07 1.56139
1.06700E+07 1.55524
1.07500E+07 1.62002
1.08900E+07 1.59501
1.10000E+07 1.60846
1.10252E+07 1.61163
1.11000E+07 1.62099
1.12700E+07 1.73686
1.13750E+07 1.68591
1.14088E+07 1.66949
1.14800E+07 1.63487
1.15000E+07 1.62540
1.15243E+07 1.61392
1.15600E+07 1.59703
1.17000E+07 1.78963
1.18100E+07 1.62255
1.19400E+07 1.64779
1.20000E+07 1.65462
1.20500E+07 1.66043
1.21000E+07 1.69973
1.21832E+07 1.64638
1.22000E+07 1.63562
1.22400E+07 1.60998
1.23700E+07 1.64813
1.24000E+07 1.65239
1.24600E+07 1.66095
1.25510E+07 1.63449
1.25900E+07 1.62313
1.26000E+07 1.62155
1.26415E+07 1.61504
1.26700E+07 1.61057
1.28000E+07 1.69418
1.28100E+07 1.70062
1.29400E+07 1.62359
1.30000E+07 1.60467
1.30600E+07 1.58549
1.32000E+07 1.59359
1.32700E+07 1.59780
1.34000E+07 1.65700
1.35500E+07 1.72575
1.36000E+07 1.71108
1.37700E+07 1.66167
1.38000E+07 1.67391
1.39600E+07 1.73961
1.40000E+07 1.74739
1.41600E+07 1.77722
1.42000E+07 1.78002
1.43000E+07 1.78728
1.44000E+07 1.79462
1.45000E+07 1.80228
1.46000E+07 1.80221
1.46958E+07 1.80239
1.48000E+07 1.80264
1.48950E+07 1.80317
1.49900E+07 1.80376
1.50000E+07 1.80381
1.51250E+07 1.80346
1.52500E+07 1.80320
1.53750E+07 1.80302
1.55000E+07 1.80293
1.56250E+07 1.80315
1.57500E+07 1.80346
1.58750E+07 1.80384
1.60000E+07 1.80430
1.61250E+07 1.80405
1.62500E+07 1.80388
1.63750E+07 1.80379
1.65000E+07 1.80379
1.66250E+07 1.80386
1.67500E+07 1.80401
1.68750E+07 1.80423
1.70000E+07 1.80453
1.71129E+07 1.80427
1.72258E+07 1.80406
1.73629E+07 1.80393
1.75000E+07 1.80388
1.76250E+07 1.80394
1.76954E+07 1.80401
1.77500E+07 1.80408
1.78750E+07 1.80428
1.80000E+07 1.80456
1.81250E+07 1.80443
1.82500E+07 1.80432
1.83750E+07 1.80425
1.85000E+07 1.80421
1.86250E+07 1.80422
1.87500E+07 1.80425
1.88750E+07 1.80432
1.90000E+07 1.80442
1.92500E+07 1.80424
1.95000E+07 1.80413
1.97500E+07 1.80412
2.00000E+07 1.80417
