Ar-38(n,tot) ENDFB-8.0
Energy(eV) XS(b)
1.00000E-05 126.593
1.03765E-05 124.292
1.07530E-05 122.114
1.11294E-05 120.047
1.15059E-05 118.083
1.18824E-05 116.213
1.22588E-05 114.431
1.26353E-05 112.728
1.30118E-05 111.101
1.33883E-05 109.542
1.37648E-05 108.049
1.41412E-05 106.615
1.45177E-05 105.238
1.48942E-05 103.914
1.52707E-05 102.639
1.56472E-05 101.411
1.60236E-05 100.226
1.65207E-05 98.7243
1.70177E-05 97.2894
1.75148E-05 95.9162
1.80118E-05 94.6006
1.85089E-05 93.3385
1.90059E-05 92.1265
1.95030E-05 90.9613
2.00000E-05 89.8401
2.08583E-05 87.9996
2.17165E-05 86.2699
2.25748E-05 84.6403
2.34331E-05 83.1015
2.42914E-05 81.6455
2.51496E-05 80.2651
2.60079E-05 78.9540
2.68662E-05 77.7067
2.80709E-05 76.0539
2.92756E-05 74.5049
3.04803E-05 73.0493
3.16851E-05 71.6781
3.28898E-05 70.3835
3.40945E-05 69.1587
3.52992E-05 67.9977
3.65040E-05 66.8951
3.78593E-05 65.7186
3.92146E-05 64.6043
4.05699E-05 63.5467
4.19252E-05 62.5414
4.32805E-05 61.5841
4.46359E-05 60.6713
4.59912E-05 59.7995
4.73465E-05 58.9658
4.86732E-05 58.1840
5.00000E-05 57.4339
5.13248E-05 56.7145
5.26496E-05 56.0227
5.39744E-05 55.3569
5.52992E-05 54.7154
5.66240E-05 54.0969
5.79488E-05 53.5000
6.05984E-05 52.3662
6.33091E-05 51.2819
6.60197E-05 50.2660
6.87303E-05 49.3118
7.14409E-05 48.4132
7.41515E-05 47.5652
7.68622E-05 46.7633
7.95728E-05 46.0034
8.22834E-05 45.2820
8.44980E-05 44.7191
8.67126E-05 44.1784
8.89271E-05 43.6583
9.11417E-05 43.1578
9.33563E-05 42.6755
9.55709E-05 42.2104
0.000100000 41.3281
0.000103809 40.6160
0.000107618 39.9429
0.000111427 39.3055
0.000115236 38.7008
0.000119045 38.1261
0.000122854 37.5790
0.000126663 37.0576
0.000130472 36.5597
0.000134689 36.0342
0.000138905 35.5335
0.000143122 35.0558
0.000147339 34.5994
0.000151555 34.1628
0.000155772 33.7447
0.000159988 33.3438
0.000164205 32.9589
0.000168679 32.5671
0.000173154 32.1911
0.000173478 32.1644
0.000174576 32.0747
0.000175675 31.9858
0.000177871 31.8107
0.000182265 31.4703
0.000186658 31.1426
0.000191051 30.8266
0.000191373 30.8039
0.000192451 30.7283
0.000193530 30.6534
0.000195687 30.5054
0.000200000 30.2170
0.000206971 29.7709
0.000213941 29.3479
0.000220912 28.9459
0.000227882 28.5634
0.000234852 28.1989
0.000241823 27.8511
0.000248793 27.5188
0.000255764 27.2009
0.000267209 26.7076
0.000278654 26.2468
0.000290098 25.8151
0.000301543 25.4097
0.000312988 25.0281
0.000324433 24.6682
0.000335878 24.3281
0.000347323 24.0061
0.000362984 23.5922
0.000378646 23.2060
0.000394307 22.8449
0.000409968 22.5062
0.000425630 22.1880
0.000441291 21.8882
0.000456953 21.6053
0.000472614 21.3378
0.000486307 21.1155
0.000500000 20.9033
0.000520671 20.6004
0.000541343 20.3167
0.000562014 20.0503
0.000582685 19.7997
0.000603356 19.5633
0.000624028 19.3401
0.000644699 19.1288
0.000665370 18.9286
0.000666104 18.9217
0.000668194 18.9020
0.000670285 18.8825
0.000674465 18.8437
0.000682827 18.7674
0.000699549 18.6193
0.000732995 18.3403
0.000766440 18.0819
0.000799885 17.8418
0.000818747 17.7137
0.000819574 17.7082
0.000822394 17.6895
0.000825213 17.6709
0.000830851 17.6341
0.000842128 17.5616
0.000864681 17.4216
0.000887234 17.2876
0.000909787 17.1593
0.000954894 16.9182
0.00100000 16.6956
0.00102665 16.5720
0.00105330 16.4537
0.00110659 16.2317
0.00115989 16.0272
0.00121319 15.8380
0.00124364 15.7361
0.00129665 15.5685
0.00134966 15.4122
0.00140266 15.2658
0.00145567 15.1285
0.00150868 14.9993
0.00156169 14.8775
0.00161470 14.7624
0.00166770 14.6533
0.00175078 14.4935
0.00183385 14.3456
0.00191693 14.2081
0.00200000 14.0799
0.00208857 13.9522
0.00217715 13.8327
0.00226572 13.7204
0.00235429 13.6147
0.00244286 13.5148
0.00253143 13.4201
0.00262001 13.3301
0.00270858 13.2444
0.00283387 13.1298
0.00295916 13.0220
0.00308445 12.9202
0.00320974 12.8238
0.00333504 12.7323
0.00346033 12.6451
0.00358562 12.5618
0.00371091 12.4821
0.00387205 12.3844
0.00403318 12.2915
0.00419432 12.2030
0.00435546 12.1185
0.00451659 12.0376
0.00467773 11.9602
0.00483886 11.8859
0.00500000 11.8145
0.00520510 11.7276
0.00541020 11.6448
0.00561530 11.5659
0.00582040 11.4905
0.00602550 11.4187
0.00623060 11.3500
0.00643570 11.2844
0.00664080 11.2217
0.00684320 11.1626
0.00704559 11.1061
0.00724798 11.0521
0.00745038 11.0004
0.00765277 10.9511
0.00785516 10.9039
0.00805756 10.8588
0.00825995 10.8157
0.00846235 10.7745
0.00866474 10.7352
0.00886713 10.6976
0.00906953 10.6617
0.00927192 10.6274
0.00947431 10.5947
0.00967671 10.5634
0.00987910 10.5335
0.0100000 10.5162
0.0101919 10.4898
0.0103837 10.4645
0.0105756 10.4403
0.0107675 10.4170
0.0109594 10.3948
0.0111512 10.3734
0.0113431 10.3528
0.0115350 10.3331
0.0117268 10.3142
0.0119187 10.2960
0.0121106 10.2785
0.0123024 10.2617
0.0124943 10.2455
0.0126862 10.2299
0.0130699 10.2004
0.0134102 10.1759
0.0137505 10.1528
0.0140908 10.1311
0.0144311 10.1106
0.0147714 10.0912
0.0151117 10.0727
0.0154520 10.0552
0.0157922 10.0385
0.0161325 10.0225
0.0164728 10.0072
0.0168131 9.99260
0.0171534 9.97855
0.0178340 9.95203
0.0185146 9.92735
0.0192573 9.90225
0.0200000 9.87881
0.0206625 9.85912
0.0213250 9.84048
0.0219875 9.82278
0.0226500 9.80593
0.0233125 9.78988
0.0239750 9.77457
0.0246375 9.75993
0.0253000 9.74592
0.0263794 9.72436
0.0274588 9.70422
0.0285381 9.68536
0.0296175 9.66766
0.0306969 9.65100
0.0317763 9.63529
0.0328557 9.62044
0.0339350 9.60635
0.0355542 9.58650
0.0371733 9.56801
0.0387925 9.55069
0.0404116 9.53441
0.0420308 9.51906
0.0436499 9.50456
0.0452691 9.49085
0.0468882 9.47787
0.0480840 9.46874
0.0492798 9.45996
0.0493555 9.45942
0.0495166 9.45827
0.0496778 9.45712
0.0500000 9.45485
0.0506738 9.45017
0.0513476 9.44559
0.0526951 9.43674
0.0540427 9.42827
0.0553903 9.42015
0.0567378 9.41236
0.0580854 9.40489
0.0594329 9.39771
0.0607805 9.39082
0.0634756 9.37780
0.0661707 9.36570
0.0688659 9.35441
0.0715610 9.34380
0.0749535 9.33124
0.0783460 9.31939
0.0817385 9.30814
0.0851310 9.29743
0.0885235 9.28726
0.0919160 9.27764
0.0953085 9.26859
0.0987010 9.26010
0.100000 9.25699
0.103003 9.25007
0.106006 9.24351
0.109009 9.23726
0.112012 9.23130
0.115015 9.22558
0.118018 9.22009
0.121020 9.21483
0.124023 9.20978
0.127026 9.20495
0.130029 9.20035
0.133032 9.19595
0.136035 9.19174
0.142041 9.18385
0.148047 9.17648
0.154541 9.16887
0.161035 9.16148
0.167529 9.15427
0.174023 9.14729
0.180518 9.14063
0.187012 9.13437
0.193506 9.12856
0.200000 9.12317
0.205388 9.11899
0.210777 9.11503
0.216165 9.11124
0.221554 9.10759
0.232330 9.10058
0.243107 9.09393
0.248495 9.09077
0.253884 9.08774
0.259272 9.08485
0.264661 9.08211
0.270049 9.07952
0.275437 9.07707
0.286214 9.07248
0.313354 9.06181
0.340494 9.05124
0.354064 9.04612
0.367634 9.04130
0.374419 9.03903
0.381204 9.03688
0.387989 9.03482
0.394774 9.03287
0.407927 9.02933
0.421081 9.02605
0.434234 9.02293
0.447387 9.01993
0.500000 9.00846
0.520563 9.00449
0.541127 9.00101
0.582254 8.99509
0.664507 8.98398
0.705634 8.97834
0.746761 8.97315
0.787888 8.96875
0.829014 8.96500
0.914507 8.95804
1.00000 8.95136
1.04113 8.94848
1.08225 8.94605
1.16451 8.94187
1.24676 8.93805
1.32901 8.93394
1.41126 8.92983
1.49352 8.92603
1.57577 8.92284
1.65802 8.92014
1.82901 8.91504
2.00000 8.91005
2.08225 8.90787
2.16450 8.90609
2.32901 8.90294
2.49351 8.90005
2.65801 8.89689
2.82252 8.89374
2.98702 8.89079
3.06927 8.88945
3.15152 8.88830
3.31603 8.88617
3.52652 8.88359
3.73702 8.88117
3.94752 8.87864
4.15801 8.87626
4.36851 8.87437
4.57901 8.87263
5.00000 8.86936
5.64487 8.86397
5.96731 8.86143
6.12852 8.86023
6.28974 8.85919
6.93461 8.85530
7.57948 8.85167
8.18461 8.84815
8.48717 8.84664
8.78974 8.84524
9.39487 8.84255
10.0000 8.83998
11.2897 8.83413
11.9346 8.83132
12.2571 8.82995
12.5795 8.82872
13.8692 8.82395
15.1590 8.81936
16.3692 8.81495
16.9744 8.81294
17.5795 8.81099
18.7897 8.80719
20.0000 8.80347
22.5795 8.79528
23.8692 8.79126
24.5141 8.78928
25.1589 8.78740
27.7384 8.77996
30.3179 8.77266
32.1796 8.76731
33.1105 8.76467
34.0414 8.76213
37.7649 8.75211
39.6267 8.74717
40.5575 8.74469
41.4884 8.74216
45.2119 8.73209
47.6060 8.72569
48.8030 8.72250
50.0000 8.71937
54.2668 8.70828
58.5336 8.69727
60.6670 8.69179
62.8003 8.68624
64.9337 8.68071
66.0004 8.67795
67.0671 8.67523
70.7417 8.66591
77.7758 8.64821
81.2928 8.63939
84.8099 8.63044
91.8439 8.61265
98.8780 8.59497
100.000 8.59219
103.056 8.58457
106.113 8.57692
112.429 8.56118
118.745 8.54552
131.378 8.51391
136.431 8.50136
151.762 8.46358
159.427 8.44484
167.093 8.42586
182.424 8.38788
197.755 8.35028
200.000 8.34531
202.119 8.34067
209.699 8.32374
217.278 8.30690
232.437 8.27340
247.596 8.23985
262.755 8.20581
268.267 8.19353
290.316 8.14487
312.366 8.09674
323.391 8.07281
334.415 8.04817
356.465 7.99915
378.514 7.95069
389.539 7.92670
395.051 7.91472
400.563 7.90356
422.613 7.85843
444.662 7.81357
500.000 7.70225
521.806 7.65823
527.258 7.64728
532.710 7.63717
543.613 7.61711
565.419 7.57732
587.225 7.53693
609.031 7.49662
630.838 7.45702
652.644 7.41704
674.450 7.37600
718.063 7.29503
761.675 7.21584
783.482 7.17682
794.385 7.15790
805.288 7.14032
848.900 7.06784
886.675 7.00608
924.450 6.94542
962.225 6.88581
1000.00 6.82439
1043.61 6.75414
1054.52 6.73668
1065.42 6.72157
1087.23 6.69161
1130.84 6.63267
1174.45 6.57222
1218.06 6.51199
1261.68 6.45367
1305.29 6.39436
1348.90 6.33235
1436.13 6.21120
1523.35 6.09456
1566.96 6.03765
1588.77 6.01061
1610.58 5.98674
1697.80 5.88660
1773.35 5.80235
1848.90 5.72064
1924.45 5.64135
2000.00 5.55799
2064.83 5.48752
2097.25 5.45230
2129.66 5.42211
2259.32 5.31538
2388.98 5.20475
2518.64 5.09883
3037.29 4.67146
3137.81 4.58994
3188.07 4.55459
3238.33 4.52507
3439.37 4.40529
3841.45 4.17072
4042.49 4.05123
4243.52 3.94006
4645.60 3.78195
5000.00 3.64452
5976.45 3.27137
6220.56 3.17775
6342.62 3.13383
6464.68 3.10469
6952.90 2.98584
8165.62 2.69672
8468.79 2.62864
8771.97 2.58549
9378.33 2.50146
10000.0 2.41552
10814.8 2.30037
11629.5 2.19082
12444.3 2.07682
12648.0 2.04972
12851.7 2.03354
13259.0 2.00028
14148.4 1.93291
15037.7 1.86301
16816.3 1.72716
20000.0 1.59152
23259.0 1.45642
24888.5 1.38776
25295.9 1.37148
25703.3 1.36092
26518.0 1.33921
28296.7 1.29497
29186.0 1.27256
30075.3 1.25298
33632.6 1.18312
44319.2 1.04604
50000.0 0.973393
50924.7 0.963055
51849.4 0.955095
53698.9 0.939360
57397.8 0.907728
64795.5 0.845383
67500.0 0.822435
76893.0 0.747872
81589.5 0.708641
83937.8 0.688569
86286.0 0.667031
89688.9 0.633797
93091.9 0.598144
96494.8 0.558961
98196.3 0.537700
99897.8 0.515306
100000 0.513939
100253 0.510534
100506 0.507098
101011 0.500116
102022 0.485283
104044 0.454174
106066 0.420636
108088 0.384026
109697 0.352826
111306 0.318511
112111 0.300523
112915 0.281912
113719 0.262632
114524 0.242718
115238 0.224420
115951 0.205623
116665 0.186358
117379 0.166674
118093 0.146694
118807 0.126333
120234 0.0857657
121547 0.0517002
121876 0.0430504
122204 0.0346884
122286 0.0325598
122368 0.0305835
122532 0.0273656
122696 0.0243059
122861 0.0211082
123016 0.0181952
123171 0.0151542
123327 0.0122581
123404 0.0108367
123482 0.00985156
123793 0.00600870
123871 0.00504796
123910 0.00456947
123948 0.00419163
124104 0.00299416
124164 0.00253118
124194 0.00233163
124224 0.00220198
124344 0.00173257
124405 0.00149848
124435 0.00138313
124465 0.00130643
124585 0.00123076
124702 0.00141468
124732 0.00150045
124761 0.00162033
124820 0.00186480
124849 0.00200251
124878 0.00219117
124937 0.00259646
124967 0.00280437
124996 0.00307629
125054 0.00373763
125256 0.00610259
125457 0.00972684
125507 0.0106942
125557 0.0121498
125658 0.0151771
125859 0.0212228
125955 0.0242101
126003 0.0256604
126050 0.0274463
126146 0.0322431
126242 0.0372035
126433 0.0469248
126529 0.0519340
126577 0.0547448
126625 0.0582808
126703 0.0643628
126781 0.0707821
126937 0.0826943
127015 0.0890057
127092 0.0958776
127170 0.104342
127248 0.113246
127350 0.125609
127401 0.131873
127452 0.137516
127503 0.143352
127554 0.149518
127605 0.155796
127630 0.159504
127655 0.163749
127706 0.172120
127757 0.180134
127859 0.197016
127961 0.215033
128062 0.232093
128117 0.241514
128144 0.246520
128171 0.252538
128279 0.278464
128388 0.303188
128496 0.329587
128605 0.356812
128659 0.370044
128686 0.378774
128713 0.389427
128822 0.433731
128876 0.455714
128930 0.476582
129030 0.516697
129130 0.559026
129229 0.597983
129329 0.638166
129428 0.680947
129528 0.719458
129628 0.759915
129677 0.781376
129702 0.792506
129727 0.805254
129764 0.832063
129801 0.860826
129875 0.920026
130023 1.04466
130172 1.16099
130320 1.28638
130429 1.37085
130539 1.46133
130594 1.50960
130649 1.55444
130759 1.64439
130772 1.65754
130786 1.67414
130813 1.71714
130868 1.80833
130978 1.98372
131088 2.16421
131197 2.35400
131636 3.06993
131746 3.26087
131801 3.35771
131828 3.40704
131842 3.44020
131856 3.48101
131910 3.66008
131965 3.84192
132075 4.22122
132221 4.69689
132368 5.20956
132514 5.68228
132661 6.19819
132770 6.55554
132880 6.94439
132907 7.07859
132934 7.24039
132989 7.56156
133099 8.19890
133190 8.76459
133236 9.04673
133282 9.30526
133373 9.80657
133464 10.3351
133556 10.8772
133647 11.4435
133830 12.6182
134196 15.1037
134379 16.3139
134561 17.4735
134671 18.1059
134781 18.6797
134890 19.1931
135000 19.6349
135146 20.0845
135293 20.3795
135439 20.5195
135585 20.5101
135695 20.4044
135804 20.2326
135914 20.0046
136024 19.7220
136243 19.0087
136463 18.1811
136901 16.3550
137121 15.4364
137230 15.0035
137340 14.6811
137345 14.6663
137349 14.6520
137368 14.5943
137386 14.5367
137422 14.4222
137495 14.1974
137640 13.7634
137930 12.9603
138220 12.0707
138510 11.2685
138741 10.5617
138972 9.89968
139434 8.58592
139557 8.41418
139680 8.25941
139827 8.05387
140046 7.76838
140265 7.50566
140412 7.30456
140649 6.99678
140887 6.70336
141125 6.38604
141362 6.08865
141600 5.78777
141660 5.71792
141719 5.67727
141838 5.59919
142313 5.29205
143868 4.31224
146993 3.37802
147434 3.24653
147875 3.12185
148316 2.99318
148756 2.92231
149638 2.78141
150519 2.64711
152551 2.41630
152736 2.39563
153127 2.36995
153517 2.34617
154299 2.29656
155861 2.20045
157424 2.10000
158987 2.00424
160750 1.89676
161631 1.84268
162512 1.81259
166038 1.69530
170102 1.59567
170473 1.58663
171273 1.57501
172072 1.56417
173671 1.54156
176869 1.49768
183266 1.40850
187653 1.34809
188209 1.34041
190426 1.32213
192643 1.30532
197077 1.27136
212518 1.39203
228104 1.51451
228606 1.51854
229722 1.52705
230837 1.53564
233068 1.55301
235299 1.57065
237530 1.58853
239761 1.60572
241992 1.62313
244224 1.64074
246455 1.65853
248686 1.67578
250917 1.69321
253148 1.71079
255379 1.72852
257610 1.74582
259841 1.76326
264303 1.79851
268765 1.83330
273227 1.86850
277689 1.90332
282152 1.93849
286614 1.97334
291076 2.00848
295538 2.04336
300000 2.07848
300000 2.07847
350000 2.06116
400000 2.05421
500000 2.06747
600000 2.09986
700000 2.14661
800000 2.19336
900000 2.27669
1.00000E+06 2.36001
1.20000E+06 2.61002
1.20000E+06 2.61002
1.35000E+06 2.79002
1.50000E+06 2.97003
1.80000E+06 3.18003
2.00000E+06 3.27719
2.20000E+06 3.30131
2.22561E+06 3.26693
2.35000E+06 3.31601
2.50000E+06 3.32699
2.65000E+06 3.33343
2.80000E+06 3.33681
3.00000E+06 3.33118
3.20000E+06 3.31993
3.37750E+06 3.30641
3.46775E+06 3.28442
3.50000E+06 3.28141
3.81000E+06 3.25618
3.91123E+06 3.21714
3.93660E+06 3.23792
4.00000E+06 3.22872
4.04161E+06 3.20865
4.48000E+06 3.14940
4.50000E+06 3.14554
4.56540E+06 3.13412
4.58580E+06 3.13028
4.59903E+06 3.12249
4.68629E+06 3.09255
4.70785E+06 3.10389
4.71030E+06 3.10593
4.83515E+06 3.07884
4.87680E+06 3.07717
5.00000E+06 3.05530
5.00001E+06 3.05530
5.00658E+06 3.05237
5.08440E+06 3.04078
5.15730E+06 3.02532
5.21908E+06 2.99960
5.29402E+06 2.98233
5.34950E+06 2.98898
5.49215E+06 2.95903
5.50000E+06 2.95916
5.51340E+06 2.95926
5.55220E+06 2.95124
5.59470E+06 2.94277
5.65830E+06 2.92940
5.65948E+06 2.92887
5.69952E+06 2.91792
5.73390E+06 2.91603
5.74366E+06 2.91255
5.80833E+06 2.90252
5.82490E+06 2.90053
5.85720E+06 2.89400
5.88635E+06 2.88615
5.97480E+06 2.87276
5.97977E+06 2.87061
6.00000E+06 2.86301
6.01262E+06 2.85822
6.05676E+06 2.84400
6.50000E+06 2.77580
7.00000E+06 2.68838
7.50000E+06 2.60534
8.00000E+06 2.52059
8.77204E+06 2.40777
9.00000E+06 2.37446
1.00000E+07 2.25146
1.05000E+07 2.19925
1.10000E+07 2.15287
1.10000E+07 2.10171
1.10000E+07 2.10171
1.18385E+07 2.12280
1.20000E+07 2.10565
1.30000E+07 2.01502
1.40000E+07 1.94394
1.45000E+07 1.91592
1.50000E+07 1.89279
1.60000E+07 1.85843
1.70000E+07 1.83688
1.80000E+07 1.82292
1.90000E+07 1.81277
2.00000E+07 1.80412
