Ti-47(n,tot) ENDFB-8.0
Energy(eV) XS(b)
1.00000E-05 109.116
1.03125E-05 107.455
1.06250E-05 105.868
1.09375E-05 104.349
1.12500E-05 102.895
1.15625E-05 101.499
1.18750E-05 100.160
1.21875E-05 98.8717
1.25000E-05 97.6325
1.28125E-05 96.4390
1.31250E-05 95.2884
1.34375E-05 94.1783
1.37500E-05 93.1062
1.43750E-05 91.0681
1.50000E-05 89.1590
1.56250E-05 87.3657
1.62500E-05 85.6771
1.68750E-05 84.0833
1.75000E-05 82.5758
1.81250E-05 81.1471
1.87500E-05 79.7906
1.93750E-05 78.5004
2.00000E-05 77.2712
2.09375E-05 75.5319
2.18750E-05 73.9059
2.28125E-05 72.3814
2.37500E-05 70.9483
2.46875E-05 69.5978
2.56250E-05 68.3222
2.65625E-05 67.1150
2.75000E-05 65.9702
2.84375E-05 64.8826
2.93750E-05 63.8477
3.03125E-05 62.8613
3.12500E-05 61.9198
3.21875E-05 61.0198
3.31250E-05 60.1584
3.40625E-05 59.3329
3.50000E-05 58.5410
3.59375E-05 57.7803
3.68750E-05 57.0489
3.78125E-05 56.3450
3.87500E-05 55.6669
3.96875E-05 55.0131
4.06250E-05 54.3821
4.25000E-05 53.1835
4.43750E-05 52.0621
4.62500E-05 51.0099
4.81250E-05 50.0200
5.00000E-05 49.0866
5.15625E-05 48.3481
5.31250E-05 47.6427
5.46875E-05 46.9678
5.62500E-05 46.3214
5.78125E-05 45.7016
5.93750E-05 45.1064
6.09375E-05 44.5345
6.25000E-05 43.9843
6.40625E-05 43.4544
6.56250E-05 42.9437
6.71875E-05 42.4510
6.87500E-05 41.9753
7.18750E-05 41.0712
7.50000E-05 40.2246
7.81250E-05 39.4296
8.12500E-05 38.6813
8.43750E-05 37.9752
8.75000E-05 37.3076
9.06250E-05 36.6752
9.37500E-05 36.0748
9.68750E-05 35.5040
0.000100000 34.9604
0.000103125 34.4420
0.000106250 33.9467
0.000109375 33.4731
0.000112500 33.0195
0.000115625 32.5847
0.000118750 32.1672
0.000121875 31.7661
0.000125000 31.3804
0.000128125 31.0089
0.000131250 30.6510
0.000134375 30.3057
0.000137500 29.9725
0.000143750 29.3392
0.000150000 28.7465
0.000156250 28.1901
0.000162500 27.6666
0.000168750 27.1728
0.000175000 26.7061
0.000181250 26.2641
0.000187500 25.8448
0.000193750 25.4462
0.000200000 25.0667
0.000209375 24.5302
0.000218750 24.0291
0.000228125 23.5598
0.000237500 23.1191
0.000246875 22.7042
0.000256250 22.3127
0.000265625 21.9425
0.000275000 21.5918
0.000284375 21.2590
0.000293750 20.9426
0.000303125 20.6413
0.000312500 20.3539
0.000321875 20.0795
0.000331250 19.8171
0.000340625 19.5659
0.000350000 19.3251
0.000359375 19.0940
0.000368750 18.8720
0.000378125 18.6585
0.000387500 18.4530
0.000396875 18.2551
0.000406250 18.0642
0.000425000 17.7021
0.000443750 17.3638
0.000462500 17.0469
0.000481250 16.7493
0.000500000 16.4690
0.000515625 16.2477
0.000531250 16.0364
0.000546875 15.8346
0.000562500 15.6415
0.000578125 15.4566
0.000593750 15.2793
0.000609375 15.1090
0.000625000 14.9454
0.000640625 14.7881
0.000656250 14.6366
0.000671875 14.4906
0.000687500 14.3498
0.000718750 14.0825
0.000750000 13.8328
0.000781250 13.5988
0.000812500 13.3789
0.000843750 13.1719
0.000875000 12.9764
0.000906250 12.7916
0.000937500 12.6165
0.000968750 12.4502
0.00100000 12.2921
0.00103125 12.1416
0.00106250 11.9980
0.00109375 11.8609
0.00112500 11.7298
0.00115625 11.6042
0.00118750 11.4839
0.00121875 11.3684
0.00125000 11.2574
0.00128125 11.1507
0.00131250 11.0480
0.00134375 10.9491
0.00137500 10.8537
0.00143750 10.6727
0.00150000 10.5036
0.00156250 10.3453
0.00162500 10.1965
0.00168750 10.0564
0.00175000 9.92419
0.00181250 9.79918
0.00187500 9.68074
0.00193750 9.56831
0.00200000 9.46142
0.00209375 9.31051
0.00218750 9.16980
0.00228125 9.03820
0.00237500 8.91478
0.00246875 8.79874
0.00256250 8.68937
0.00265625 8.58607
0.00275000 8.48830
0.00284375 8.39558
0.00293750 8.30750
0.00303125 8.22369
0.00312500 8.14382
0.00321875 8.06759
0.00331250 7.99473
0.00340625 7.92501
0.00350000 7.85820
0.00359375 7.79412
0.00368750 7.73258
0.00378125 7.67342
0.00387500 7.61649
0.00396875 7.56165
0.00406250 7.50879
0.00425000 7.40853
0.00443750 7.31489
0.00462500 7.22718
0.00481250 7.14480
0.00500000 7.06723
0.00515625 7.00595
0.00531250 6.94747
0.00546875 6.89159
0.00562500 6.83811
0.00578125 6.78688
0.00593750 6.73774
0.00609375 6.69056
0.00625000 6.64520
0.00640625 6.60155
0.00656250 6.55952
0.00671875 6.51900
0.00687500 6.47990
0.00718750 6.40566
0.00750000 6.33623
0.00781250 6.27110
0.00812500 6.20986
0.00843750 6.15214
0.00875000 6.09760
0.00906250 6.04598
0.00937500 5.99701
0.00968750 5.95049
0.0100000 5.90621
0.0103125 5.86400
0.0106250 5.82371
0.0109375 5.78519
0.0112500 5.74832
0.0115625 5.71299
0.0118750 5.67909
0.0121875 5.64653
0.0125000 5.61522
0.0128125 5.58508
0.0131250 5.55605
0.0134375 5.52806
0.0137500 5.50104
0.0143750 5.44972
0.0150000 5.40170
0.0156250 5.35664
0.0162500 5.31425
0.0168750 5.27428
0.0175000 5.23650
0.0181250 5.20073
0.0187500 5.16678
0.0193750 5.13452
0.0200000 5.10381
0.0206625 5.07281
0.0213250 5.04329
0.0219875 5.01513
0.0226500 4.98824
0.0233125 4.96252
0.0239750 4.93789
0.0246375 4.91427
0.0253000 4.89160
0.0264578 4.85407
0.0276156 4.81896
0.0287734 4.78603
0.0299313 4.75504
0.0310891 4.72583
0.0322469 4.69822
0.0334047 4.67208
0.0345625 4.64728
0.0355274 4.62756
0.0364922 4.60863
0.0374570 4.59044
0.0384219 4.57295
0.0393867 4.55612
0.0403516 4.53990
0.0413164 4.52425
0.0422813 4.50915
0.0442109 4.48046
0.0461406 4.45361
0.0480703 4.42841
0.0500000 4.40470
0.0515625 4.38649
0.0531250 4.36910
0.0546875 4.35247
0.0562500 4.33654
0.0578125 4.32127
0.0593750 4.30662
0.0609375 4.29253
0.0625000 4.27899
0.0640625 4.26595
0.0656250 4.25338
0.0671875 4.24125
0.0687500 4.22955
0.0718750 4.20730
0.0750000 4.18647
0.0781250 4.16691
0.0812500 4.14850
0.0843750 4.13112
0.0875000 4.11469
0.0906250 4.09912
0.0937500 4.08435
0.0968750 4.07030
0.100000 4.05691
0.103125 4.04415
0.106250 4.03196
0.109375 4.02029
0.112500 4.00913
0.115625 3.99841
0.118750 3.98813
0.121875 3.97825
0.125000 3.96875
0.128125 3.95960
0.131250 3.95078
0.134375 3.94228
0.137500 3.93406
0.143750 3.91845
0.150000 3.90383
0.156250 3.89009
0.162500 3.87716
0.168750 3.86495
0.175000 3.85341
0.181250 3.84247
0.187500 3.83209
0.193750 3.82223
0.200000 3.81283
0.209375 3.79953
0.218750 3.78709
0.228125 3.77543
0.237500 3.76447
0.246875 3.75414
0.256250 3.74439
0.265625 3.73516
0.275000 3.72641
0.284375 3.71809
0.293750 3.71018
0.303125 3.70264
0.312500 3.69544
0.321875 3.68856
0.331250 3.68198
0.340625 3.67567
0.350000 3.66962
0.359375 3.66380
0.368750 3.65821
0.378125 3.65283
0.387500 3.64765
0.396875 3.64266
0.406250 3.63784
0.425000 3.62869
0.443750 3.62011
0.462500 3.61207
0.500000 3.59737
0.531250 3.58634
0.562500 3.57622
0.593750 3.56691
0.625000 3.55830
0.687500 3.54289
0.750000 3.52945
0.812500 3.51759
0.875000 3.50705
0.937500 3.49758
1.00000 3.48899
1.06250 3.48116
1.12500 3.47399
1.18750 3.46739
1.25000 3.46129
1.37500 3.45036
1.50000 3.44082
1.62500 3.43239
1.75000 3.42490
1.87500 3.41815
2.00000 3.41202
2.18750 3.40381
2.37500 3.39659
2.56250 3.39017
2.75000 3.38441
2.93750 3.37920
3.12500 3.37444
3.31250 3.37008
3.50000 3.36606
3.87500 3.35889
4.25000 3.35266
4.62500 3.34716
5.00000 3.34227
5.31250 3.33858
5.62500 3.33517
5.93750 3.33202
6.25000 3.32909
6.87500 3.32379
7.50000 3.31911
8.12500 3.31492
8.75000 3.31115
9.37500 3.30771
10.0000 3.30455
10.6250 3.30163
11.2500 3.29892
11.8750 3.29639
12.5000 3.29402
13.7500 3.28967
15.0000 3.28575
16.2500 3.28219
17.5000 3.27892
18.7500 3.27588
20.0000 3.27304
21.8750 3.26910
23.7500 3.26546
25.6250 3.26208
27.5000 3.25891
29.3750 3.25590
31.2500 3.25305
33.1250 3.25032
35.0000 3.24770
38.7500 3.24273
42.5000 3.23806
46.2500 3.23363
50.0000 3.22940
53.1250 3.22599
56.2500 3.22268
59.3750 3.21945
62.5000 3.21629
68.7500 3.21017
75.0000 3.20425
81.2500 3.19850
87.5000 3.19289
93.7500 3.18739
100.000 3.18200
106.250 3.17670
112.500 3.17147
118.750 3.16631
125.000 3.16122
137.500 3.15119
150.000 3.14134
162.500 3.13166
175.000 3.12211
187.500 3.11269
200.000 3.10337
218.750 3.08959
237.500 3.07601
256.250 3.06262
275.000 3.04940
293.750 3.03634
312.500 3.02343
331.250 3.01068
350.000 2.99806
387.500 2.97323
425.000 2.94892
462.500 2.92512
500.000 2.90182
531.250 2.88278
562.500 2.86407
593.750 2.84571
625.000 2.82769
687.500 2.79268
750.000 2.75909
812.500 2.72698
875.000 2.69643
937.500 2.66753
1000.00 2.64040
1062.50 2.61520
1125.00 2.59212
1187.50 2.57137
1250.00 2.55324
1312.50 2.53806
1375.00 2.52622
1437.50 2.51823
1500.00 2.51470
1562.50 2.51637
1625.00 2.52418
1687.50 2.53926
1718.75 2.54997
1750.00 2.56309
1781.25 2.57886
1812.50 2.59756
1843.75 2.61949
1875.00 2.64502
1906.25 2.67456
1937.50 2.70858
1968.75 2.74761
2000.00 2.79229
2039.74 2.85901
2059.61 2.89616
2079.49 2.93756
2099.36 2.98124
2119.23 3.02977
2158.97 3.13826
2198.71 3.26884
2218.58 3.34171
2238.45 3.42325
2258.33 3.50951
2278.20 3.60593
2298.07 3.70888
2317.94 3.82298
2339.80 3.96231
2361.66 4.11597
2383.51 4.28664
2405.37 4.47777
2427.23 4.68957
2449.09 4.92810
2460.02 5.05700
2470.95 5.19574
2492.80 5.49532
2513.67 5.82065
2524.10 5.99606
2534.53 6.18623
2555.40 6.59769
2576.26 7.06951
2586.70 7.32709
2597.13 7.60765
2607.56 7.90332
2617.99 8.22051
2628.43 8.56664
2638.86 8.93218
2649.29 9.32773
2659.72 9.75184
2670.65 10.2373
2681.58 10.7636
2692.51 11.3366
2703.44 11.9631
2714.37 12.6459
2725.30 13.3959
2736.23 14.2198
2747.15 15.1250
2758.08 16.1285
2769.01 17.2371
2779.94 18.4690
2785.41 19.1375
2790.87 19.8458
2796.34 20.5906
2801.80 21.3802
2807.27 22.2213
2812.73 23.1082
2818.19 24.0493
2823.66 25.0560
2829.12 26.1227
2834.59 27.2549
2842.54 29.0444
2850.48 31.0142
2858.43 33.1888
2866.38 35.5957
2874.33 38.2612
2878.30 39.7015
2882.28 41.2290
2886.25 42.8436
2890.23 44.5517
2894.20 46.3602
2898.17 48.2768
2903.64 51.1044
2909.10 54.1757
2914.57 57.5182
2920.03 61.1621
2925.50 65.1427
2930.96 69.4990
2936.43 74.2772
2941.89 79.5261
2947.36 85.3071
2952.82 91.6831
2958.29 98.7324
2963.75 106.539
2966.48 110.757
2969.21 115.200
2971.95 119.885
2974.68 124.825
2977.41 130.038
2980.14 135.538
2982.88 141.342
2985.61 147.469
2988.31 153.857
2991.00 160.594
2993.70 167.701
2996.40 175.201
2999.09 183.114
3001.79 191.452
3004.49 200.242
3007.19 209.499
3009.88 219.240
3012.58 229.478
3015.28 240.225
3017.97 251.481
3023.37 275.560
3028.76 301.634
3034.92 333.677
3041.07 367.069
3047.23 401.049
3053.38 433.863
3056.46 449.169
3059.54 463.341
3062.61 476.074
3065.69 487.067
3068.77 496.046
3071.85 502.773
3074.92 507.070
3078.00 508.818
3081.08 507.978
3084.16 504.591
3087.23 498.773
3090.31 490.707
3093.39 480.619
3096.47 468.787
3099.54 455.504
3102.62 441.070
3108.77 409.882
3114.93 377.366
3121.08 345.222
3127.24 314.229
3132.77 288.233
3135.54 275.949
3138.30 264.169
3141.07 252.899
3143.83 242.126
3146.60 231.850
3149.37 222.070
3152.13 212.760
3154.90 203.911
3157.66 195.507
3160.43 187.529
3163.19 179.953
3165.96 172.767
3168.73 165.947
3171.49 159.477
3174.32 153.207
3177.14 147.263
3179.97 141.625
3182.80 136.282
3185.62 131.210
3188.45 126.397
3191.28 121.826
3194.10 117.487
3199.76 109.440
3205.41 102.160
3211.06 95.5600
3216.72 89.5636
3222.37 84.1054
3228.02 79.1256
3233.67 74.5731
3239.33 70.4032
3244.98 66.5753
3250.63 63.0550
3256.29 59.8112
3261.94 56.8163
3266.05 54.7806
3270.16 52.8560
3274.27 51.0339
3278.39 49.3081
3282.50 47.6715
3286.61 46.1252
3294.83 43.2542
3303.05 40.6493
3311.28 38.2854
3319.50 36.1333
3327.72 34.1694
3333.37 32.9207
3339.03 31.7411
3344.68 30.6246
3350.33 29.5764
3355.99 28.5851
3361.64 27.6427
3367.29 26.7540
3372.94 25.9128
3378.60 25.1105
3384.25 24.3504
3395.56 22.9419
3406.86 21.6650
3418.17 20.5013
3429.47 19.4428
3440.78 18.4728
3452.09 17.5829
3463.39 16.7662
3474.70 16.0115
3486.00 15.3154
3497.31 14.6709
3508.62 14.0719
3519.41 13.5438
3530.20 13.0477
3540.99 12.5853
3551.79 12.1452
3562.58 11.7374
3573.37 11.3544
3584.16 10.9888
3594.95 10.6492
3616.54 10.0207
3627.33 9.73446
3638.12 9.46196
3648.91 9.20112
3659.71 8.95728
3681.29 8.50038
3703.90 8.07057
3715.21 7.86916
3726.51 7.67942
3749.13 7.32369
3771.74 7.00060
3794.35 6.70323
3816.96 6.43132
3839.57 6.18088
3862.18 5.94882
3883.77 5.74451
3905.35 5.55394
3926.94 5.37571
3948.52 5.20986
3970.11 5.05458
3991.69 4.90866
4013.27 4.77224
4024.07 4.70720
4034.86 4.64409
4043.08 4.59758
4051.30 4.55227
4059.53 4.50819
4067.75 4.46536
4075.97 4.42386
4084.19 4.38371
4092.42 4.34511
4100.64 4.30832
4104.75 4.29070
4108.86 4.27368
4112.46 4.25933
4116.06 4.24557
4119.65 4.23246
4123.25 4.22011
4126.85 4.20872
4130.45 4.19845
4134.04 4.18954
4137.64 4.18234
4139.70 4.17915
4141.75 4.17678
4143.81 4.17536
4145.86 4.17506
4147.92 4.17607
4149.97 4.17865
4152.03 4.18310
4154.08 4.18987
4156.14 4.19955
4158.20 4.21283
4159.55 4.22398
4160.89 4.23743
4162.24 4.25364
4163.59 4.27315
4164.94 4.29665
4166.29 4.32500
4167.64 4.35935
4168.99 4.40121
4169.70 4.42682
4170.40 4.45536
4171.11 4.48736
4171.81 4.52324
4172.52 4.56371
4173.23 4.60940
4173.93 4.66134
4174.64 4.72049
4175.22 4.77539
4175.80 4.83692
4176.38 4.90629
4176.95 4.98487
4177.53 5.07453
4178.11 5.17709
4178.69 5.29540
4178.98 5.36151
4179.27 5.43294
4179.62 5.52858
4179.97 5.63412
4180.33 5.75173
4180.68 5.88268
4181.03 6.03008
4181.39 6.19606
4181.74 6.38477
4182.09 6.60101
4182.27 6.72168
4182.45 6.85178
4182.62 6.99239
4182.80 7.14388
4182.98 7.30942
4183.15 7.48879
4183.33 7.68594
4183.51 7.90084
4183.68 8.13847
4183.86 8.40059
4184.04 8.69056
4184.21 9.01028
4184.39 9.36773
4184.57 9.76376
4184.74 10.2084
4184.92 10.7028
4185.02 11.0000
4185.11 11.3130
4185.21 11.6496
4185.31 12.0042
4185.40 12.3856
4185.50 12.7874
4185.59 13.2150
4185.69 13.6699
4185.79 14.1591
4185.88 14.6740
4185.98 15.2274
4186.08 15.8095
4186.17 16.4343
4186.27 17.0910
4186.37 17.7875
4186.46 18.5259
4186.55 19.2494
4186.64 20.0033
4186.73 20.8060
4186.82 21.6411
4186.90 22.5288
4186.99 23.4506
4187.08 24.4175
4187.17 25.4307
4187.26 26.5037
4187.35 27.6132
4187.43 28.7721
4187.52 29.9812
4187.70 32.5672
4187.87 35.3453
4188.02 37.7893
4188.16 40.3535
4188.31 43.0704
4188.45 45.8975
4188.60 48.8670
4188.74 51.9288
4189.03 58.3663
4189.38 66.6335
4189.74 75.0320
4190.09 83.2676
4190.27 87.1959
4190.44 90.9108
4190.62 94.3668
4190.79 97.5386
4190.97 100.381
4191.14 102.841
4191.33 105.025
4191.52 106.712
4191.70 107.873
4191.89 108.486
4192.00 108.590
4192.03 108.582
4192.12 108.473
4192.21 108.237
4192.39 107.380
4192.57 106.025
4192.74 104.205
4192.89 102.435
4193.03 100.416
4193.17 98.1402
4193.31 95.6604
4193.58 90.3645
4193.85 84.5181
4194.22 75.9720
4194.59 67.2006
4194.86 60.8316
4195.13 54.6735
4195.40 48.8322
4195.54 46.0665
4195.67 43.4069
4195.81 40.8410
4195.95 38.3933
4196.08 36.0667
4196.22 33.8788
4196.35 31.7974
4196.49 29.8524
4196.62 28.0134
4196.76 26.3050
4196.86 25.0547
4196.97 23.8712
4197.07 22.7525
4197.18 21.7063
4197.28 20.7103
4197.39 19.7811
4197.49 18.8985
4197.60 18.0768
4197.70 17.2978
4197.81 16.5673
4197.91 15.8826
4198.02 15.2473
4198.12 14.6468
4198.22 14.0902
4198.33 13.5646
4198.43 13.0777
4198.57 12.4883
4198.70 11.9523
4198.84 11.4574
4198.98 11.0073
4199.11 10.5915
4199.25 10.2129
4199.38 9.86267
4199.52 9.54322
4199.65 9.24715
4199.79 8.97644
4199.92 8.72490
4200.06 8.49424
4200.20 8.27925
4200.33 8.08149
4200.47 7.89653
4200.60 7.72580
4200.76 7.53732
4200.92 7.36465
4201.08 7.20506
4201.24 7.05718
4201.40 6.91983
4201.56 6.79197
4201.88 6.56113
4202.20 6.35852
4202.52 6.17933
4202.84 6.01979
4203.16 5.87689
4203.43 5.76706
4203.70 5.66620
4203.98 5.57329
4204.25 5.48745
4204.52 5.40794
4204.79 5.33411
4205.33 5.20131
4205.87 5.08536
4206.41 4.98339
4206.96 4.89314
4207.50 4.81294
4208.14 4.72871
4208.78 4.65448
4209.42 4.58846
4210.06 4.52959
4210.70 4.47667
4211.34 4.42903
4211.98 4.38580
4212.62 4.34654
4213.71 4.28761
4214.79 4.23657
4215.87 4.19199
4216.96 4.15275
4218.04 4.11790
4219.12 4.08679
4220.21 4.05879
4221.29 4.03349
4223.06 3.99685
4224.84 3.96507
4226.61 3.93712
4228.38 3.91227
4230.16 3.88994
4231.93 3.86972
4233.70 3.85125
4235.48 3.83425
4238.43 3.80860
4241.39 3.78563
4244.35 3.76478
4247.30 3.74564
4250.26 3.72783
4253.21 3.71110
4256.17 3.69529
4259.12 3.68026
4263.46 3.65937
4267.79 3.63961
4272.13 3.62076
4276.46 3.60267
4280.80 3.58521
4285.13 3.56830
4293.80 3.53583
4299.32 3.51594
4304.84 3.49654
4315.87 3.45902
4326.91 3.42293
4337.94 3.38806
4348.97 3.35433
4360.01 3.32141
4371.04 3.28933
4382.08 3.25803
4397.05 3.21673
4412.03 3.17666
4441.98 3.09987
4471.93 3.02692
4501.88 2.95774
4531.83 2.89173
4561.78 2.82863
4591.73 2.76819
4621.68 2.71027
4645.33 2.66628
4668.97 2.62427
4692.62 2.58244
4716.26 2.54265
4763.55 2.46561
4810.84 2.39267
4858.13 2.32342
4905.42 2.25748
4952.71 2.19454
5000.00 2.13434
5042.35 2.08263
5084.70 2.03270
5127.05 1.98438
5169.40 1.93753
5254.10 1.84781
5338.80 1.76275
5423.50 1.68227
5508.20 1.60450
5592.90 1.52955
5677.60 1.45703
5750.20 1.39675
5822.80 1.33754
5895.40 1.27925
5968.00 1.22179
6052.70 1.15580
6137.40 1.09050
6222.10 1.02570
6306.80 0.961204
6391.50 0.896984
6476.20 0.832886
6560.90 0.768875
6645.60 0.704980
6709.13 0.657228
6772.65 0.609722
6836.18 0.562610
6899.70 0.516238
6963.23 0.470921
7026.75 0.427100
7090.28 0.385772
7122.04 0.366262
7153.80 0.347687
7181.03 0.332871
7208.25 0.319154
7235.48 0.306705
7262.70 0.295736
7276.31 0.290779
7289.93 0.286500
7303.54 0.282581
7317.15 0.279298
7344.38 0.274498
7357.99 0.273092
7371.60 0.272541
7383.70 0.272765
7395.80 0.273713
7407.90 0.275442
7420.00 0.278014
7436.64 0.283086
7453.28 0.290038
7469.91 0.299135
7478.23 0.304575
7486.55 0.310676
7494.87 0.317383
7503.19 0.324818
7511.51 0.333059
7519.83 0.342027
7528.14 0.351829
7536.46 0.362608
7544.78 0.374277
7553.10 0.386904
7560.66 0.399421
7568.23 0.412784
7575.79 0.427123
7583.35 0.442618
7590.91 0.459065
7598.48 0.476786
7606.04 0.495764
7613.60 0.515912
7621.16 0.537655
7628.73 0.560742
7636.29 0.585384
7643.85 0.611876
7651.41 0.639903
7658.98 0.669962
7666.54 0.701717
7674.10 0.735892
7682.42 0.776152
7690.74 0.819392
7699.06 0.865841
7707.38 0.915741
7715.69 0.969372
7724.01 1.02703
7732.33 1.08904
7740.65 1.15574
7748.97 1.22757
7757.29 1.30493
7765.61 1.38831
7773.93 1.47825
7782.24 1.57535
7790.56 1.68026
7798.88 1.79373
7807.20 1.91656
7815.52 2.04972
7823.84 2.19422
7832.16 2.35125
7840.48 2.52212
7848.79 2.70838
7857.11 2.91174
7865.43 3.13417
7873.75 3.37788
7882.07 3.64558
7890.39 3.94022
7898.71 4.26535
7902.87 4.44058
7907.03 4.62504
7911.19 4.81936
7915.34 5.02416
7919.50 5.24031
7923.66 5.46846
7927.82 5.70962
7931.98 5.96470
7936.14 6.23475
7940.30 6.52093
7946.73 6.99819
7953.16 7.52246
7959.59 8.10011
7966.01 8.73850
7969.23 9.08311
7972.44 9.44605
7975.66 9.82762
7978.87 10.2298
7982.08 10.6562
7985.30 11.1080
7988.51 11.5866
7991.73 12.0940
7995.89 12.7973
8000.04 13.5585
8004.20 14.3843
8008.36 15.2818
8012.52 16.2601
8016.68 17.3285
8020.84 18.4988
8025.00 19.7841
8029.16 21.2005
8033.32 22.7652
8037.48 24.5003
8039.56 25.4392
8041.64 26.4300
8043.72 27.4772
8045.80 28.5848
8047.88 29.7572
8049.96 30.9988
8052.04 32.3163
8054.12 33.7142
8056.20 35.2003
8058.28 36.7804
8061.30 39.2642
8064.33 41.9907
8067.35 44.9891
8070.38 48.2902
8073.40 51.9282
8074.91 53.8880
8076.43 55.9487
8077.94 58.1189
8079.45 60.4016
8080.96 62.8052
8082.48 65.3321
8084.60 69.1133
8086.73 73.1681
8088.86 77.5132
8090.99 82.1613
8093.12 87.1216
8095.24 92.3972
8097.37 97.9831
8099.50 103.862
8102.59 112.841
8105.68 122.184
8108.76 131.609
8111.85 140.714
8113.39 144.987
8114.94 148.963
8116.48 152.555
8118.03 155.673
8119.57 158.238
8121.11 160.169
8122.66 161.399
8124.20 161.873
8126.10 161.363
8128.00 159.621
8129.43 157.519
8130.85 154.771
8132.28 151.425
8133.70 147.540
8135.13 143.183
8136.55 138.429
8137.98 133.356
8139.40 128.044
8142.25 117.002
8145.10 105.842
8147.95 94.9814
8149.38 89.7656
8150.80 84.7329
8152.12 80.2450
8153.44 75.9419
8154.77 71.8299
8156.09 67.9120
8157.41 64.1888
8158.73 60.6585
8160.05 57.3179
8161.38 54.1622
8162.70 51.1855
8164.02 48.3813
8165.34 45.7426
8166.66 43.2621
8167.99 40.9322
8169.31 38.7455
8170.63 36.6945
8171.95 34.7719
8173.28 32.9589
8174.61 31.2620
8175.95 29.6747
8177.28 28.1906
8178.61 26.8037
8179.94 25.5085
8181.27 24.2995
8182.60 23.1719
8183.93 22.1210
8185.26 21.1423
8186.59 20.2318
8187.92 19.3857
8189.26 18.6004
8190.59 17.8726
8191.92 17.1994
8193.25 16.5782
8194.58 16.0055
8195.91 15.4793
8197.24 14.9975
8198.57 14.5578
8199.90 14.1583
8201.23 13.7974
8202.56 13.4732
8203.90 13.1844
8205.23 12.9294
8206.56 12.7072
8207.89 12.5164
8209.22 12.3560
8210.55 12.2251
8211.88 12.1228
8213.21 12.0482
8214.54 12.0007
8216.48 11.9786
8217.81 11.9950
8219.14 12.0366
8220.47 12.1029
8221.80 12.1937
8224.47 12.4473
8227.13 12.7960
8229.79 13.2389
8232.45 13.7759
8235.11 14.4078
8237.77 15.1356
8240.44 15.9619
8243.10 16.8892
8245.76 17.9206
8248.42 19.0602
8251.08 20.3122
8253.75 21.6819
8256.41 23.1747
8259.07 24.7961
8261.73 26.5539
8264.39 28.4546
8267.06 30.5055
8269.72 32.7146
8272.38 35.0897
8275.04 37.6390
8277.70 40.3704
8280.37 43.2918
8282.38 45.6376
8284.40 48.1003
8286.42 50.6835
8288.44 53.3905
8290.46 56.2220
8292.47 59.1758
8296.51 65.4421
8300.54 72.1840
8304.58 79.3685
8308.62 86.9395
8312.65 94.8020
8316.44 102.350
8320.24 109.912
8324.03 117.329
8327.83 124.419
8331.62 130.993
8335.41 136.861
8339.21 141.855
8343.00 145.844
8345.85 148.101
8348.69 149.672
8351.54 150.557
8354.38 150.789
8357.23 150.404
8360.07 149.432
8362.92 147.916
8365.76 145.916
8368.61 143.491
8371.46 140.706
8377.15 134.309
8382.84 127.181
8388.53 119.752
8394.22 112.305
8399.91 105.041
8404.28 99.6782
8408.65 94.5524
8413.02 89.6856
8417.39 85.0898
8421.77 80.7645
8426.14 76.7071
8430.51 72.9072
8434.88 69.3547
8439.17 66.0974
8443.45 63.0514
8447.74 60.2033
8452.03 57.5398
8456.31 55.0480
8460.60 52.7158
8464.89 50.5314
8469.17 48.4846
8472.88 46.8189
8476.58 45.2447
8480.28 43.7567
8483.98 42.3425
8487.69 40.9975
8491.39 39.7202
8495.09 38.5068
8498.79 37.3528
8502.50 36.2545
8506.20 35.2090
8509.90 34.2123
8513.60 33.2623
8521.01 31.4897
8528.41 29.8713
8532.70 28.9979
8536.99 28.1672
8541.27 27.3765
8545.56 26.6233
8554.13 25.2202
8562.71 23.9409
8571.28 22.7711
8579.86 21.6984
8588.43 20.7121
8597.00 19.8029
8607.14 18.8167
8617.27 17.9155
8627.40 17.0894
8637.53 16.3302
8647.67 15.6303
8657.80 14.9885
8667.93 14.3880
8678.07 13.8310
8686.64 13.3916
8695.21 12.9766
8703.79 12.5838
8712.36 12.2144
8720.94 11.8647
8729.51 11.5322
8738.08 11.2179
8746.66 10.9199
8763.80 10.3652
8780.95 9.86286
8798.10 9.40534
8815.25 8.98643
8832.40 8.60305
8849.54 8.24977
8866.69 7.92374
8883.84 7.62249
8900.99 7.34243
8918.13 7.08229
8935.28 6.83979
8952.43 6.61331
8969.58 6.40310
8986.73 6.20401
9003.87 6.01532
9021.02 5.84008
9055.32 5.51632
9089.61 5.22819
9123.91 4.96718
9158.20 4.73221
9192.50 4.51862
9226.79 4.32286
9261.09 4.14460
9295.38 3.98007
9329.68 3.82825
9363.98 3.68834
9398.27 3.55799
9432.57 3.43725
9466.86 3.32481
9501.16 3.21964
9538.57 3.11341
9575.98 3.01435
9610.28 2.93026
9644.58 2.85159
9678.87 2.77837
9713.17 2.71069
9747.46 2.64794
9781.76 2.59071
9816.05 2.53889
9850.35 2.49252
9887.76 2.44944
9925.17 2.41403
9962.59 2.38871
9981.29 2.37986
10000.0 2.37392
10016.0 2.37178
10035.9 2.37320
10055.8 2.37960
10075.8 2.39159
10095.7 2.41025
10115.6 2.43701
10135.6 2.47312
10155.5 2.52018
10175.4 2.58046
10186.4 2.62084
10197.4 2.66689
10208.3 2.71937
10219.3 2.77920
10230.3 2.84744
10241.2 2.92522
10252.2 3.01405
10263.1 3.11568
10273.1 3.22105
10283.1 3.34069
10293.0 3.47687
10303.0 3.63226
10313.0 3.81061
10322.9 4.01593
10327.9 4.13030
10332.9 4.25290
10337.9 4.38446
10342.9 4.52724
10348.4 4.69839
10353.8 4.88495
10359.3 5.08909
10364.8 5.31294
10370.3 5.55901
10375.8 5.83016
10381.2 6.12976
10386.7 6.46173
10392.2 6.83141
10397.7 7.24292
10403.2 7.70340
10408.7 8.22059
10411.4 8.50436
10414.1 8.80494
10416.9 9.12482
10419.6 9.46561
10422.4 9.82910
10425.1 10.2173
10427.8 10.6323
10430.6 11.0767
10434.1 11.6895
10437.6 12.3603
10441.1 13.0954
10444.5 13.9034
10448.0 14.7961
10451.5 15.7849
10455.0 16.8824
10458.5 18.1001
10461.2 19.1571
10464.0 20.3117
10466.7 21.5754
10469.5 22.9611
10472.2 24.4840
10474.9 26.1609
10477.7 28.0113
10480.4 30.0572
10483.2 32.3236
10485.9 34.8390
10487.3 36.1998
10488.6 37.6352
10490.0 39.1497
10491.4 40.7481
10492.7 42.4354
10494.1 44.2170
10495.5 46.0983
10496.9 48.0850
10498.2 50.1827
10499.6 52.3973
10501.0 54.7346
10502.3 57.2003
10503.9 60.1514
10505.4 63.2603
10507.0 66.5513
10508.5 70.0292
10510.1 73.7214
10511.6 77.5807
10513.1 81.6275
10514.7 85.8548
10517.8 94.8224
10520.8 104.235
10523.9 113.846
10527.0 123.155
10528.6 127.779
10530.3 132.045
10531.9 135.906
10533.5 139.217
10535.1 141.929
10536.8 143.933
10538.4 145.188
10540.0 145.655
10541.5 145.367
10543.0 144.391
10544.6 142.744
10546.1 140.490
10547.6 137.660
10549.1 134.359
10550.6 130.647
10552.1 126.600
10555.1 117.788
10558.2 108.526
10561.2 99.2742
10564.2 90.3919
10566.4 84.3181
10568.6 78.5852
10570.8 73.2175
10572.9 68.2446
10575.1 63.6165
10577.3 59.3630
10579.5 55.4269
10581.6 51.8233
10583.7 48.7020
10585.7 45.8334
10587.7 43.1712
10589.8 40.7241
10591.8 38.4513
10593.8 36.3599
10595.9 34.4242
10597.9 32.6314
10599.7 31.1837
10601.4 29.8273
10603.2 28.5551
10604.9 27.3668
10606.7 26.2427
10608.4 25.1904
10610.2 24.1935
10612.0 23.2593
10613.7 22.3730
10615.5 21.5367
10617.2 20.7467
10619.0 20.0041
10620.7 19.2973
10622.5 18.6319
10626.0 17.3993
10628.0 16.7401
10630.1 16.1219
10632.1 15.5359
10634.1 14.9854
10636.2 14.4625
10638.2 13.9703
10642.3 13.0625
10646.3 12.2438
10650.4 11.5067
10654.5 10.8375
10658.5 10.2313
10662.6 9.67775
10666.7 9.17226
10670.7 8.70945
10674.8 8.28566
10678.9 7.89478
10682.9 7.53519
10687.0 7.20210
10691.1 6.89476
10695.0 6.62182
10698.8 6.36762
10702.7 6.12948
10706.6 5.90650
10710.5 5.69703
10714.4 5.50097
10718.2 5.31672
10722.1 5.14334
10729.9 4.82544
10737.7 4.54219
10745.4 4.28827
10753.2 4.05966
10761.3 3.84340
10769.4 3.64826
10777.6 3.47127
10785.7 3.31014
10793.8 3.16275
10802.0 3.02783
10810.1 2.90377
10818.2 2.78934
10825.6 2.69274
10833.0 2.60337
10840.4 2.51894
10847.8 2.44003
10862.6 2.29563
10877.4 2.16739
10892.2 2.05271
10907.0 1.94944
10921.8 1.85580
10936.5 1.77056
10955.8 1.67043
10975.0 1.58041
10994.2 1.49895
11013.4 1.42478
11032.7 1.35670
11051.9 1.29464
11071.1 1.23633
11090.3 1.18221
11108.1 1.13575
11125.8 1.09197
11143.6 1.05040
11161.3 1.01113
11196.8 0.939154
11232.3 0.874007
11263.3 0.822689
11294.4 0.776015
11325.4 0.733821
11356.5 0.696611
11372.0 0.679712
11387.5 0.664381
11403.1 0.650144
11418.6 0.637379
11434.1 0.626416
11449.6 0.616760
11465.2 0.608965
11480.7 0.602949
11498.4 0.598897
11516.2 0.597858
11532.5 0.599947
11548.7 0.605205
11565.0 0.614054
11581.3 0.626970
11597.5 0.644384
11605.7 0.655038
11613.8 0.667010
11621.9 0.680460
11630.1 0.695538
11638.2 0.712248
11646.3 0.730715
11658.9 0.763194
11671.5 0.800839
11684.0 0.844269
11696.6 0.894193
11702.9 0.921831
11709.2 0.951428
11715.5 0.982908
11721.7 1.01639
11728.0 1.05252
11734.3 1.09111
11740.6 1.13236
11746.9 1.17643
11755.0 1.23808
11763.1 1.30518
11771.3 1.37833
11779.4 1.45810
11787.5 1.54523
11795.7 1.64022
11803.8 1.74399
11811.9 1.85742
11820.1 1.98170
11828.2 2.11767
11836.3 2.26695
11844.5 2.43067
11852.6 2.61089
11860.7 2.80911
11868.9 3.02772
11877.0 3.26924
11881.1 3.39965
11885.1 3.53693
11889.2 3.68152
11893.3 3.83350
11897.3 3.99414
11901.4 4.16317
11905.5 4.34204
11909.5 4.53050
11913.6 4.73017
11917.7 4.94135
11921.7 5.16486
11925.8 5.40098
11929.9 5.65185
11933.9 5.91728
11938.0 6.19972
11942.1 6.49902
11948.3 7.00055
11954.6 7.55220
11960.9 8.16225
11964.1 8.49064
11967.2 8.83627
11970.3 9.20138
11973.5 9.58451
11976.6 9.98760
11979.8 10.4125
11982.9 10.8635
11986.1 11.3391
11989.2 11.8423
11992.3 12.3747
11996.4 13.1116
12000.5 13.9061
12004.5 14.7637
12008.6 15.6883
12012.7 16.6913
12016.7 17.7753
12020.8 18.9543
12024.9 20.2317
12028.9 21.6246
12033.0 23.1415
12037.1 24.7956
12041.1 26.5965
12045.2 28.5692
12049.3 30.7268
12053.3 33.0884
12057.4 35.6683
12061.6 38.5960
12065.8 41.8125
12070.0 45.3445
12074.2 49.2187
12078.4 53.4609
12082.6 58.0946
12086.8 63.1357
12091.0 68.5889
12093.6 72.2116
12096.3 75.9747
12101.5 83.9423
12106.8 92.3771
12112.0 101.089
12117.3 109.833
12122.5 118.320
12127.8 126.258
12130.4 129.983
12133.0 133.537
12135.0 136.144
12137.0 138.706
12138.9 141.302
12140.9 143.981
12141.9 145.393
12142.9 146.870
12143.9 148.427
12144.9 150.067
12145.8 151.843
12146.8 153.760
12147.8 155.840
12148.8 158.078
12150.3 161.806
12151.7 165.974
12153.2 170.589
12154.7 175.563
12157.6 185.783
12159.0 190.313
12159.8 192.250
12160.5 193.891
12161.2 195.135
12161.9 196.012
12162.6 196.485
12163.3 196.524
12164.0 196.110
12164.7 195.236
12165.4 193.905
12166.1 192.131
12166.8 189.941
12167.5 187.368
12168.2 184.455
12168.9 181.250
12169.6 177.801
12171.0 170.384
12172.4 162.597
12173.8 154.779
12175.2 147.185
12176.3 141.286
12177.5 135.702
12178.6 130.459
12179.8 125.603
12180.9 121.038
12182.0 116.790
12183.2 112.836
12184.3 109.181
12185.3 106.117
12186.3 103.256
12187.3 100.551
12188.3 97.9879
12189.3 95.5310
12190.3 93.2175
12191.3 91.0124
12192.3 88.9065
12193.3 86.8723
12194.3 84.9425
12196.3 81.3096
12198.3 77.9268
12200.3 74.7923
12201.8 72.5760
12203.3 70.4780
12204.8 68.4750
12206.3 66.5601
12207.8 64.7269
12209.3 62.9700
12212.3 59.6658
12215.3 56.6139
12218.2 53.7866
12221.2 51.1612
12224.2 48.7182
12226.2 47.1422
12228.3 45.6462
12230.3 44.2180
12232.3 42.8539
12236.4 40.2984
12240.5 37.9671
12244.5 35.8208
12248.6 33.8488
12252.7 32.0266
12256.7 30.3489
12259.7 29.1949
12262.7 28.1081
12265.7 27.0801
12268.6 26.1071
12271.6 25.1851
12274.6 24.3109
12277.6 23.4813
12280.6 22.6934
12286.5 21.2299
12292.5 19.9064
12298.5 18.7039
12304.4 17.6084
12311.5 16.4345
12318.5 15.3779
12325.6 14.4213
12332.6 13.5551
12339.6 12.7672
12346.7 12.0537
12353.7 11.3974
12360.8 10.7967
12366.7 10.3266
12372.7 9.88988
12378.7 9.48293
12384.6 9.10375
12390.6 8.74936
12396.6 8.41894
12402.5 8.11048
12408.5 7.82237
12414.4 7.55263
12420.4 7.30121
12426.4 7.06657
12432.3 6.84757
12438.3 6.64352
12444.2 6.45375
12450.2 6.27746
12456.2 6.11413
12464.8 5.89885
12473.5 5.70869
12482.2 5.54322
12490.9 5.40162
12499.5 5.28361
12508.2 5.18911
12516.9 5.11863
12525.5 5.07265
12534.2 5.05209
12543.4 5.05956
12552.6 5.09918
12561.9 5.17360
12571.1 5.28586
12575.7 5.35744
12580.3 5.44003
12584.9 5.53341
12589.5 5.63834
12594.1 5.75752
12598.7 5.89068
12603.3 6.03898
12607.9 6.20277
12613.9 6.44068
12619.9 6.70925
12625.8 7.01185
12631.8 7.35188
12637.7 7.73387
12643.7 8.16089
12649.7 8.63845
12655.6 9.17210
12661.6 9.76921
12667.6 10.4349
12673.5 11.1782
12679.5 12.0082
12682.5 12.4604
12685.4 12.9368
12688.4 13.4404
12691.4 13.9726
12694.4 14.5353
12697.4 15.1301
12700.3 15.7591
12703.3 16.4240
12706.3 17.1272
12709.3 17.8706
12712.3 18.6568
12715.2 19.4880
12718.2 20.3669
12721.2 21.2961
12724.2 22.2782
12727.2 23.3163
12730.1 24.4130
12733.1 25.5715
12736.1 26.7945
12739.1 28.0853
12742.1 29.4466
12745.0 30.8815
12748.0 32.3930
12751.0 33.9837
12754.4 35.8974
12757.8 37.9120
12761.2 40.0413
12764.6 42.2739
12768.0 44.6221
12771.4 47.0699
12778.2 52.2716
12785.0 57.8125
12791.7 63.5783
12798.5 69.3999
12805.3 75.0539
12808.4 77.5004
12811.5 79.8234
12814.6 82.0110
12817.7 84.0232
12820.8 85.8482
12823.8 87.4522
12826.9 88.8262
12830.0 89.9459
12834.9 91.1949
12839.9 91.7549
12843.9 91.7085
12847.9 91.2338
12851.9 90.3618
12855.9 89.1315
12860.0 87.5833
12864.0 85.7714
12868.0 83.7347
12872.0 81.5193
12880.0 76.7934
12888.0 71.8734
12896.1 66.9672
12900.1 64.5726
12904.1 62.2371
12908.4 59.7783
12912.8 57.4156
12917.1 55.1463
12921.5 52.9747
12925.8 50.9026
12930.2 48.9295
12934.5 47.0537
12938.9 45.2726
12943.2 43.5791
12947.6 41.9773
12951.9 40.4593
12956.3 39.0210
12960.6 37.6584
12965.0 36.3673
12969.3 35.1438
12973.7 33.9839
12978.1 32.8595
12982.6 31.7941
12987.0 30.7840
12991.5 29.8281
12995.9 28.9187
13000.4 28.0552
13004.8 27.2346
13009.3 26.4561
13013.7 25.7136
13018.2 25.0067
13022.6 24.3332
13027.1 23.6925
13036.0 22.4950
13044.9 21.4034
13053.8 20.4034
13062.6 19.4870
13071.5 18.6434
13080.4 17.8666
13089.3 17.1480
13098.2 16.4832
13107.1 15.8662
13116.0 15.2924
13123.3 14.8518
13130.6 14.4354
13137.8 14.0416
13145.1 13.6717
13159.7 12.9816
13174.2 12.3578
13188.8 11.7912
13203.3 11.2753
13217.9 10.8034
13232.4 10.3709
13250.2 9.88909
13268.0 9.45142
13285.8 9.05263
13303.6 8.68827
13321.4 8.35335
13339.2 8.04518
13357.0 7.76049
13374.8 7.49662
13400.6 7.14564
13426.5 6.82871
13452.4 6.54123
13478.3 6.27916
13504.1 6.03870
13530.0 5.81775
13555.9 5.61384
13581.8 5.42517
13617.3 5.18808
13652.9 4.97200
13688.5 4.77485
13724.1 4.59488
13759.7 4.42852
13795.2 4.27540
13830.8 4.13350
13866.4 4.00124
13921.4 3.81455
13976.4 3.64609
14031.3 3.49409
14086.3 3.35432
14141.3 3.22632
14196.3 3.10877
14251.3 3.00053
14306.3 2.90073
14370.9 2.79342
14435.6 2.69542
14500.3 2.60589
14565.0 2.52455
14629.7 2.45185
14694.4 2.38689
14759.1 2.32962
14823.8 2.28049
14888.4 2.24096
14953.1 2.21105
15017.8 2.19170
15082.5 2.18471
15124.6 2.18881
15166.6 2.20014
15208.7 2.21779
15250.7 2.24611
15292.7 2.28474
15334.8 2.33618
15376.8 2.40233
15418.9 2.48524
15441.5 2.53848
15464.2 2.59845
15486.8 2.66572
15509.4 2.74097
15532.1 2.82501
15554.7 2.91884
15577.4 3.02368
15600.0 3.14111
15624.3 3.28276
15648.5 3.44279
15672.8 3.62375
15697.0 3.82856
15709.2 3.93891
15721.3 4.05827
15733.4 4.18551
15745.6 4.32117
15757.7 4.46589
15769.8 4.62038
15782.0 4.78540
15794.1 4.96166
15811.9 5.24306
15829.7 5.55393
15847.4 5.89828
15865.2 6.28072
15883.0 6.70547
15900.8 7.17923
15909.7 7.43628
15918.6 7.70833
15927.5 7.99580
15936.4 8.29983
15945.3 8.62297
15954.2 8.96495
15963.1 9.32751
15972.0 9.71268
15980.9 10.1224
15989.8 10.5565
15998.7 11.0195
16007.5 11.5123
16016.4 12.0367
16025.3 12.5955
16034.2 13.1935
16043.1 13.8299
16052.0 14.5104
16060.9 15.2390
16069.8 16.0174
16078.7 16.8499
16089.2 17.9140
16099.7 19.0684
16110.2 20.3134
16120.7 21.6767
16131.3 23.1626
16141.8 24.7794
16152.3 26.5405
16162.8 28.4592
16172.6 30.3960
16182.3 32.4898
16192.1 34.7534
16201.8 37.1979
16211.6 39.8329
16221.4 42.6720
16231.1 45.7148
16240.9 48.9593
16248.3 51.5767
16255.8 54.3050
16270.7 60.0775
16285.6 66.1933
16300.5 72.4536
16315.4 78.6485
16322.9 81.6231
16330.3 84.4579
16337.8 87.1079
16345.2 89.5188
16352.7 91.6507
16360.1 93.4607
16370.1 95.3106
16380.0 96.4577
16389.9 96.8709
16398.0 96.6633
16406.1 95.9861
16414.2 94.8684
16422.2 93.3523
16430.3 91.4807
16438.4 89.3107
16446.5 86.8923
16454.5 84.2856
16486.8 72.9248
16503.0 67.1910
16519.1 61.7191
16527.9 58.8917
16536.7 56.1826
16545.4 53.6037
16554.2 51.1391
16563.0 48.8003
16571.7 46.5862
16580.5 44.4869
16589.3 42.5108
16598.0 40.6438
16606.8 38.8789
16615.6 37.2197
16624.3 35.6563
16633.1 34.1783
16641.9 32.7906
16650.6 31.4788
16659.4 30.2413
16668.6 29.0198
16677.8 27.8684
16687.0 26.7822
16696.2 25.7616
16705.4 24.7975
16714.6 23.8865
16723.8 23.0264
16733.0 22.2144
16751.4 20.7142
16769.8 19.3682
16788.2 18.1549
16806.5 17.0565
16824.9 16.0604
16843.3 15.1534
16861.7 14.3249
16880.1 13.5664
16898.5 12.8682
16916.9 12.2252
16935.3 11.6307
16953.7 11.0790
16977.1 10.4321
17000.5 9.83924
17023.9 9.29311
17047.3 8.78785
17062.4 8.48218
17077.4 8.19002
17092.5 7.91024
17107.5 7.64185
17122.6 7.38401
17137.6 7.13598
17152.7 6.89707
17167.7 6.66779
17176.9 6.53201
17186.1 6.39970
17195.3 6.27104
17204.5 6.14639
17213.7 6.02588
17222.9 5.91032
17232.1 5.80025
17241.3 5.69699
17253.0 5.57753
17258.8 5.52409
17264.7 5.47570
17270.5 5.43358
17276.4 5.39886
17282.2 5.37296
17288.1 5.35774
17291.4 5.35471
17296.0 5.35849
17300.6 5.37294
17305.2 5.40005
17309.8 5.44226
17314.4 5.50257
17319.0 5.58468
17323.6 5.69324
17328.2 5.83370
17331.4 5.95196
17334.5 6.09091
17337.6 6.25465
17340.8 6.44600
17343.9 6.67111
17347.0 6.93449
17350.2 7.24478
17353.3 7.60811
17355.6 7.91514
17357.9 8.26122
17360.2 8.65174
17362.5 9.09293
17364.8 9.59199
17367.1 10.1573
17369.4 10.7986
17370.6 11.1512
17371.7 11.5237
17372.9 11.9244
17374.0 12.3520
17375.2 12.8083
17376.3 13.2954
17377.5 13.8156
17378.6 14.3712
17379.8 14.9648
17380.9 15.5990
17382.1 16.2767
17383.2 17.0009
17384.4 17.7746
17385.5 18.6012
17386.7 19.4840
17387.8 20.4265
17389.0 21.4320
17390.1 22.4945
17391.3 23.6768
17392.5 24.9375
17393.7 26.2797
17394.9 27.7061
17396.0 29.2188
17397.2 30.8190
17398.4 32.5067
17399.6 34.2653
17400.8 36.1215
17402.0 38.0556
17404.4 42.1257
17406.7 46.3850
17409.1 50.6814
17410.5 53.1235
17411.8 55.4708
17413.2 57.7013
17414.6 59.7737
17415.9 61.6478
17417.3 63.2863
17418.6 64.6566
17420.0 65.7328
17421.2 66.4092
17422.3 66.8481
17423.5 67.0481
17424.7 67.0128
17426.0 66.7179
17427.2 66.1768
17428.5 65.4017
17429.7 64.4288
17431.0 63.2695
17432.3 61.9700
17434.8 59.0342
17437.3 55.8065
17439.9 52.4728
17442.4 49.1666
17443.6 47.5608
17444.9 45.9939
17447.1 43.3690
17449.3 40.9027
17450.4 39.7325
17451.5 38.6048
17452.6 37.5197
17453.7 36.4858
17455.9 34.5220
17458.1 32.7155
17460.3 31.0561
17462.5 29.5397
17464.7 28.1412
17466.9 26.8626
17469.1 25.6820
17471.3 24.6005
17473.5 23.5995
17475.7 22.6800
17477.8 21.8301
17480.0 21.0433
17482.4 20.2466
17484.8 19.5145
17487.2 18.8351
17489.6 18.2085
17492.0 17.6248
17494.4 17.0846
17496.8 16.5794
17499.2 16.1099
17503.6 15.3245
17508.0 14.6260
17512.4 14.0019
17516.8 13.4416
17521.1 12.9362
17525.5 12.4783
17529.9 12.0617
17534.3 11.6812
17538.7 11.3317
17543.1 11.0109
17547.5 10.7149
17551.9 10.4410
17556.3 10.1866
17560.7 9.94992
17569.4 9.52236
17577.0 9.19516
17584.6 8.90128
17592.2 8.63444
17599.8 8.39135
17607.4 8.16862
17614.9 7.96416
17622.5 7.77542
17630.1 7.60052
17638.9 7.41314
17647.7 7.24009
17665.2 6.93026
17682.8 6.66000
17700.3 6.42131
17716.3 6.22715
17732.3 6.05033
17748.2 5.88819
17764.2 5.73899
17780.2 5.60083
17796.1 5.47239
17828.1 5.23965
17866.4 4.99496
17904.7 4.77968
17943.0 4.58757
17981.3 4.41439
18016.5 4.26910
18051.6 4.13430
18086.7 4.00874
18121.8 3.89140
18192.1 3.67594
18262.3 3.48137
18319.8 3.33415
18377.3 3.19513
18434.7 3.06218
18492.2 2.93344
18549.7 2.80682
18607.2 2.67998
18664.6 2.55018
18693.4 2.48293
18722.1 2.41336
18750.8 2.34066
18779.6 2.26388
18808.3 2.18184
18837.0 2.09309
18854.6 2.03462
18872.2 1.97243
18889.7 1.90595
18907.3 1.83466
18924.9 1.75821
18933.6 1.71807
18942.4 1.67679
18951.2 1.63462
18960.0 1.59202
18968.8 1.54977
18977.5 1.50922
18985.5 1.47556
18993.5 1.44797
18997.5 1.43779
19001.5 1.43106
19005.5 1.42883
19009.5 1.43244
19011.9 1.43817
19014.3 1.44714
19016.7 1.46003
19019.1 1.47747
19021.5 1.50046
19023.8 1.52985
19026.2 1.56698
19028.6 1.61338
19030.7 1.66329
19032.8 1.72338
19034.9 1.79554
19036.0 1.83685
19037.0 1.88162
19038.1 1.93108
19039.1 1.98524
19040.2 2.04454
19041.2 2.10886
19042.3 2.17999
19043.3 2.25799
19044.4 2.34357
19045.4 2.43660
19046.5 2.54495
19047.6 2.66468
19048.7 2.79713
19049.8 2.94245
19050.9 3.10502
19052.0 3.28384
19053.1 3.48449
19054.2 3.70589
19055.3 3.95514
19056.4 4.23385
19056.9 4.38550
19057.5 4.54611
19058.0 4.71629
19058.6 4.89670
19059.1 5.08808
19059.7 5.29119
19060.2 5.50689
19060.8 5.73608
19061.3 5.97976
19061.9 6.23899
19062.4 6.51493
19063.0 6.80333
19063.5 7.08691
19064.0 7.38754
19064.5 7.70639
19065.0 8.04472
19065.5 8.40388
19066.0 8.78534
19066.5 9.19065
19066.9 9.61258
19067.4 10.0701
19067.9 10.5568
19068.4 11.0745
19068.9 11.6255
19069.4 12.2120
19069.9 12.8362
19070.4 13.5007
19070.9 14.1934
19071.5 15.0229
19072.0 15.9109
19072.6 16.8609
19073.1 17.8766
19073.7 18.9617
19074.2 20.1194
19074.8 21.3531
19075.3 22.6411
19075.9 24.0335
19076.4 25.5092
19077.0 27.0693
19077.5 28.6835
19078.1 30.4112
19078.6 32.2212
19079.2 34.1106
19079.7 36.0385
19080.7 39.6632
19081.6 43.4545
19083.6 51.2255
19084.5 55.0714
19085.5 58.7042
19086.5 62.0897
19087.0 63.6253
19087.4 65.0514
19088.1 66.7870
19088.7 68.2530
19089.4 69.4566
19090.0 70.3814
19090.7 71.0236
19091.3 71.3578
19091.8 71.4104
19092.3 71.2677
19092.9 70.9295
19093.4 70.4161
19093.9 69.7174
19094.4 68.8713
19095.5 66.7531
19096.5 64.1355
19097.6 61.1897
19098.6 57.9810
19099.7 54.6821
19100.5 51.9646
19101.4 49.2758
19102.2 46.6513
19103.1 44.1189
19103.9 41.6987
19104.8 39.4041
19105.6 37.2428
19106.5 35.2177
19107.1 33.8481
19107.7 32.5680
19108.9 30.1814
19110.1 28.0399
19111.3 26.1370
19112.5 24.4188
19113.7 22.8800
19114.9 21.4999
19116.1 20.2695
19117.3 19.1516
19118.5 18.1422
19119.8 17.2282
19121.0 16.3985
19122.2 15.6430
19123.4 14.9534
19124.6 14.3221
19125.8 13.7474
19127.0 13.2141
19128.2 12.7223
19129.4 12.2677
19130.6 11.8499
19131.8 11.4588
19133.0 11.0949
19134.3 10.7558
19135.5 10.4417
19137.9 9.86748
19140.3 9.36155
19142.7 8.91294
19145.1 8.51451
19147.5 8.15588
19150.0 7.83297
19152.4 7.54095
19154.8 7.27681
19157.2 7.03499
19159.6 6.81377
19162.1 6.61071
19164.5 6.42449
19169.3 6.09251
19174.1 5.80641
19178.1 5.60001
19182.0 5.41534
19186.0 5.24827
19189.9 5.09707
19193.9 4.95897
19197.9 4.83302
19205.8 4.61098
19210.6 4.49148
19215.4 4.38274
19225.1 4.19161
19234.8 4.02878
19244.4 3.88856
19251.9 3.79262
19259.4 3.70588
19274.3 3.55488
19289.2 3.42707
19304.2 3.31746
19323.5 3.19621
19342.8 3.09283
19362.1 3.00319
19381.5 2.92435
19416.6 2.80200
19451.8 2.69919
19486.9 2.61067
19522.0 2.53272
19553.7 2.46955
19585.3 2.41181
19648.6 2.30797
19711.8 2.21584
19775.1 2.13213
19887.5 1.99749
20000.0 1.87428
20038.7 1.83351
20149.9 1.71895
20261.2 1.60556
20372.4 1.49000
20428.0 1.43036
20483.6 1.36876
20536.8 1.30742
20590.0 1.24312
20643.2 1.17519
20696.4 1.10282
20735.1 1.04688
20773.8 0.987758
20812.5 0.925195
20851.2 0.858914
20887.5 0.793526
20905.6 0.759821
20923.8 0.725728
20941.9 0.691471
20960.0 0.657531
20978.2 0.624412
20996.3 0.593360
21012.0 0.569216
21019.9 0.558526
21027.7 0.549160
21035.6 0.541393
21043.5 0.535580
21051.3 0.532170
21059.2 0.531717
21065.5 0.533972
21071.9 0.539035
21078.2 0.547424
21084.6 0.559740
21087.7 0.567627
21090.9 0.576766
21094.1 0.587333
21097.3 0.599386
21100.4 0.613136
21103.6 0.628637
21106.8 0.646097
21110.0 0.665729
21113.3 0.688960
21116.6 0.715059
21119.9 0.744480
21123.3 0.777373
21126.6 0.814318
21129.9 0.855522
21133.2 0.901720
21136.6 0.953179
21139.9 1.01083
21143.2 1.07503
21146.5 1.14696
21149.9 1.22708
21151.5 1.27088
21153.2 1.31692
21154.8 1.36561
21156.5 1.41712
21158.2 1.47161
21159.8 1.52926
21161.5 1.59029
21163.1 1.65490
21164.8 1.72376
21166.5 1.79627
21168.1 1.87311
21169.8 1.95456
21171.5 2.04147
21173.1 2.13313
21174.8 2.23039
21176.4 2.33365
21178.1 2.44401
21179.8 2.56058
21181.4 2.68451
21183.1 2.81630
21184.8 2.95741
21186.4 3.10676
21188.1 3.26582
21189.7 3.43531
21192.0 3.68538
21194.3 3.95856
21196.6 4.25729
21198.8 4.58284
21201.1 4.94124
21203.4 5.33466
21205.6 5.76705
21207.9 6.24056
21209.6 6.62082
21211.2 7.02671
21212.9 7.46268
21214.5 7.93117
21216.2 8.43798
21217.9 8.97989
21219.5 9.56288
21221.2 10.1902
21222.9 10.8696
21224.5 11.5965
21226.2 12.3788
21227.8 13.2205
21229.5 14.1313
21231.2 15.1046
21232.8 16.1497
21234.5 17.2706
21235.7 18.1521
21236.9 19.0709
21238.2 20.0429
21239.4 21.0532
21240.6 22.1189
21241.8 23.2228
21244.3 25.5686
21246.7 28.1006
21249.2 30.7780
21251.6 33.5888
21254.1 36.4605
21256.1 38.8227
21258.0 41.1343
21260.0 43.3695
21262.0 45.4536
21264.0 47.3541
21266.0 49.0015
21268.0 50.3613
21270.0 51.3980
21272.0 52.0906
21274.0 52.4224
21275.6 52.4279
21277.3 52.2060
21278.9 51.7677
21280.5 51.1358
21282.1 50.3237
21283.8 49.3646
21285.4 48.2710
21287.0 47.0809
21290.3 44.4760
21293.5 41.7170
21296.8 38.9349
21300.0 36.2247
21301.7 34.8896
21303.3 33.5956
21305.0 32.3465
21306.6 31.1450
21308.3 29.9924
21310.0 28.8894
21311.6 27.8358
21313.3 26.8368
21316.6 24.9679
21319.9 23.2820
21323.2 21.7544
21326.5 20.3791
21329.9 19.1150
21333.3 17.9736
21336.6 16.9414
21340.0 16.0061
21343.4 15.1568
21346.8 14.3840
21350.1 13.6790
21353.5 13.0346
21356.9 12.4441
21360.2 11.9018
21363.6 11.4026
21367.0 10.9421
21370.3 10.5164
21373.7 10.1220
21377.1 9.75598
21380.5 9.41556
21385.4 8.96065
21390.3 8.54975
21395.2 8.17671
21400.1 7.83650
21405.0 7.52424
21409.9 7.23811
21414.8 6.97478
21419.7 6.73183
21426.4 6.42660
21433.2 6.15159
21439.9 5.90239
21446.6 5.67567
21453.4 5.46836
21460.1 5.27871
21466.9 5.10438
21473.6 4.94365
21480.4 4.79482
21487.1 4.65706
21500.6 4.40974
21514.1 4.19415
21527.5 4.00497
21541.0 3.83729
21554.5 3.68757
21568.0 3.55326
21581.5 3.43210
21595.0 3.32215
21608.4 3.22205
21621.9 3.13045
21635.4 3.04629
21662.4 2.89680
21689.3 2.76800
21716.3 2.65563
21743.3 2.55666
21775.1 2.45387
21807.0 2.36318
21838.9 2.28233
21870.7 2.21014
21882.4 2.18567
21894.0 2.16229
21899.8 2.15116
21902.8 2.14582
21905.7 2.14073
21908.6 2.13609
21910.0 2.13414
21911.5 2.13278
21912.2 2.13247
21912.9 2.13258
21913.7 2.13326
21914.4 2.13472
21915.1 2.13732
21915.9 2.14144
21916.6 2.14756
21917.3 2.15616
21917.9 2.16608
21918.5 2.17859
21919.0 2.18982
21919.4 2.20264
21920.3 2.23428
21921.2 2.27471
21922.1 2.32431
21922.9 2.38269
21923.8 2.44840
21925.6 2.59042
21926.2 2.64134
21926.9 2.68840
21927.5 2.72960
21928.2 2.76308
21928.8 2.78604
21929.4 2.79977
21930.0 2.80366
21930.8 2.79460
21931.4 2.77560
21932.0 2.74703
21933.0 2.68864
21933.9 2.61758
21936.6 2.39457
21937.3 2.34385
21937.9 2.29764
21938.6 2.25650
21939.3 2.22118
21940.1 2.18397
21940.9 2.15423
21941.3 2.14175
21941.8 2.13105
21942.2 2.12169
21942.6 2.11354
21943.0 2.10630
21943.4 2.10019
21943.8 2.09490
21944.2 2.09034
21944.6 2.08630
21945.1 2.08289
21945.9 2.07735
21946.7 2.07303
21947.5 2.06960
21948.4 2.06677
21949.2 2.06438
21950.8 2.06026
21952.5 2.05666
21955.8 2.05010
21959.1 2.04397
21965.7 2.03233
21974.8 2.01702
21984.0 2.00224
22002.2 1.97389
22038.7 1.92105
22111.7 1.82702
22159.6 1.77232
22207.4 1.72211
22303.1 1.63217
22398.8 1.55331
22494.5 1.48282
22595.2 1.41596
22695.9 1.35520
22796.6 1.29887
22897.3 1.24655
23040.9 1.17828
23112.6 1.14653
23148.5 1.13125
23166.5 1.12385
23175.4 1.12027
23179.9 1.11854
23184.4 1.11688
23189.4 1.11515
23192.0 1.11437
23194.5 1.11370
23196.5 1.11330
23198.6 1.11315
23199.6 1.11327
23200.6 1.11364
23201.6 1.11442
23202.1 1.11504
23202.6 1.11589
23203.2 1.11704
23203.7 1.11852
23204.2 1.12045
23204.7 1.12294
23205.2 1.12611
23205.7 1.13012
23206.2 1.13515
23206.7 1.14139
23207.3 1.14922
23207.8 1.15857
23208.3 1.16983
23208.8 1.18324
23209.3 1.19903
23209.8 1.21743
23210.3 1.23861
23210.8 1.26272
23211.5 1.29895
23212.2 1.34029
23212.8 1.38639
23213.5 1.43656
23216.2 1.65201
23216.8 1.69511
23217.4 1.73364
23218.0 1.76624
23218.5 1.79174
23219.5 1.81543
23220.0 1.81886
23220.6 1.81353
23221.2 1.80116
23221.7 1.78197
23222.3 1.75275
23222.9 1.71729
23224.1 1.63153
23224.3 1.61083
23224.6 1.58974
23225.6 1.50222
23226.7 1.41746
23227.8 1.34163
23228.8 1.27661
23229.3 1.24889
23229.9 1.22482
23230.4 1.20336
23230.9 1.18485
23231.5 1.16905
23232.0 1.15594
23232.5 1.14475
23233.0 1.13565
23233.6 1.12801
23234.1 1.12190
23234.4 1.11825
23234.8 1.11519
23235.5 1.11027
23236.3 1.10658
23237.0 1.10388
23237.7 1.10182
23238.4 1.10028
23239.1 1.09908
23239.9 1.09811
23241.3 1.09660
23242.8 1.09543
23244.2 1.09444
23245.7 1.09356
23249.1 1.09167
23252.5 1.08998
23259.4 1.08686
23266.2 1.08394
23273.1 1.08112
23286.8 1.07564
23300.5 1.07033
23327.9 1.05987
23355.2 1.04968
23439.5 1.01984
23523.8 0.992225
23608.1 0.967376
23692.4 0.946152
23717.7 0.940949
23730.4 0.938714
23736.7 0.937844
23739.9 0.937596
23741.4 0.937642
23742.2 0.937765
23743.0 0.937997
23743.9 0.938448
23744.8 0.939182
23745.7 0.940346
23746.1 0.941137
23746.5 0.942075
23747.0 0.943229
23747.4 0.944609
23747.8 0.946242
23748.3 0.948114
23749.1 0.952847
23750.0 0.959021
23750.9 0.966897
23751.8 0.976361
23752.6 0.987552
23753.5 0.999959
23755.3 1.02695
23757.0 1.05152
23757.9 1.06126
23758.8 1.06753
23759.5 1.06969
23759.9 1.06986
23760.0 1.06979
23760.0 1.06976
23760.1 1.06967
23760.1 1.06958
23760.3 1.06931
23760.5 1.06866
23761.2 1.06487
23762.3 1.05470
23763.4 1.04030
23765.9 1.00046
23767.1 0.981447
23768.4 0.965422
23769.0 0.958601
23769.6 0.952785
23770.2 0.947832
23770.9 0.943690
23771.5 0.940234
23772.1 0.937489
23772.7 0.935306
23773.3 0.933594
23774.0 0.932254
23774.6 0.931251
23775.2 0.930495
23775.8 0.929931
23776.5 0.929506
23777.1 0.929197
23778.3 0.928793
23779.6 0.928551
23780.8 0.928388
23783.3 0.928140
23789.1 0.927613
23794.9 0.927084
23806.5 0.926069
23838.4 0.924546
23870.3 0.925800
23902.1 0.931407
23918.1 0.936635
23934.0 0.944096
23950.0 0.954616
23965.9 0.969389
23981.9 0.990138
23989.8 1.00357
23997.8 1.01967
24008.7 1.04713
24014.1 1.06386
24019.5 1.08301
24025.0 1.10515
24030.4 1.13086
24035.8 1.16095
24041.3 1.19637
24045.1 1.22507
24048.9 1.25747
24052.7 1.29443
24056.5 1.33657
24060.3 1.38515
24064.1 1.44119
24067.9 1.50660
24071.7 1.58317
24073.7 1.62894
24075.7 1.67884
24077.7 1.73366
24079.7 1.79406
24081.7 1.86081
24083.7 1.93481
24085.6 2.01714
24087.6 2.10909
24089.6 2.21276
24091.6 2.32896
24093.6 2.46117
24095.6 2.61086
24096.6 2.69395
24097.6 2.78298
24098.6 2.87852
24099.6 2.98015
24100.6 3.09063
24101.6 3.20857
24102.6 3.33726
24103.6 3.47516
24104.6 3.62624
24105.6 3.79052
24106.6 3.96956
24107.6 4.16310
24108.6 4.37708
24109.6 4.60952
24110.6 4.86779
24111.6 5.14980
24112.6 5.46483
24113.5 5.81065
24114.5 6.19902
24115.5 6.62758
24116.5 7.11129
24117.0 7.37449
24117.5 7.64750
24118.0 7.94247
24118.5 8.25509
24119.0 8.58652
24119.5 8.93072
24120.0 9.30296
24120.5 9.69772
24121.0 10.1163
24121.5 10.5600
24122.0 11.0303
24122.5 11.5283
24123.0 12.0554
24123.5 12.6012
24124.0 13.1893
24124.5 13.8097
24125.0 14.4632
24125.5 15.1503
24126.0 15.8715
24126.5 16.6267
24127.5 18.2206
24128.5 19.9745
24129.5 21.8411
24130.5 23.7944
24131.5 25.7781
24133.5 29.7422
24134.6 31.5847
24135.6 33.2318
24136.1 34.0532
24136.7 34.7888
24137.2 35.4286
24137.8 35.9554
24138.3 36.3808
24138.9 36.6838
24139.5 36.8711
24140.0 36.9333
24140.5 36.8921
24140.9 36.7699
24141.4 36.5678
24141.8 36.2879
24142.3 35.9241
24142.7 35.4954
24143.6 34.4385
24144.5 33.1319
24145.4 31.6478
24146.3 30.0007
24147.2 28.2742
24148.9 24.9243
24150.6 21.6611
24151.5 20.1131
24152.3 18.6422
24153.1 17.2583
24154.0 15.9675
24154.8 14.7314
24155.7 13.5972
24156.6 12.5619
24157.5 11.6207
24158.3 10.7675
24159.2 9.99573
24160.1 9.29835
24160.9 8.66850
24161.8 8.09953
24162.7 7.58521
24163.5 7.11978
24164.4 6.69800
24165.3 6.31514
24166.2 5.96696
24167.0 5.64972
24167.9 5.36008
24168.5 5.16290
24169.2 4.98081
24169.8 4.80970
24170.4 4.64875
24171.7 4.35211
24173.0 4.09020
24174.2 3.85432
24175.5 3.64441
24176.8 3.45394
24178.0 3.28326
24178.9 3.17483
24179.8 3.07336
24181.5 2.88902
24183.2 2.72627
24185.0 2.58189
24186.7 2.45322
24188.5 2.33807
24190.2 2.23461
24191.9 2.14131
24194.2 2.03502
24196.4 1.94137
24198.6 1.85772
24200.8 1.78334
24203.0 1.71632
24205.2 1.65623
24207.4 1.60188
24209.6 1.55257
24213.1 1.48367
24216.6 1.42385
24220.1 1.37158
24223.6 1.32563
24227.0 1.28502
24230.5 1.24894
24234.0 1.21674
24237.5 1.18788
24243.5 1.14467
24249.5 1.10827
24255.5 1.07722
24261.5 1.05052
24267.5 1.02740
24273.5 1.00724
24279.6 0.989549
24285.6 0.973954
24295.0 0.952749
24304.5 0.934961
24314.0 0.919885
24323.5 0.907042
24342.5 0.886187
24361.5 0.870182
24389.3 0.852693
24417.1 0.840062
24445.0 0.830762
24472.8 0.823907
24523.4 0.815947
24574.0 0.812292
24624.6 0.812135
24675.2 0.815052
24730.9 0.821694
24786.6 0.831693
24842.2 0.845348
24897.9 0.863098
24953.6 0.884839
25009.2 0.911467
25064.9 0.943246
25120.6 0.980497
25176.2 1.02463
25204.1 1.04899
25231.9 1.07565
25287.6 1.13477
25315.4 1.16782
25343.3 1.20350
25371.1 1.24131
25398.9 1.28201
25454.6 1.37292
25482.4 1.42293
25510.3 1.47732
25538.1 1.53504
25565.9 1.59643
25611.5 1.70760
25657.0 1.83231
25679.8 1.89982
25702.6 1.97202
25725.3 2.04706
25748.1 2.12848
25770.9 2.21265
25793.7 2.30390
25816.4 2.39901
25839.2 2.50067
25862.0 2.60708
25884.8 2.72114
25907.5 2.84221
25930.3 2.97080
25958.1 3.13913
25986.0 3.32018
26013.8 3.51544
26041.6 3.72627
26069.5 3.95357
26097.3 4.19938
26125.1 4.46526
26153.0 4.75254
26180.8 5.06438
26208.6 5.40187
26236.5 5.76822
26264.3 6.16646
26292.2 6.59871
26320.0 7.06950
26347.8 7.58217
26375.6 8.14024
26403.5 8.75050
26431.3 9.41565
26459.2 10.1428
26487.0 10.9388
26514.8 11.8083
26542.7 12.7614
26570.5 13.8050
26598.3 14.9466
26626.0 16.1934
26653.7 17.5557
26681.4 19.0458
26709.1 20.6768
26736.8 22.4546
26764.5 24.3936
26792.2 26.5037
26819.9 28.7923
26834.8 30.1116
26849.8 31.4823
26864.8 32.9199
26879.7 34.4224
26894.7 35.9955
26909.7 37.6439
26924.7 39.3786
26939.6 41.2145
26948.4 42.3416
26957.1 43.5153
26965.8 44.7448
26974.6 46.0358
26983.3 47.4088
26992.0 48.8753
27000.8 50.4569
27009.5 52.1800
27016.2 53.6233
27022.9 55.1862
27029.6 56.8921
27036.4 58.7660
27043.1 60.8355
27049.8 63.1300
27056.5 65.6774
27063.2 68.5020
27069.8 71.5827
27076.5 74.9428
27089.7 82.2390
27096.3 85.9441
27099.7 87.7349
27103.0 89.4365
27106.3 91.0271
27109.6 92.4662
27112.9 93.7302
27116.2 94.7944
27120.0 95.7400
27123.1 96.2917
27126.3 96.6278
27129.4 96.7521
27132.5 96.6719
27135.7 96.3890
27138.9 95.9226
27142.1 95.2940
27145.4 94.5277
27151.8 92.6870
27158.2 90.5899
27164.6 88.3800
27171.0 86.1759
27177.5 84.0509
27183.9 82.0502
27190.0 80.2720
27196.2 78.6366
27202.3 77.1349
27208.5 75.7631
27214.6 74.5021
27220.8 73.3429
27226.9 72.2727
27233.0 71.2806
27242.9 69.8288
27252.7 68.5127
27262.5 67.3014
27272.4 66.1702
27282.2 65.0994
27292.0 64.0741
27301.8 63.0834
27311.7 62.1156
27321.5 61.1648
27331.3 60.2264
27351.0 58.3737
27370.7 56.5402
27390.3 54.7195
27410.0 52.9120
27429.6 51.1218
27449.3 49.3582
27468.9 47.6210
27501.7 44.8102
27534.5 42.1237
27567.2 39.5736
27600.0 37.1740
27627.9 35.2588
27655.7 33.4547
27683.6 31.7603
27711.4 30.1733
27739.3 28.6857
27767.1 27.2957
27795.0 25.9964
27822.8 24.7813
27855.7 23.4483
27888.6 22.2166
27921.5 21.0785
27954.4 20.0267
27987.4 19.0518
28020.3 18.1575
28053.2 17.3155
28086.1 16.5344
28113.9 15.9219
28141.8 15.3414
28169.6 14.7899
28197.5 14.2758
28253.2 13.3247
28308.9 12.4772
28364.6 11.7100
28420.3 11.0208
28476.0 10.3960
28531.7 9.82563
28587.4 9.30823
28643.1 8.83268
28698.8 8.39579
28754.4 7.99482
28810.1 7.62246
28865.8 7.27856
28921.5 6.95883
28977.2 6.65999
29068.4 6.21373
29159.5 5.81156
29250.6 5.44650
29341.8 5.11352
29422.8 4.84111
29503.8 4.58822
29584.8 4.35314
29665.8 4.13576
29711.4 4.02185
29757.0 3.91509
29802.5 3.81733
29848.1 3.73203
29870.9 3.69606
29893.7 3.66616
29916.5 3.64425
29939.3 3.63309
29959.5 3.63544
29979.8 3.65371
30000.0 3.69372
30010.1 3.72501
30020.3 3.76573
30034.2 3.84114
30041.2 3.88916
30048.1 3.94556
30055.1 4.01180
30062.0 4.08938
30069.0 4.18039
30076.0 4.28729
30081.7 4.38877
30087.4 4.50471
30093.1 4.63790
30098.7 4.79074
30104.4 4.96708
30110.1 5.17026
30115.8 5.40630
30121.5 5.68104
30125.0 5.87216
30128.5 6.08227
30132.0 6.31425
30135.5 6.57083
30138.9 6.85514
30142.4 7.17078
30145.9 7.52186
30149.4 7.91313
30152.9 8.35136
30156.3 8.84032
30159.8 9.38834
30163.3 10.0036
30166.8 10.6954
30168.5 11.0733
30170.3 11.4742
30172.0 11.8998
30173.7 12.3516
30175.5 12.8312
30177.2 13.3403
30178.9 13.8646
30180.6 14.4165
30182.3 15.0041
30184.0 15.6221
30185.7 16.2792
30187.3 16.9690
30189.0 17.6965
30190.7 18.4627
30192.4 19.2731
30194.1 20.1186
30197.4 21.9278
30200.8 23.8925
30204.2 25.9801
30210.6 30.2069
30213.9 32.3018
30217.1 34.2834
30220.3 36.0609
30221.9 36.8463
30223.5 37.5418
30225.2 38.1461
30226.8 38.6431
30228.4 39.0317
30230.0 39.3022
30232.4 39.4837
30234.3 39.4442
30236.2 39.2410
30238.1 38.8822
30240.0 38.3789
30241.9 37.7454
30243.8 36.9977
30245.7 36.1534
30247.6 35.2302
30251.5 33.2172
30255.3 31.0870
30259.1 28.9431
30262.9 26.8664
30265.7 25.3891
30268.6 23.9917
30271.4 22.6762
30274.2 21.4454
30277.1 20.2956
30279.9 19.2325
30282.7 18.2483
30285.6 17.3386
30288.3 16.5214
30291.1 15.7680
30293.8 15.0707
30296.5 14.4251
30299.3 13.8250
30302.0 13.2708
30304.8 12.7567
30307.5 12.2791
30311.5 11.6430
30315.5 11.0698
30319.5 10.5518
30323.5 10.0824
30327.5 9.65552
30331.4 9.26631
30335.4 8.91066
30339.4 8.58571
30344.9 8.18049
30350.4 7.81927
30355.9 7.49471
30361.4 7.20295
30366.8 6.93869
30372.3 6.69931
30377.8 6.48091
30383.3 6.28171
30388.8 6.09877
30394.3 5.93087
30399.8 5.77576
30405.2 5.63259
30416.2 5.37627
30427.2 5.15420
30438.1 4.95972
30449.1 4.78765
30460.1 4.63460
30471.1 4.49756
30482.0 4.37405
30493.0 4.26211
30504.0 4.16009
30514.9 4.06664
30527.9 3.96570
30540.9 3.87374
30566.8 3.71165
30592.7 3.57315
30618.6 3.45210
30640.6 3.36078
30662.5 3.27776
30706.4 3.13166
30750.3 3.00602
30794.2 2.89585
30862.0 2.74894
30929.8 2.62292
30997.6 2.51386
31065.4 2.41937
31109.3 2.36553
31153.2 2.31702
31197.1 2.27409
31240.9 2.23715
31284.8 2.20610
31328.7 2.18198
31372.6 2.16525
31416.5 2.15654
31460.3 2.15772
31504.2 2.16939
31548.1 2.19365
31592.0 2.23316
31613.9 2.25880
31635.9 2.28934
31657.8 2.32569
31679.7 2.36700
31701.7 2.41437
31723.6 2.46959
31745.6 2.53163
31767.5 2.60128
31791.4 2.68895
31815.4 2.78682
31839.3 2.89958
31863.2 3.02733
31887.2 3.17222
31911.1 3.33600
31935.0 3.52144
31959.0 3.73085
31980.9 3.94691
32002.9 4.18854
32024.8 4.45896
32046.7 4.76179
32068.7 5.10065
32079.6 5.28521
32090.6 5.48038
32101.6 5.68694
32112.6 5.90583
32123.5 6.13740
32134.5 6.38244
32145.5 6.64216
32156.4 6.91706
32167.4 7.20788
32178.4 7.51608
32189.3 7.84241
32200.3 8.18752
32211.3 8.55304
32222.3 8.94007
32233.2 9.34912
32244.2 9.78192
32255.2 10.2399
32266.1 10.7235
32277.1 11.2343
32288.1 11.7740
32299.0 12.3429
32310.0 12.9426
32322.9 13.6901
32335.8 14.4808
32348.7 15.3165
32361.6 16.2009
32374.5 17.1326
32387.4 18.1095
32400.2 19.1334
32413.1 20.2013
32438.9 22.4515
32464.7 24.8219
32490.5 27.2484
32516.3 29.6437
32539.7 31.7037
32563.1 33.5616
32574.9 34.3902
32586.6 35.1344
32598.3 35.7871
32610.0 36.3465
32624.1 36.8768
32638.1 37.2525
32652.2 37.4761
32666.3 37.5460
32680.3 37.4645
32694.4 37.2449
32708.4 36.9016
32722.5 36.4440
32736.6 35.8849
32750.6 35.2432
32778.8 33.7697
32806.9 32.1221
32835.0 30.4098
32863.1 28.6889
32891.3 27.0106
32912.3 25.8021
32933.4 24.6450
32954.4 23.5439
32975.4 22.5020
32996.5 21.5184
33017.5 20.5933
33038.6 19.7243
33059.6 18.9096
33082.1 18.0969
33104.5 17.3392
33127.0 16.6329
33149.4 15.9739
33171.8 15.3592
33194.3 14.7851
33216.7 14.2524
33239.2 13.7494
33280.3 12.9125
33321.4 12.1663
33362.6 11.5003
33403.7 10.9058
33444.9 10.3690
33486.0 9.88632
33527.2 9.44938
33568.3 9.05142
33609.4 8.69013
33650.6 8.35922
33691.7 8.05592
33732.9 7.77792
33774.0 7.52093
33815.2 7.28423
33856.3 7.06522
33897.4 6.86171
33976.0 6.51432
34054.5 6.20887
34133.1 5.94241
34211.6 5.70614
34290.2 5.49730
34368.7 5.31442
34447.3 5.15203
34525.8 5.00855
34630.5 4.84624
34735.2 4.71269
34840.0 4.60594
34944.7 4.52575
35004.5 4.49228
35064.4 4.46787
35124.2 4.45285
35184.1 4.44769
35266.4 4.45878
35348.6 4.49079
35430.9 4.54761
35513.2 4.63478
35554.4 4.68939
35595.5 4.75360
35677.8 4.91527
35718.9 5.01224
35760.1 5.12649
35801.2 5.25388
35842.4 5.39546
35883.5 5.55926
35924.6 5.74467
35965.8 5.95489
36006.9 6.19416
36048.1 6.46468
36089.2 6.77346
36130.4 7.12535
36171.5 7.52603
36208.9 7.94259
36227.6 8.17022
36246.3 8.41501
36265.0 8.67311
36283.7 8.95068
36321.1 9.56181
36339.8 9.90247
36358.5 10.2642
36377.2 10.6513
36395.9 11.0707
36414.6 11.5152
36433.3 11.9964
36452.0 12.5073
36470.7 13.0628
36491.3 13.7240
36511.9 14.4418
36532.4 15.2221
36553.0 16.0712
36573.6 16.9955
36594.1 18.0024
36614.7 19.0995
36635.3 20.2947
36657.8 21.7227
36680.2 23.2878
36702.7 25.0024
36725.1 26.8734
36747.6 28.9138
36770.1 31.1165
36792.5 33.4829
36815.0 36.0047
36843.1 39.3468
36871.3 42.7767
36899.4 46.2193
36927.5 49.4847
36941.6 50.9858
36955.6 52.3588
36969.7 53.5800
36983.8 54.6202
36997.8 55.4496
37011.9 56.0503
37025.9 56.4327
37040.0 56.5419
37054.1 56.3846
37068.1 55.9565
37082.2 55.3139
37096.3 54.4487
37110.3 53.3783
37124.4 52.1350
37138.4 50.7472
37152.5 49.2400
37180.6 45.9788
37208.8 42.5644
37236.9 39.1682
37265.0 35.8675
37294.5 32.6252
37309.3 31.1027
37324.0 29.6482
37338.8 28.2654
37353.6 26.9567
37368.3 25.7093
37383.1 24.5299
37397.8 23.4190
37412.6 22.3651
37427.4 21.3741
37442.1 20.4407
37456.9 19.5570
37471.6 18.7282
37486.4 17.9463
37501.2 17.2074
37527.1 16.0157
37553.0 14.9419
37578.9 13.9736
37604.8 13.0996
37630.7 12.3105
37656.6 11.5982
37682.5 10.9564
37708.4 10.3797
37725.6 10.0293
37742.9 9.70210
37760.2 9.40283
37777.4 9.12895
37794.7 8.88033
37812.0 8.65788
37829.2 8.46305
37846.5 8.29826
37859.4 8.19636
37872.4 8.11536
37885.3 8.05788
37898.3 8.02683
37914.1 8.03427
37922.0 8.06001
37930.0 8.10292
37937.9 8.16560
37945.8 8.25093
37953.7 8.36267
37961.6 8.50541
37967.7 8.64065
37973.8 8.80070
37980.0 8.98986
37986.1 9.21190
37992.2 9.47265
37998.3 9.77773
38004.4 10.1368
38010.5 10.5585
38014.5 10.8710
38018.4 11.2185
38022.4 11.6055
38026.4 12.0356
38030.3 12.5167
38034.3 13.0526
38038.2 13.6534
38042.2 14.3243
38046.1 15.0778
38050.1 15.9228
38054.1 16.8706
38058.0 17.9309
38062.0 19.1218
38065.9 20.4541
38069.9 21.9399
38073.8 23.5852
38076.0 24.5793
38078.3 25.6268
38082.7 27.8778
38087.1 30.3178
38091.5 32.9007
38100.4 38.1550
38104.8 40.5723
38107.0 41.6591
38109.2 42.6318
38111.9 43.6505
38114.6 44.4369
38117.3 44.9697
38120.0 45.2264
38122.7 45.2008
38124.9 44.9730
38127.1 44.5666
38129.3 43.9925
38131.5 43.2655
38133.7 42.4028
38135.9 41.4237
38140.3 39.2034
38144.7 36.7539
38149.1 34.2207
38153.5 31.7144
38157.9 29.3186
38160.8 27.7932
38163.8 26.3466
38166.7 24.9833
38169.7 23.7090
38172.6 22.5144
38175.6 21.4051
38178.5 20.3700
38181.5 19.4119
38185.2 18.2809
38189.0 17.2541
38192.8 16.3220
38196.6 15.4752
38200.4 14.7045
38204.1 14.0020
38207.9 13.3606
38211.7 12.7739
38217.3 12.0003
38222.8 11.3187
38228.3 10.7132
38233.9 10.1751
38239.4 9.69309
38245.0 9.26107
38250.5 8.87090
38256.1 8.51843
38261.6 8.19767
38267.2 7.90577
38272.7 7.63826
38278.2 7.39318
38283.8 7.16713
38289.3 6.95880
38294.9 6.76568
38300.4 6.58689
38311.5 6.26444
38322.6 5.98153
38333.7 5.73158
38344.8 5.50900
38355.9 5.30930
38367.0 5.12890
38378.1 4.96491
38389.1 4.81510
38407.3 4.59514
38425.4 4.40190
38443.6 4.22904
38461.7 4.07331
38479.9 3.93189
38498.0 3.80262
38516.2 3.68370
38534.3 3.57377
38564.6 3.40720
38594.8 3.25812
38625.1 3.12431
38655.3 3.00149
38685.5 2.88902
38715.8 2.78565
38746.0 2.69024
38776.3 2.60200
38820.6 2.48435
38865.0 2.37863
38909.4 2.28404
38953.7 2.20011
38998.1 2.12557
39042.4 2.06083
39086.8 2.00553
39131.1 1.95954
39171.5 1.92657
39211.8 1.90215
39252.1 1.88654
39292.4 1.88066
39334.8 1.88631
39356.0 1.89354
39377.1 1.90474
39419.5 1.93727
39461.8 1.98671
39483.0 2.01794
39504.2 2.05484
39525.3 2.09636
39546.5 2.14371
39567.7 2.19803
39588.8 2.25805
39610.0 2.32548
39631.2 2.40014
39653.4 2.48831
39675.5 2.58663
39697.7 2.69605
39719.9 2.81766
39742.1 2.95255
39764.3 3.10209
39786.4 3.26771
39808.6 3.45099
39830.8 3.65385
39853.0 3.87819
39875.2 4.12634
39897.3 4.40088
39919.5 4.70450
39941.7 5.04054
39963.9 5.41245
39986.1 5.82391
40008.2 6.27988
40019.3 6.52583
40030.4 6.78480
40041.5 7.05740
40052.6 7.34418
40063.7 7.64613
40074.8 7.96403
40085.9 8.29846
40097.0 8.65046
40108.0 9.02105
40119.1 9.41080
40130.2 9.82080
40141.3 10.2523
40152.4 10.7058
40163.5 11.1820
40176.3 11.7643
40189.2 12.3806
40202.0 13.0322
40214.8 13.7201
40227.7 14.4477
40240.5 15.2158
40253.4 16.0217
40266.2 16.8675
40279.0 17.7567
40291.9 18.6851
40304.7 19.6549
40317.5 20.6637
40343.2 22.7901
40368.9 25.0378
40414.2 29.1626
40436.8 31.2068
40459.4 33.1612
40482.1 34.9594
40504.7 36.5337
40516.0 37.2153
40527.4 37.8210
40538.7 38.3374
40550.0 38.7703
40570.2 39.3050
40590.4 39.5364
40606.8 39.5030
40623.2 39.2814
40639.6 38.8877
40656.0 38.3392
40672.4 37.6536
40688.8 36.8524
40705.2 35.9574
40721.6 34.9788
40754.4 32.9248
40787.2 30.7904
40820.0 28.6913
40852.8 26.7121
40877.6 25.3403
40902.4 24.1091
40914.9 23.5685
40927.3 23.0916
40939.7 22.6952
40952.1 22.4059
40959.5 22.2991
40966.9 22.2578
40972.1 22.2798
40977.4 22.3543
40982.6 22.4919
40987.9 22.7068
40993.1 23.0169
40998.4 23.4469
41003.6 24.0295
41006.3 24.3897
41008.9 24.8042
41012.1 25.4014
41015.3 26.1030
41018.6 26.9256
41021.8 27.8846
41025.0 28.9945
41028.3 30.2666
41031.5 31.7055
41034.7 33.3042
41047.4 40.3096
41050.5 41.8536
41052.1 42.5195
41053.7 43.0952
41055.3 43.5677
41056.8 43.9257
41058.4 44.1602
41060.0 44.2652
41061.8 44.2228
41063.6 44.0078
41065.4 43.6266
41067.2 43.0943
41069.0 42.4206
41070.8 41.6317
41074.5 39.7755
41081.7 35.5330
41085.3 33.4210
41088.9 31.4308
41091.5 30.0935
41094.1 28.8506
41096.7 27.7037
41099.3 26.6546
41101.9 25.6906
41104.5 24.8130
41107.2 24.0084
41109.8 23.2761
41112.2 22.6333
41114.7 22.0421
41119.7 20.9963
41124.7 20.0989
41129.7 19.3255
41134.6 18.6502
41139.6 18.0578
41144.6 17.5324
41149.5 17.0628
41155.2 16.5822
41160.9 16.1523
41166.6 15.7622
41172.3 15.4065
41183.7 14.7770
41195.0 14.2335
41206.4 13.7557
41217.8 13.3298
41229.1 12.9405
41240.5 12.5836
41253.8 12.2006
41267.0 11.8482
41293.5 11.2160
41320.1 10.6604
41346.6 10.1658
41373.1 9.72546
41399.6 9.32333
41426.2 8.95942
41452.7 8.63061
41475.4 8.37508
41498.2 8.14152
41520.9 7.92786
41543.6 7.73494
41566.4 7.56359
41589.1 7.41240
41611.9 7.28025
41634.6 7.16877
41657.3 7.08003
41680.1 7.01363
41702.8 6.96918
41725.5 6.94941
41748.3 6.95796
41771.0 6.99161
41793.8 7.05974
41816.5 7.16238
41839.2 7.30335
41862.0 7.48657
41884.7 7.71718
41907.4 8.00036
41928.7 8.31925
41950.0 8.69571
41971.3 9.13628
41982.0 9.38273
41992.6 9.64795
42003.3 9.93276
42013.9 10.2381
42024.6 10.5652
42035.2 10.9150
42045.9 11.2882
42056.5 11.6868
42077.8 12.5613
42090.8 13.1452
42103.7 13.7698
42116.6 14.4366
42129.6 15.1467
42142.5 15.9004
42155.4 16.6950
42168.4 17.5313
42181.3 18.4067
42207.2 20.2591
42233.0 22.2123
42258.9 24.2072
42284.8 26.1629
42303.6 27.5090
42322.4 28.7471
42341.2 29.8417
42360.0 30.7613
42378.8 31.4820
42397.6 31.9878
42416.4 32.2743
42435.3 32.3463
42449.4 32.2666
42463.5 32.0825
42477.6 31.8047
42491.7 31.4425
42519.9 30.5106
42548.1 29.3770
42576.4 28.1193
42604.6 26.8202
42632.8 25.5075
42661.0 24.2239
42685.5 23.1519
42709.9 22.1278
42734.4 21.1567
42758.9 20.2414
42783.3 19.3809
42807.8 18.5749
42832.3 17.8206
42856.7 17.1158
42881.2 16.4571
42905.7 15.8417
42930.1 15.2664
42954.6 14.7287
42979.1 14.2250
43003.5 13.7534
43028.0 13.3109
43052.5 12.8954
43092.5 12.2682
43132.5 11.7019
43172.6 11.1846
43212.6 10.7120
43252.6 10.2785
43292.7 9.87995
43332.7 9.51256
43372.7 9.17308
43421.7 8.79224
43470.6 8.44259
43519.5 8.12115
43568.5 7.82534
43617.4 7.55059
43666.3 7.29597
43715.2 7.05875
43764.2 6.83664
43839.8 6.52096
43915.4 6.23384
43991.0 5.97266
44066.7 5.73065
44142.3 5.50709
44217.9 5.29970
44293.5 5.10660
44369.1 4.92618
44458.1 4.72869
44547.1 4.54456
44636.0 4.37199
44725.0 4.21007
44814.0 4.05851
44902.9 3.91563
45080.9 3.65299
45178.7 3.52162
45276.6 3.39827
45374.4 3.28329
45472.3 3.17739
45570.2 3.08001
45668.0 2.99323
45765.9 2.91787
45863.7 2.85523
45970.5 2.80720
46023.9 2.79058
46077.3 2.78186
46126.2 2.78126
46175.1 2.78820
46224.1 2.80408
46273.0 2.83059
46321.9 2.86862
46370.9 2.92105
46419.8 2.98992
46468.7 3.07759
46508.8 3.16667
46548.8 3.27363
46588.8 3.40118
46608.8 3.47276
46628.9 3.55242
46648.9 3.63716
46668.9 3.73124
46688.9 3.83202
46708.9 3.94215
46728.9 4.05995
46749.0 4.18967
46769.0 4.33071
46789.0 4.48386
46813.5 4.68932
46837.9 4.91660
46862.4 5.16838
46886.8 5.44724
46911.3 5.75627
46935.8 6.09884
46960.2 6.47894
46984.7 6.90040
47009.2 7.36858
47033.6 7.88798
47058.1 8.46494
47082.6 9.10536
47107.0 9.81610
47131.5 10.6042
47143.7 11.0297
47156.0 11.4774
47180.4 12.4422
47196.1 13.1122
47211.8 13.8246
47227.4 14.5827
47243.1 15.3834
47258.7 16.2298
47274.4 17.1234
47290.1 18.0625
47305.7 19.0452
47321.4 20.0715
47337.0 21.1373
47368.4 23.3771
47399.7 25.6686
47431.0 27.9711
47463.3 30.2233
47479.4 31.2635
47495.5 32.2223
47511.6 33.0808
47527.8 33.8233
47543.9 34.4404
47560.0 34.9185
47581.5 35.3257
47603.0 35.4662
47620.5 35.3866
47637.9 35.1423
47655.4 34.7478
47672.9 34.2184
47690.4 33.5703
47707.8 32.8217
47725.3 31.9917
47742.8 31.0895
47777.7 29.1994
47812.6 27.2339
47847.6 25.2870
47882.5 23.4153
47910.3 22.0047
47938.0 20.6734
47965.8 19.4245
47993.6 18.2589
48021.3 17.1734
48049.1 16.1653
48076.8 15.2295
48104.6 14.3608
48132.2 13.5597
48159.8 12.8148
48187.3 12.1214
48214.9 11.4752
48242.5 10.8716
48270.1 10.3070
48297.7 9.77780
48325.2 9.28067
48365.3 8.60863
48405.5 7.99032
48445.6 7.41849
48485.7 6.88755
48513.3 6.54354
48540.8 6.21500
48568.4 5.90082
48596.0 5.60011
48623.6 5.31195
48651.2 5.03596
48678.7 4.77180
48706.3 4.51945
48731.4 4.30066
48756.5 4.09269
48781.5 3.89641
48806.6 3.71338
48831.7 3.54576
48856.8 3.39658
48881.8 3.26953
48894.4 3.21537
48906.9 3.16972
48927.0 3.11572
48937.0 3.09880
48947.0 3.08959
48960.8 3.09112
48974.6 3.11152
48988.4 3.15393
48995.3 3.18455
49002.2 3.22208
49009.1 3.26721
49016.0 3.32045
49022.9 3.38265
49029.8 3.45438
49036.7 3.53670
49043.5 3.63023
49050.4 3.73605
49057.3 3.85476
49064.2 3.98827
49071.1 4.13789
49078.0 4.30534
49084.9 4.49153
49091.8 4.69868
49098.7 4.92805
49105.6 5.18232
49112.5 5.46297
49119.4 5.77320
49126.3 6.11470
49133.2 6.49127
49140.1 6.90480
49147.0 7.35971
49153.9 7.85810
49160.8 8.40501
49167.7 9.00262
49174.1 9.60720
49180.5 10.2626
49186.9 10.9721
49193.3 11.7387
49199.7 12.5656
49206.1 13.4556
49212.5 14.4112
49218.8 15.4335
49224.7 16.4282
49230.5 17.4795
49236.4 18.5859
49242.2 19.7443
49248.0 20.9566
49253.9 22.2152
49265.5 24.8577
49277.2 27.6161
49288.9 30.4037
49300.6 33.1201
49312.2 35.6500
49321.1 37.3802
49330.0 38.8886
49335.6 39.7036
49341.1 40.4085
49346.7 41.0001
49352.3 41.4754
49357.8 41.8342
49363.4 42.0767
49368.9 42.2065
49374.5 42.2286
49381.1 42.1223
49387.8 41.8839
49394.4 41.5266
49401.0 41.0660
49414.3 39.8882
49427.6 38.4606
49440.9 36.9069
49454.1 35.2809
49467.4 33.6432
49480.7 32.0399
49492.0 30.7162
49503.3 29.4485
49514.7 28.2409
49526.0 27.0982
49537.3 26.0192
49548.7 25.0045
49560.0 24.0504
49571.3 23.1556
49582.7 22.3155
49594.0 21.5282
49605.3 20.7889
49616.7 20.0955
49628.0 19.4437
49639.3 18.8315
49662.0 17.7125
49679.5 16.9338
49697.1 16.2214
49714.6 15.5693
49732.1 14.9671
49749.6 14.4109
49767.1 13.8960
49784.6 13.4183
49802.2 12.9741
49824.8 12.4427
49847.5 11.9553
49870.2 11.5064
49892.8 11.0914
49915.5 10.7063
49938.2 10.3477
49960.9 10.0128
49983.5 9.69893
50000.0 9.48287
50026.7 9.15236
50053.3 8.84305
50106.7 8.27882
50160.0 7.77405
50213.3 7.31665
50276.3 6.82456
50339.3 6.37188
50402.4 5.94898
50465.4 5.54751
50538.1 5.10260
50610.8 4.66816
50683.5 4.23612
50756.2 3.80030
50804.7 3.50585
50853.2 3.20914
50901.7 2.91431
50950.2 2.63179
50976.8 2.48964
50990.2 2.42471
51003.5 2.36541
51016.8 2.31329
51030.1 2.27027
51043.5 2.23877
51056.8 2.22184
51066.5 2.22085
51075.0 2.22937
51083.5 2.24809
51092.0 2.27848
51100.4 2.32242
51108.9 2.38278
51113.2 2.41988
51117.4 2.46207
51121.6 2.50973
51125.9 2.56331
51130.1 2.62327
51134.4 2.69015
51141.0 2.81069
51147.7 2.95193
51151.0 3.03147
51154.4 3.11705
51157.7 3.20931
51161.0 3.30867
51164.4 3.41593
51167.7 3.53092
51171.0 3.65448
51174.4 3.78715
51177.7 3.92996
51181.0 4.08268
51184.4 4.24639
51187.7 4.42177
51191.0 4.61016
51194.4 4.81121
51197.7 5.02630
51201.0 5.25631
51204.4 5.50291
51207.7 5.76560
51211.0 6.04612
51214.3 6.34551
51217.7 6.66588
51221.0 7.00646
51224.3 7.36934
51227.7 7.75572
51231.0 8.16806
51234.3 8.60512
51237.7 9.06935
51241.0 9.56207
51245.7 10.3003
51250.3 11.0984
51254.9 11.9609
51259.6 12.8904
51264.2 13.8891
51268.9 14.9581
51273.5 16.0973
51278.1 17.3048
51282.0 18.3617
51285.9 19.4613
51293.6 21.7711
51301.3 24.1997
51309.1 26.6822
51316.8 29.1497
51324.5 31.5084
51332.3 33.6698
51336.1 34.6503
51340.0 35.5477
51343.9 36.3605
51347.8 37.0752
51351.6 37.6891
51355.5 38.1990
51359.4 38.6044
51363.2 38.9038
51367.1 39.1004
51371.0 39.1979
51375.7 39.1899
51380.4 39.0528
51385.2 38.7986
51389.9 38.4417
51394.6 37.9940
51399.3 37.4710
51408.8 36.2528
51418.2 34.8921
51427.7 33.4542
51437.1 31.9952
51446.6 30.5607
51456.8 29.0576
51467.1 27.6358
51477.4 26.3029
51487.6 25.0649
51497.9 23.9182
51508.2 22.8611
51518.4 21.8871
51528.7 20.9900
51539.0 20.1630
51549.2 19.4014
51559.5 18.6979
51569.7 18.0486
51580.0 17.4471
51590.3 16.8900
51600.5 16.3723
51610.8 15.8912
51631.3 15.0241
51651.9 14.2664
51672.4 13.5991
51692.9 13.0092
51713.4 12.4831
51734.0 12.0105
51754.5 11.5847
51775.0 11.1991
51795.5 10.8481
51816.1 10.5274
51836.6 10.2331
51857.1 9.96209
51898.2 9.47907
51939.2 9.06117
51980.3 8.69530
52021.3 8.37190
52060.5 8.09666
52099.7 7.84698
52138.9 7.62026
52178.1 7.41251
52217.3 7.22134
52256.5 7.04487
52334.8 6.72762
52394.6 6.51269
52454.3 6.31659
52514.0 6.13646
52573.7 5.96976
52693.1 5.66873
52812.6 5.40192
52961.9 5.10419
53111.2 4.83435
53260.4 4.58499
53409.7 4.34865
53581.4 4.08632
53753.1 3.82668
53924.8 3.56220
54096.5 3.28501
54178.6 3.14508
54260.7 2.99887
54342.8 2.84516
54424.9 2.68265
54507.0 2.51016
54589.1 2.32704
54671.2 2.13394
54753.3 1.93447
54798.1 1.82634
54842.9 1.72294
54865.3 1.67472
54887.7 1.63021
54910.1 1.59080
54932.5 1.55833
54954.9 1.53518
54966.1 1.52806
54977.3 1.52453
54990.3 1.52570
55003.4 1.53355
55016.5 1.54911
55029.5 1.57360
55042.6 1.60952
55049.1 1.63227
55055.6 1.65859
55062.2 1.68877
55068.7 1.72317
55075.2 1.76217
55081.8 1.80619
55092.0 1.88667
55097.2 1.93256
55102.3 1.98260
55107.4 2.03720
55112.6 2.09646
55117.7 2.16085
55122.8 2.23072
55128.0 2.30663
55133.1 2.38871
55138.2 2.47758
55143.4 2.57373
55148.5 2.67770
55153.6 2.79006
55158.7 2.91144
55163.9 3.04250
55170.4 3.22474
55176.9 3.42502
55183.5 3.64522
55190.0 3.88735
55196.5 4.15386
55203.1 4.44710
55209.6 4.76941
55216.1 5.12335
55221.3 5.42604
55226.4 5.75089
55231.5 6.10001
55236.7 6.47499
55241.8 6.87749
55246.9 7.30922
55252.0 7.77191
55257.2 8.26731
55263.7 8.94683
55270.2 9.68530
55276.7 10.4859
55283.3 11.3517
55289.8 12.2853
55296.3 13.2874
55302.8 14.3567
55309.3 15.4894
55314.4 16.4111
55319.4 17.3661
55329.5 19.3674
55339.6 21.4600
55349.7 23.5870
55359.8 25.6855
55369.8 27.6744
55379.9 29.4779
55385.0 30.2849
55390.0 31.0182
55395.1 31.6725
55400.1 32.2395
55405.1 32.7177
55410.2 33.1030
55415.2 33.3963
55420.3 33.5975
55425.3 33.7097
55430.4 33.7365
55436.5 33.6608
55442.6 33.4761
55448.8 33.1934
55454.9 32.8258
55467.2 31.8809
55479.5 30.7383
55491.8 29.4918
55504.1 28.1916
55516.4 26.8871
55528.7 25.6150
55541.8 24.3133
55554.9 23.0876
55568.0 21.9437
55581.1 20.8830
55594.3 19.9038
55607.4 19.0019
55620.5 18.1722
55633.6 17.4093
55646.8 16.7071
55659.9 16.0612
55673.0 15.4660
55686.1 14.9167
55699.2 14.4091
55712.4 13.9392
55725.5 13.5035
55738.6 13.0987
55751.7 12.7218
55764.8 12.3708
55791.1 11.7366
55817.3 11.1801
55843.6 10.6886
55867.4 10.2906
55891.3 9.93079
55915.1 9.60429
55939.0 9.30733
55962.9 9.03600
55986.7 8.78726
56010.6 8.55839
56034.4 8.34724
56060.7 8.13295
56086.9 7.93546
56139.4 7.58342
56191.9 7.27875
56244.4 7.01241
56287.3 6.81797
56330.3 6.64214
56373.2 6.48111
56416.1 6.33329
56502.0 6.07086
56587.9 5.84474
56692.9 5.60679
56797.8 5.40140
56902.8 5.22132
57007.8 5.06145
57108.0 4.92453
57208.2 4.79919
57408.6 4.57778
57609.0 4.38517
57809.4 4.21321
58076.6 4.00704
58343.8 3.81775
58544.2 3.68249
58744.6 3.54963
58945.0 3.41633
59145.4 3.27924
59250.3 3.20445
59355.3 3.12662
59460.3 3.04474
59565.3 2.95746
59632.1 2.89828
59698.9 2.83573
59765.7 2.76893
59832.5 2.69708
59884.9 2.63644
59937.4 2.57153
59989.9 2.50188
60042.4 2.42729
60087.7 2.35938
60133.1 2.29023
60155.7 2.25661
60178.4 2.22522
60201.0 2.19836
60223.7 2.17990
60233.2 2.17608
60248.8 2.17719
60264.3 2.19120
60272.0 2.20509
60279.8 2.22492
60287.5 2.25207
60295.3 2.28830
60301.5 2.32576
60307.8 2.37199
60314.1 2.42882
60320.3 2.49845
60326.6 2.58373
60332.9 2.68770
60336.0 2.74798
60339.1 2.81460
60342.2 2.88825
60345.4 2.96972
60348.7 3.06447
60351.9 3.16996
60355.2 3.28746
60358.5 3.41841
60361.8 3.56444
60365.1 3.72737
60368.3 3.90926
60371.6 4.11244
60374.9 4.33950
60378.2 4.59335
60381.5 4.87721
60384.7 5.19460
60388.0 5.54937
60391.3 5.94562
60394.6 6.38765
60397.9 6.87982
60399.7 7.18282
60401.6 7.50225
60403.4 7.84223
60405.3 8.19967
60407.1 8.57890
60409.0 8.97614
60410.8 9.39353
60412.7 9.83099
60416.4 10.7672
60420.1 11.7734
60423.8 12.8428
60427.5 13.9504
60433.1 15.6528
60435.9 16.4777
60438.8 17.2630
60441.6 17.9933
60444.4 18.6459
60447.2 19.2078
60450.0 19.6658
60452.1 19.9364
60454.2 20.1389
60456.4 20.2739
60458.5 20.3404
60460.6 20.3406
60462.7 20.2771
60464.8 20.1534
60466.9 19.9752
60469.0 19.7464
60471.2 19.4749
60475.4 18.8234
60479.6 18.0687
60483.8 17.2544
60492.3 15.5857
60499.2 14.2765
60502.7 13.6625
60506.2 13.0824
60509.7 12.5343
60513.1 12.0214
60516.6 11.5415
60520.1 11.0933
60523.5 10.6787
60527.0 10.2932
60530.4 9.93370
60533.8 9.59843
60537.3 9.28475
60540.7 8.99281
60544.1 8.72008
60547.5 8.46509
60552.2 8.14330
60556.9 7.84882
60561.6 7.57880
60566.3 7.33065
60570.9 7.10202
60575.6 6.89085
60580.3 6.69540
60585.0 6.51413
60591.9 6.27096
60598.7 6.05178
60605.6 5.85340
60612.5 5.67339
60619.3 5.50896
60626.2 5.35866
60633.1 5.22042
60639.9 5.09322
60653.6 4.86649
60667.4 4.67062
60681.1 4.49965
60694.8 4.34920
60708.6 4.21547
60722.3 4.09544
60736.0 3.98710
60749.8 3.88869
60777.2 3.71599
60804.7 3.56845
60837.1 3.41817
60869.6 3.28742
60902.0 3.17141
60934.5 3.06622
60994.4 2.89268
61054.3 2.73717
61119.2 2.58093
61184.1 2.43202
61249.1 2.28723
61314.0 2.14547
61356.4 2.05544
61398.8 1.96957
61441.3 1.89143
61462.5 1.85730
61483.7 1.82812
61508.7 1.80252
61521.2 1.79441
61533.6 1.79026
61547.4 1.79122
61561.1 1.79923
61574.8 1.81586
61588.6 1.84310
61602.3 1.88341
61609.2 1.90940
61616.0 1.93980
61622.9 1.97521
61629.8 2.01606
61636.6 2.06301
61643.5 2.11658
61650.4 2.17786
61657.2 2.24774
61664.1 2.32739
61671.0 2.41763
61677.8 2.52000
61684.7 2.63560
61691.6 2.76639
61698.4 2.91379
61705.3 3.08026
61712.2 3.26758
61719.0 3.47881
61725.9 3.71614
61729.3 3.84605
61732.8 3.98336
61736.2 4.12889
61739.6 4.28308
61743.0 4.44641
61746.5 4.61935
61749.9 4.80241
61753.3 4.99610
61759.2 5.35183
61765.0 5.74177
61770.8 6.16912
61776.7 6.63664
61782.5 7.14709
61788.3 7.70292
61794.2 8.30572
61800.0 8.95601
61804.6 9.50126
61809.2 10.0741
61813.7 10.6761
61818.3 11.3033
61827.5 12.6284
61836.7 14.0220
61845.8 15.4428
61855.0 16.8375
61864.2 18.1442
61868.8 18.7451
61873.3 19.2993
61880.0 20.0103
61884.2 20.3915
61888.3 20.7195
61892.5 20.9921
61896.7 21.2082
61900.9 21.3676
61905.0 21.4709
61909.2 21.5199
61913.4 21.5168
61918.3 21.4505
61923.2 21.3218
61928.1 21.1373
61933.0 20.9035
61942.9 20.3155
61952.7 19.6131
61972.4 18.0483
61992.0 16.4610
62006.7 15.3496
62021.4 14.3281
62036.0 13.4036
62050.7 12.5746
62058.7 12.1597
62066.7 11.7698
62082.7 11.0596
62098.7 10.4323
62114.6 9.87739
62129.3 9.42219
62144.0 9.01225
62158.6 8.64200
62173.3 8.30645
62187.9 8.00128
62202.6 7.72281
62217.3 7.46784
62231.9 7.23376
62246.6 7.01790
62261.2 6.81835
62290.6 6.46131
62319.9 6.15096
62349.2 5.87841
62373.2 5.67849
62397.2 5.49666
62421.2 5.32938
62445.1 5.17491
62493.1 4.89781
62541.1 4.65455
62599.7 4.39126
62658.4 4.15517
62717.0 3.93788
62775.6 3.73298
62796.9 3.66045
62860.9 3.44613
62924.9 3.23245
62988.8 3.01505
63020.8 2.90428
63052.8 2.79252
63084.8 2.68106
63116.8 2.57296
63148.8 2.47526
63164.7 2.43426
63180.7 2.40214
63191.4 2.38798
63202.1 2.38174
63209.4 2.38328
63216.7 2.39073
63224.1 2.40535
63231.4 2.42869
63238.7 2.46267
63246.0 2.50966
63253.4 2.57264
63257.0 2.61120
63260.7 2.65521
63265.7 2.72525
63270.7 2.80838
63275.7 2.90668
63280.7 3.02241
63285.7 3.15911
63288.2 3.23637
63290.7 3.32023
63293.2 3.41127
63295.7 3.51007
63298.2 3.61729
63300.7 3.73316
63304.3 3.92208
63308.0 4.13449
63311.7 4.37464
63315.3 4.64474
63319.0 4.95022
63320.8 5.11688
63322.7 5.29387
63324.5 5.48181
63326.3 5.68139
63328.2 5.89330
63330.0 6.11826
63331.9 6.36781
63333.8 6.63189
63335.7 6.91420
63337.6 7.21273
63339.5 7.53159
63341.4 7.86842
63343.3 8.22580
63345.2 8.60469
63347.1 9.00816
63349.0 9.43286
63350.9 9.88404
63352.8 10.3577
63354.7 10.8593
63356.6 11.3840
63358.5 11.9345
63360.4 12.5108
63362.5 13.1772
63364.6 13.8702
63368.8 15.3384
63373.0 16.9017
63377.2 18.5203
63381.4 20.1564
63385.6 21.7459
63389.7 23.2322
63391.8 23.9128
63393.9 24.5423
63397.0 25.3517
63400.0 26.0183
63402.3 26.4171
63404.6 26.7215
63406.9 26.9320
63409.1 27.0469
63411.4 27.0690
63413.7 27.0019
63416.0 26.8509
63418.3 26.6227
63420.6 26.3232
63422.8 25.9629
63427.4 25.0906
63432.0 24.0686
63436.5 22.9618
63445.7 20.6747
63452.8 18.9644
63456.3 18.1567
63459.9 17.3887
63463.4 16.6581
63467.0 15.9677
63470.5 15.3173
63474.0 14.7072
63477.8 14.0934
63481.6 13.5200
63485.4 12.9844
63489.2 12.4842
63493.0 12.0167
63496.8 11.5797
63500.6 11.1705
63504.4 10.7880
63511.4 10.1441
63518.4 9.56887
63525.3 9.05114
63532.3 8.58420
63539.3 8.15966
63546.2 7.77271
63553.2 7.41714
63560.2 7.08961
63566.5 6.81203
63572.8 6.55216
63579.2 6.30740
63585.5 6.07592
63592.5 5.83443
63599.4 5.60545
63613.3 5.17716
63627.3 4.77989
63641.2 4.40508
63655.1 4.04653
63669.1 3.70084
63683.0 3.36893
63690.0 3.21039
63696.9 3.05998
63705.2 2.89764
63709.3 2.82594
63713.4 2.76327
63717.5 2.71200
63721.6 2.67586
63723.7 2.66477
63725.7 2.65927
63727.8 2.66017
63729.9 2.66833
63732.2 2.68832
63734.6 2.72128
63737.0 2.76976
63739.4 2.83604
63740.5 2.87706
63741.7 2.92384
63742.9 2.97688
63744.1 3.03617
63745.3 3.10328
63746.5 3.17837
63747.7 3.26211
63748.9 3.35440
63750.6 3.50894
63752.3 3.68791
63754.1 3.89430
63754.9 4.00881
63755.8 4.13145
63756.7 4.26268
63757.6 4.40300
63758.4 4.55290
63759.3 4.71293
63760.2 4.88363
63761.0 5.06556
63761.9 5.25931
63762.8 5.46547
63763.6 5.66653
63764.4 5.87636
63765.2 6.09786
63765.9 6.33150
63766.7 6.58096
63767.5 6.84046
63768.3 7.11349
63769.1 7.40049
63770.7 8.02217
63772.3 8.70075
63773.9 9.44734
63775.5 10.2543
63777.0 11.1325
63778.6 12.0765
63780.2 13.0843
63781.8 14.1451
63783.4 15.2666
63785.0 16.4346
63788.2 18.8609
63791.1 21.1752
63794.1 23.4179
63795.6 24.4812
63797.0 25.4877
63798.5 26.4244
63800.0 27.2798
63801.3 27.9461
63802.6 28.5343
63803.8 29.0455
63805.1 29.4769
63806.4 29.8268
63807.6 30.0948
63808.9 30.2816
63810.2 30.3892
63811.6 30.4193
63813.0 30.3604
63814.4 30.2180
63815.8 30.0015
63817.3 29.7160
63818.7 29.3737
63821.5 28.5428
63824.3 27.5731
63827.2 26.5212
63832.8 24.3515
63838.0 22.4308
63840.6 21.5342
63843.2 20.6909
63845.8 19.8963
63848.4 19.1564
63851.1 18.4637
63853.7 17.8214
63856.3 17.2217
63858.9 16.6639
63861.5 16.1451
63864.1 15.6640
63869.3 14.7942
63874.5 14.0370
63877.6 13.6330
63880.7 13.2597
63886.8 12.5903
63893.0 12.0082
63899.2 11.4982
63904.4 11.1132
63909.6 10.7658
63914.8 10.4497
63920.0 10.1622
63925.2 9.89853
63930.5 9.65682
63940.9 9.22763
63951.3 8.85858
63961.7 8.53772
63972.2 8.25607
63982.6 8.00673
63991.6 7.81329
64000.6 7.63715
64018.6 7.32751
64036.6 7.06379
64054.7 6.83613
64075.5 6.60800
64096.4 6.41022
64117.2 6.23672
64138.1 6.08300
64174.1 5.85472
64210.2 5.66218
64246.2 5.49717
64282.2 5.35371
64323.9 5.20874
64365.6 5.08186
64407.4 4.96951
64449.1 4.86904
64528.7 4.70329
64608.4 4.56336
64688.0 4.44289
64767.6 4.33736
64881.4 4.20657
64995.2 4.09386
65109.0 3.99433
65222.7 3.90544
65419.9 3.77043
65617.1 3.65314
65814.4 3.54895
66011.6 3.45367
66254.3 3.34640
66497.0 3.24684
66982.4 3.06217
67316.2 2.94104
67649.9 2.82086
67983.6 2.69885
68317.4 2.57223
68575.2 2.46919
68833.1 2.35994
69091.0 2.24291
69348.9 2.11576
69515.8 2.02703
69682.6 1.93253
69849.5 1.83174
70016.4 1.72424
70160.5 1.62598
70304.6 1.52357
70448.7 1.41883
70592.8 1.31594
70676.3 1.26047
70759.7 1.21148
70801.4 1.19073
70843.1 1.17354
70884.8 1.16083
70926.5 1.15377
70956.9 1.15312
70987.2 1.15702
71017.6 1.16632
71047.9 1.18205
71078.2 1.20514
71093.4 1.21988
71108.6 1.23728
71123.8 1.25739
71138.9 1.28045
71154.1 1.30673
71169.3 1.33650
71190.1 1.38382
71211.0 1.43937
71231.8 1.50424
71252.7 1.57968
71273.6 1.66710
71284.0 1.71581
71294.4 1.76813
71304.8 1.82432
71315.3 1.88463
71325.7 1.94932
71336.1 2.01863
71346.6 2.09300
71357.0 2.17270
71367.4 2.25809
71377.8 2.34954
71388.3 2.44747
71398.7 2.55231
71409.1 2.66453
71419.6 2.78461
71430.0 2.91309
71440.4 3.05052
71450.9 3.19750
71461.3 3.35466
71471.7 3.52267
71482.1 3.70224
71492.6 3.89410
71503.0 4.09885
71511.5 4.27589
71520.0 4.46238
71528.4 4.65899
71536.9 4.86622
71545.4 5.08455
71553.9 5.31451
71562.4 5.55661
71570.8 5.81138
71579.3 6.07957
71587.8 6.36079
71596.3 6.65571
71604.8 6.96559
71613.3 7.29121
71621.7 7.63271
71630.2 7.99033
71638.7 8.36445
71649.3 8.85680
71659.9 9.37638
71670.5 9.92480
71681.2 10.4984
71691.8 11.0981
71702.4 11.7229
71723.6 13.0452
71744.8 14.4515
71766.1 15.9165
71808.5 18.8830
71826.4 20.0772
71844.3 21.1935
71862.1 22.2029
71880.0 23.0773
71891.2 23.5459
71902.4 23.9491
71913.5 24.2845
71924.7 24.5504
71935.9 24.7472
71947.0 24.8752
71958.2 24.9367
71969.4 24.9349
71983.2 24.8505
71997.1 24.6831
72010.9 24.4426
72024.7 24.1388
72052.4 23.3788
72080.1 22.4713
72135.4 20.5004
72190.8 18.5347
72227.9 17.3079
72265.0 16.1807
72302.1 15.1566
72339.2 14.2346
72373.3 13.4692
72407.3 12.7750
72441.3 12.1453
72475.3 11.5739
72509.4 11.0535
72543.4 10.5795
72577.4 10.1462
72611.4 9.74894
72645.5 9.38396
72679.5 9.04757
72713.5 8.73653
72747.5 8.44839
72781.6 8.18029
72815.6 7.93044
72883.6 7.47746
72951.7 7.07657
73019.7 6.71736
73087.8 6.39136
73155.8 6.09151
73180.6 5.98772
73248.6 5.71385
73316.7 5.45285
73384.7 5.20049
73418.7 5.07673
73452.8 4.95469
73486.8 4.83513
73520.8 4.72065
73554.8 4.61667
73571.9 4.57200
73588.9 4.53543
73613.6 4.50633
73628.3 4.51052
73643.0 4.54008
73650.4 4.56803
73657.7 4.60733
73665.0 4.66079
73672.4 4.73176
73680.9 4.84193
73685.1 4.91068
73689.4 4.99030
73693.7 5.08258
73697.9 5.18890
73702.2 5.31155
73706.4 5.45293
73710.7 5.61625
73714.9 5.80392
73719.2 6.02050
73723.4 6.26912
73727.7 6.55564
73731.9 6.88389
73736.2 7.26011
73740.4 7.69025
73742.6 7.93145
73744.7 8.18767
73746.9 8.46072
73749.0 8.75126
73751.2 9.05986
73753.3 9.38701
73757.6 10.0981
73762.0 10.8865
73766.3 11.7448
73770.6 12.6649
73774.9 13.6307
73781.1 15.0747
73787.4 16.4649
73790.6 17.1038
73793.7 17.6827
73796.9 18.1898
73800.0 18.6134
73803.2 18.9453
73806.3 19.1786
73809.5 19.3111
73812.6 19.3446
73815.2 19.3019
73817.7 19.2007
73820.3 19.0461
73822.9 18.8448
73828.0 18.3242
73833.1 17.6894
73843.4 16.2548
73853.7 14.8160
73858.2 14.2239
73862.6 13.6648
73867.1 13.1400
73871.6 12.6501
73876.1 12.1937
73880.6 11.7714
73885.0 11.3803
73889.5 11.0184
73894.0 10.6828
73898.5 10.3728
73903.0 10.0855
73907.5 9.81912
73916.4 9.34162
73925.4 8.92747
73932.3 8.64385
73939.2 8.38770
73946.2 8.15539
73953.1 7.94402
73960.0 7.75039
73966.9 7.57295
73980.8 7.25851
73989.8 7.07926
73998.7 6.91622
74016.6 6.62973
74034.6 6.38559
74052.5 6.17444
74066.4 6.02925
74080.2 5.89661
74107.9 5.66171
74135.6 5.45817
74163.3 5.27764
74199.2 5.06867
74235.0 4.87945
74270.9 4.70353
74306.7 4.53640
74358.9 4.30225
74385.0 4.18724
74411.0 4.07327
74437.1 3.96057
74463.2 3.85026
74489.3 3.74545
74515.3 3.65173
74538.1 3.58744
74549.6 3.56577
74561.0 3.55433
74568.7 3.55416
74576.4 3.56174
74584.2 3.57886
74591.9 3.60768
74599.7 3.65089
74607.4 3.71175
74615.1 3.79447
74622.9 3.90451
74627.4 3.98348
74631.9 4.07518
74636.3 4.18150
74640.8 4.30438
74645.3 4.44603
74649.8 4.60896
74654.3 4.79599
74658.7 5.01025
74663.5 5.27342
74668.3 5.57641
74670.7 5.74479
74673.1 5.92435
74675.5 6.11645
74677.9 6.32179
74680.3 6.54200
74682.7 6.77595
74685.1 7.02626
74687.5 7.29149
74689.9 7.57448
74692.3 7.87339
74694.6 8.18986
74697.0 8.52425
74699.8 8.94066
74702.6 9.38073
74705.4 9.84569
74708.2 10.3350
74711.0 10.8474
74713.8 11.3816
74719.4 12.5054
74725.1 13.6835
74730.7 14.8768
74736.3 16.0439
74741.9 17.1362
74745.9 17.8571
74750.0 18.4941
74752.6 18.8450
74755.1 19.1555
74757.7 19.4235
74760.2 19.6467
74762.7 19.8265
74765.3 19.9617
74767.8 20.0532
74770.4 20.1021
74773.5 20.1070
74776.7 20.0549
74779.8 19.9508
74782.9 19.8003
74789.2 19.3831
74795.4 18.8516
74801.7 18.2464
74808.0 17.6037
74820.5 16.3003
74827.8 15.5729
74835.1 14.8858
74842.4 14.2455
74849.7 13.6544
74856.9 13.1103
74864.2 12.6115
74878.8 11.7104
74884.1 11.3454
74886.8 11.1231
74889.4 10.8602
74892.1 10.5505
74894.7 10.1957
74900.0 10.6919
74900.0 7.79375
80000.0 7.51684
85000.0 7.28138
90000.0 7.04608
95000.0 6.84819
100000 6.65042
106250 6.48529
112500 6.32030
118750 6.15542
125000 5.99063
131250 5.82594
137500 5.66131
143750 5.49676
150000 5.33226
156410 5.23556
162820 5.13894
162824 5.13888
162825 5.13887
162825 5.13887
163406 5.13076
163986 5.12263
165148 5.10630
166310 5.08988
167472 5.07337
169795 5.04007
172119 5.00642
174442 4.97243
176765 4.93811
181412 4.86850
186059 4.79765
190706 4.72563
195353 4.65249
200000 4.57829
212500 4.45655
225000 4.33459
237500 4.21242
250000 4.09007
262500 4.00591
275000 3.92159
287500 3.83712
300000 3.75252
312500 3.69206
325000 3.63157
350000 3.51048
375000 3.42214
400000 3.33370
425000 3.26893
450000 3.20392
475000 3.15673
500000 3.10936
525000 3.07584
550000 3.04198
600000 2.99604
650000 2.96730
700000 2.95251
750000 2.94910
800000 2.95503
850000 2.96858
900000 2.98835
950000 3.01311
1.00000E+06 3.04184
1.10000E+06 3.10768
1.20000E+06 3.17998
1.25000E+06 3.21714
1.27900E+06 3.23869
1.28094E+06 3.24013
1.28094E+06 3.24013
1.28571E+06 3.24369
1.29047E+06 3.24723
1.30000E+06 3.25429
1.31250E+06 3.26369
1.32500E+06 3.27301
1.33750E+06 3.28225
1.35000E+06 3.29141
1.37500E+06 3.30951
1.40000E+06 3.32731
1.43760E+06 3.35371
1.47520E+06 3.37949
1.47523E+06 3.37951
1.47523E+06 3.37951
1.47833E+06 3.38168
1.48142E+06 3.38385
1.48762E+06 3.38816
1.50000E+06 3.39670
1.54160E+06 3.42358
1.58320E+06 3.45012
1.58740E+06 3.45282
1.59160E+06 3.45552
1.60000E+06 3.46090
1.61250E+06 3.46839
1.62500E+06 3.47581
1.65000E+06 3.49045
1.67500E+06 3.50483
1.70000E+06 3.51897
1.70588E+06 3.52200
1.71140E+06 3.52487
1.71691E+06 3.52773
1.72794E+06 3.53343
1.73897E+06 3.53909
1.75000E+06 3.54471
1.80000E+06 3.57046
1.83260E+06 3.58507
1.83264E+06 3.58509
1.83264E+06 3.58509
1.83265E+06 3.58509
1.83659E+06 3.58687
1.84054E+06 3.58865
1.84843E+06 3.59219
1.86421E+06 3.59924
1.86868E+06 3.60126
1.87316E+06 3.60328
1.88211E+06 3.60730
1.90000E+06 3.61528
1.92500E+06 3.62505
1.95000E+06 3.63469
1.97500E+06 3.64420
2.00000E+06 3.65358
2.05237E+06 3.66523
2.10474E+06 3.67662
2.15710E+06 3.68777
2.20947E+06 3.69868
2.20950E+06 3.69869
2.21325E+06 3.69949
2.21784E+06 3.70051
2.22244E+06 3.70152
2.23163E+06 3.70351
2.25000E+06 3.70741
2.30804E+06 3.71991
2.30804E+06 3.71991
2.31284E+06 3.72096
2.31764E+06 3.72201
2.32725E+06 3.72408
2.34645E+06 3.72818
2.35244E+06 3.72949
2.35843E+06 3.73080
2.37041E+06 3.73339
2.39436E+06 3.73849
2.39970E+06 3.73965
2.40503E+06 3.74080
2.41570E+06 3.74309
2.41571E+06 3.74309
2.42098E+06 3.74423
2.42625E+06 3.74538
2.43680E+06 3.74766
2.45789E+06 3.75218
2.45789E+06 3.75217
2.46290E+06 3.75326
2.46790E+06 3.75433
2.46790E+06 3.75433
2.46821E+06 3.75439
2.47616E+06 3.75613
2.48411E+06 3.75785
2.50000E+06 3.76124
2.52568E+06 3.76189
2.55135E+06 3.76246
2.57703E+06 3.76295
2.60270E+06 3.76335
2.63935E+06 3.76463
2.67600E+06 3.76575
2.71265E+06 3.76672
2.74930E+06 3.76754
2.82260E+06 3.76875
2.89590E+06 3.76940
2.94795E+06 3.77061
3.00000E+06 3.77154
3.12060E+06 3.76131
3.24120E+06 3.75136
3.37060E+06 3.74041
3.50000E+06 3.72970
3.58850E+06 3.71765
3.68988E+06 3.70367
3.79125E+06 3.68981
3.89263E+06 3.67606
3.99400E+06 3.66242
4.00000E+06 3.66160
4.12500E+06 3.64084
4.25000E+06 3.62044
4.37500E+06 3.60036
4.50000E+06 3.58059
4.62500E+06 3.55842
4.75000E+06 3.53653
4.87500E+06 3.51489
5.00000E+06 3.49351
5.25000E+06 3.44857
5.37500E+06 3.42626
5.50000E+06 3.40404
5.62500E+06 3.38144
5.75000E+06 3.35893
5.87500E+06 3.33651
6.00000E+06 3.31416
6.25000E+06 3.26948
6.50000E+06 3.22487
6.75000E+06 3.18068
6.87500E+06 3.15860
7.00000E+06 3.13654
7.25000E+06 3.09290
7.50000E+06 3.04934
7.75000E+06 3.00640
8.00000E+06 2.96353
8.20617E+06 2.92891
8.41233E+06 2.89439
8.47800E+06 2.88339
8.50000E+06 2.87971
8.75000E+06 2.83916
9.00000E+06 2.79875
9.06575E+06 2.78862
9.14752E+06 2.77583
9.32376E+06 2.74837
9.50000E+06 2.72113
9.75000E+06 2.68515
1.00000E+07 2.64959
1.02500E+07 2.61503
1.05000E+07 2.58148
1.06847E+07 2.55949
1.08302E+07 2.54242
1.09756E+07 2.52567
1.10000E+07 2.52288
1.12188E+07 2.49789
1.15000E+07 2.46693
1.17500E+07 2.44340
1.20000E+07 2.42101
1.22500E+07 2.39858
1.25000E+07 2.37717
1.27500E+07 2.35884
1.30000E+07 2.34146
1.32500E+07 2.32417
1.35000E+07 2.30755
1.37500E+07 2.29313
1.40000E+07 2.27934
1.42500E+07 2.26586
1.45000E+07 2.25275
1.47500E+07 2.24123
1.50000E+07 2.23004
1.52500E+07 2.21940
1.55000E+07 2.20894
1.57500E+07 2.19974
1.60000E+07 2.19071
1.62500E+07 2.18240
1.65000E+07 2.17417
1.67500E+07 2.16711
1.70000E+07 2.16013
1.72500E+07 2.15398
1.75000E+07 2.14791
1.77500E+07 2.14291
1.80000E+07 2.13798
1.82500E+07 2.13395
1.85000E+07 2.12999
1.87500E+07 2.12702
1.90000E+07 2.12411
1.95000E+07 2.12017
1.97500E+07 2.11912
2.00000E+07 2.11813
