V-50(n,tot) ENDFB-8.0
Energy(eV) XS(b)
1.00000E-05 2309.71
1.03125E-05 2274.45
1.06250E-05 2240.77
1.09375E-05 2208.54
1.12500E-05 2177.66
1.15625E-05 2148.04
1.18750E-05 2119.60
1.21875E-05 2092.26
1.25000E-05 2065.95
1.28125E-05 2040.61
1.31250E-05 2016.18
1.34375E-05 1992.61
1.37500E-05 1969.85
1.43750E-05 1926.57
1.50000E-05 1886.03
1.56250E-05 1847.94
1.62500E-05 1812.08
1.68750E-05 1778.22
1.75000E-05 1746.20
1.81250E-05 1715.84
1.87500E-05 1687.02
1.93750E-05 1659.61
2.00000E-05 1633.49
2.09375E-05 1596.52
2.18750E-05 1561.96
2.28125E-05 1529.56
2.37500E-05 1499.09
2.46875E-05 1470.37
2.56250E-05 1443.25
2.65625E-05 1417.57
2.75000E-05 1393.22
2.84375E-05 1370.09
2.93750E-05 1348.07
3.03125E-05 1327.08
3.12500E-05 1307.04
3.21875E-05 1287.89
3.31250E-05 1269.55
3.40625E-05 1251.98
3.50000E-05 1235.12
3.59375E-05 1218.92
3.68750E-05 1203.34
3.78125E-05 1188.35
3.87500E-05 1173.91
3.96875E-05 1159.98
4.06250E-05 1146.53
4.25000E-05 1120.99
4.43750E-05 1097.09
4.62500E-05 1074.65
4.81250E-05 1053.54
5.00000E-05 1033.63
5.15625E-05 1017.88
5.31250E-05 1002.82
5.46875E-05 988.420
5.62500E-05 974.621
5.78125E-05 961.386
5.93750E-05 948.677
6.09375E-05 936.460
6.25000E-05 924.704
6.40625E-05 913.381
6.56250E-05 902.466
6.71875E-05 891.934
6.87500E-05 881.763
7.18750E-05 862.426
7.50000E-05 844.312
7.81250E-05 827.296
8.12500E-05 811.273
8.43750E-05 796.149
8.75000E-05 781.843
9.06250E-05 768.285
9.37500E-05 755.411
9.68750E-05 743.165
0.000100000 731.499
0.000103125 720.368
0.000106250 709.731
0.000109375 699.555
0.000112500 689.806
0.000115625 680.455
0.000118750 671.477
0.000121875 662.846
0.000125000 654.542
0.000128125 646.543
0.000131250 638.832
0.000134375 631.393
0.000137500 624.208
0.000143750 610.550
0.000150000 597.755
0.000156250 585.737
0.000162500 574.421
0.000168750 563.740
0.000175000 553.637
0.000181250 544.062
0.000187500 534.971
0.000193750 526.325
0.000200000 518.087
0.000209375 506.431
0.000218750 495.533
0.000228125 485.316
0.000237500 475.711
0.000246875 466.660
0.000256250 458.111
0.000265625 450.020
0.000275000 442.347
0.000284375 435.057
0.000293750 428.120
0.000303125 421.509
0.000312500 415.197
0.000321875 409.165
0.000331250 403.391
0.000340625 397.857
0.000350000 392.548
0.000359375 387.449
0.000368750 382.546
0.000378125 377.827
0.000387500 373.280
0.000396875 368.897
0.000406250 364.666
0.000425000 356.630
0.000443750 349.110
0.000462500 342.054
0.000481250 335.415
0.000500000 329.155
0.000515625 324.202
0.000531250 319.470
0.000546875 314.942
0.000562500 310.606
0.000578125 306.447
0.000593750 302.454
0.000609375 298.616
0.000625000 294.923
0.000640625 291.367
0.000656250 287.939
0.000671875 284.632
0.000687500 281.438
0.000718750 275.368
0.000750000 269.683
0.000781250 264.343
0.000812500 259.316
0.000843750 254.572
0.000875000 250.085
0.000906250 245.834
0.000937500 241.797
0.000968750 237.959
0.00100000 234.302
0.00103125 230.814
0.00106250 227.481
0.00109375 224.293
0.00112500 221.239
0.00115625 218.310
0.00118750 215.498
0.00121875 212.796
0.00125000 210.196
0.00128125 207.692
0.00131250 205.278
0.00134375 202.949
0.00137500 200.701
0.00143750 196.427
0.00150000 192.424
0.00156250 188.665
0.00162500 185.125
0.00168750 181.785
0.00175000 178.626
0.00181250 175.633
0.00187500 172.791
0.00193750 170.089
0.00200000 167.514
0.00209375 163.872
0.00218750 160.467
0.00228125 157.275
0.00237500 154.274
0.00246875 151.447
0.00256250 148.777
0.00265625 146.250
0.00275000 143.854
0.00284375 141.578
0.00293750 139.412
0.00303125 137.347
0.00312500 135.377
0.00321875 133.493
0.00331250 131.691
0.00340625 129.963
0.00350000 128.306
0.00359375 126.714
0.00368750 125.183
0.00378125 123.710
0.00387500 122.291
0.00396875 120.922
0.00406250 119.602
0.00425000 117.093
0.00443750 114.745
0.00462500 112.542
0.00481250 110.470
0.00500000 108.515
0.00515625 106.969
0.00531250 105.491
0.00546875 104.078
0.00562500 102.724
0.00578125 101.425
0.00593750 100.178
0.00609375 98.9793
0.00625000 97.8260
0.00640625 96.7153
0.00656250 95.6446
0.00671875 94.6115
0.00687500 93.6140
0.00718750 91.7175
0.00750000 89.9412
0.00781250 88.2727
0.00812500 86.7016
0.00843750 85.2189
0.00875000 83.8164
0.00906250 82.4873
0.00937500 81.2253
0.00968750 80.0250
0.0100000 78.8815
0.0103125 77.7905
0.0106250 76.7481
0.0109375 75.7508
0.0112500 74.7954
0.0115625 73.8790
0.0118750 72.9992
0.0121875 72.1534
0.0125000 71.3397
0.0128125 70.5559
0.0131250 69.8004
0.0134375 69.0714
0.0137500 68.3674
0.0143750 67.0291
0.0150000 65.7754
0.0156250 64.5978
0.0162500 63.4889
0.0168750 62.4423
0.0175000 61.4523
0.0181250 60.5140
0.0187500 59.6231
0.0193750 58.7757
0.0200000 57.9684
0.0206625 57.1531
0.0213250 56.3760
0.0219875 55.6345
0.0226500 54.9257
0.0233125 54.2474
0.0239750 53.5975
0.0246375 52.9740
0.0253000 52.3752
0.0264578 51.3834
0.0276156 50.4547
0.0287734 49.5827
0.0299313 48.7619
0.0310891 47.9875
0.0322469 47.2552
0.0334047 46.5613
0.0345625 45.9026
0.0355274 45.3785
0.0364922 44.8753
0.0374570 44.3917
0.0384219 43.9264
0.0393867 43.4783
0.0403516 43.0464
0.0413164 42.6297
0.0422813 42.2273
0.0442109 41.4625
0.0461406 40.7462
0.0480703 40.0735
0.0500000 39.4402
0.0515625 38.9536
0.0531250 38.4888
0.0546875 38.0440
0.0562500 37.6180
0.0578125 37.2093
0.0593750 36.8170
0.0609375 36.4398
0.0625000 36.0770
0.0640625 35.7275
0.0656250 35.3906
0.0671875 35.0655
0.0687500 34.7516
0.0718750 34.1548
0.0750000 33.5956
0.0781250 33.0703
0.0812500 32.5755
0.0843750 32.1085
0.0875000 31.6666
0.0906250 31.2479
0.0937500 30.8502
0.0968750 30.4720
0.100000 30.1117
0.103125 29.7678
0.106250 29.4393
0.109375 29.1250
0.112500 28.8239
0.115625 28.5351
0.118750 28.2578
0.121875 27.9912
0.125000 27.7348
0.128125 27.4878
0.131250 27.2497
0.134375 27.0201
0.137500 26.7982
0.143750 26.3765
0.150000 25.9813
0.156250 25.6100
0.162500 25.2602
0.168750 24.9300
0.175000 24.6177
0.181250 24.3218
0.187500 24.0408
0.193750 23.7736
0.200000 23.5190
0.209375 23.1587
0.218750 22.8217
0.228125 22.5057
0.237500 22.2085
0.246875 21.9283
0.256250 21.6637
0.265625 21.4132
0.275000 21.1757
0.284375 20.9500
0.293750 20.7352
0.303125 20.5304
0.312500 20.3349
0.321875 20.1480
0.331250 19.9691
0.340625 19.7977
0.350000 19.6331
0.359375 19.4751
0.368750 19.3231
0.378125 19.1769
0.387500 19.0360
0.396875 18.9002
0.406250 18.7692
0.425000 18.5202
0.443750 18.2869
0.462500 18.0679
0.500000 17.6679
0.531250 17.3674
0.562500 17.0917
0.593750 16.8380
0.625000 16.6035
0.687500 16.1834
0.750000 15.8169
0.812500 15.4934
0.875000 15.2059
0.937500 14.9475
1.00000 14.7128
1.06250 14.4990
1.12500 14.3031
1.18750 14.1229
1.25000 13.9563
1.37500 13.6576
1.50000 13.3967
1.62500 13.1663
1.75000 12.9612
1.87500 12.7768
2.00000 12.6089
2.18750 12.3842
2.37500 12.1865
2.56250 12.0105
2.75000 11.8527
2.93750 11.7099
3.12500 11.5794
3.31250 11.4598
3.50000 11.3496
3.87500 11.1528
4.25000 10.9816
4.62500 10.8307
5.00000 10.6963
5.31250 10.5947
5.62500 10.5010
5.93750 10.4143
6.25000 10.3336
6.87500 10.1876
7.50000 10.0586
8.12500 9.94324
8.75000 9.83912
9.37500 9.74424
10.0000 9.65701
10.6250 9.57642
11.2500 9.50153
11.8750 9.43160
12.5000 9.36599
13.7500 9.24577
15.0000 9.13765
16.2500 9.03929
17.5000 8.94900
18.7500 8.86540
20.0000 8.78734
21.8750 8.67915
23.7500 8.57982
25.6250 8.48776
27.5000 8.40185
29.3750 8.32114
31.2500 8.24490
33.1250 8.17262
35.0000 8.10387
36.8750 8.03828
38.7500 7.97558
42.5000 7.85794
46.2500 7.74960
50.0000 7.64976
53.1250 7.57269
56.2500 7.50102
59.3750 7.43483
62.5000 7.37427
65.6250 7.31961
70.3125 7.25026
75.0000 7.19584
78.1250 7.17040
81.2500 7.15457
84.3750 7.14976
87.5000 7.15772
90.6250 7.18064
92.9688 7.21028
95.3125 7.25114
97.6563 7.30362
100.000 7.36980
102.676 7.46919
105.353 7.59530
108.029 7.75271
110.705 7.95128
112.043 8.06669
113.382 8.19795
114.720 8.34144
116.058 8.50147
117.396 8.68302
118.734 8.88141
120.072 9.10373
121.410 9.35025
122.812 9.64313
124.214 9.97293
125.616 10.3454
127.018 10.7673
128.420 11.2456
129.821 11.7905
131.223 12.4127
132.625 13.1257
133.772 13.7888
134.919 14.5352
136.066 15.3782
136.640 15.8401
137.213 16.3336
137.787 16.8586
138.360 17.4206
138.934 18.0204
139.507 18.6608
140.081 19.3428
140.654 20.0792
141.228 20.8718
141.801 21.7244
142.502 22.8571
143.203 24.1008
143.904 25.4697
144.605 26.9805
145.306 28.6529
146.007 30.5092
146.707 32.5764
147.058 33.6990
147.408 34.8864
148.046 37.2296
148.683 39.8386
149.001 41.2553
149.320 42.7542
149.639 44.3417
149.957 46.0248
150.276 47.8109
150.594 49.7084
150.913 51.7266
151.232 53.8755
151.550 56.1662
151.869 58.6101
152.187 61.2185
152.506 64.0053
152.857 67.3031
153.207 70.8742
153.558 74.7463
153.908 78.9487
154.258 83.5209
154.609 88.5036
154.959 93.9494
155.310 99.9128
155.660 106.464
156.011 113.678
156.361 121.647
156.712 130.474
156.887 135.251
157.062 140.290
157.237 145.612
157.413 151.239
157.588 157.197
157.763 163.505
157.938 170.194
158.113 177.295
158.400 189.899
158.687 203.862
158.830 211.419
158.974 219.394
159.117 227.818
159.260 236.717
159.404 246.138
159.547 256.116
159.691 266.694
159.834 277.913
159.977 289.845
160.121 302.533
160.264 316.064
160.407 330.490
160.583 349.487
160.758 370.109
160.933 392.566
161.108 417.046
161.284 443.820
161.459 473.142
161.634 505.350
161.809 540.823
161.985 580.021
162.160 623.412
162.247 646.870
162.335 671.612
162.423 697.730
162.510 725.323
162.598 754.530
162.685 785.403
162.773 818.099
162.861 852.756
162.948 889.522
163.036 928.559
163.123 970.044
163.211 1014.17
163.354 1092.64
163.426 1135.06
163.498 1179.77
163.570 1226.94
163.641 1276.72
163.713 1329.29
163.785 1384.74
163.856 1443.44
163.928 1505.50
164.000 1571.15
164.071 1640.63
164.143 1714.17
164.215 1792.03
164.286 1874.48
164.358 1961.65
164.446 2075.42
164.533 2197.23
164.621 2327.69
164.709 2467.28
164.796 2616.43
164.884 2775.47
164.971 2944.68
165.059 3124.15
165.196 3425.61
165.333 3750.54
165.471 4095.61
165.608 4454.96
165.882 5182.45
166.019 5526.30
166.156 5837.44
166.225 5975.36
166.293 6099.60
166.361 6208.46
166.429 6300.24
166.497 6373.87
166.565 6428.02
166.634 6462.04
166.702 6475.34
166.746 6472.86
166.816 6450.69
166.887 6406.52
166.958 6341.13
167.029 6255.68
167.100 6151.60
167.170 6030.58
167.241 5894.52
167.312 5745.42
167.454 5416.46
167.595 5060.25
167.878 4325.15
167.982 4062.05
168.086 3807.98
168.190 3565.10
168.294 3335.10
168.398 3118.39
168.502 2915.54
168.606 2726.52
168.710 2551.15
168.784 2434.32
168.858 2323.79
168.932 2219.30
169.006 2120.71
169.079 2027.45
169.153 1939.38
169.227 1856.21
169.301 1777.77
169.375 1703.58
169.449 1633.49
169.523 1567.25
169.597 1504.71
169.670 1445.47
169.744 1389.50
169.818 1336.44
169.892 1286.25
169.978 1231.31
170.063 1179.70
170.149 1131.08
170.234 1085.33
170.320 1042.16
170.405 1001.48
170.491 963.071
170.576 926.775
170.662 892.409
170.747 859.920
170.833 829.111
170.918 799.938
171.090 745.954
171.261 697.247
171.432 653.123
171.603 613.061
171.774 576.591
171.945 543.322
172.116 512.864
172.287 484.947
172.458 459.272
172.629 435.638
172.769 417.653
172.909 400.790
173.049 384.956
173.189 370.079
173.329 356.063
173.469 342.858
173.609 330.386
173.749 318.609
173.889 307.462
174.029 296.909
174.309 277.432
174.589 259.883
174.868 244.018
175.040 235.058
175.211 226.607
175.382 218.627
175.553 211.087
175.724 203.949
175.895 197.187
176.237 184.695
176.579 173.420
176.921 163.214
177.264 153.940
177.606 145.492
177.979 137.101
178.352 129.473
178.725 122.515
179.099 116.153
179.472 110.319
179.845 104.962
180.218 100.031
180.592 95.4719
180.934 91.5844
181.276 87.9543
181.618 84.5592
181.960 81.3814
182.302 78.4010
182.644 75.6032
182.987 72.9725
183.329 70.4956
183.671 68.1600
184.013 65.9560
184.355 63.8728
184.697 61.9026
185.039 60.0361
185.382 58.2671
186.066 54.9936
186.750 52.0338
187.434 49.3485
188.119 46.9041
188.803 44.6725
189.487 42.6283
190.171 40.7511
190.856 39.0227
191.540 37.4276
192.286 35.8233
193.033 34.3507
193.904 32.7740
194.775 31.3273
195.646 30.0009
196.517 28.7816
197.387 27.6577
198.258 26.6193
199.129 25.6576
200.000 24.7662
200.806 23.9974
201.611 23.2757
202.417 22.5981
203.223 21.9619
204.028 21.3629
204.834 20.7978
205.640 20.2648
206.445 19.7611
207.251 19.2840
208.057 18.8321
209.668 17.9964
211.279 17.2409
212.891 16.5550
214.502 15.9301
216.113 15.3586
217.725 14.8341
219.336 14.3514
220.947 13.9056
222.559 13.4929
224.170 13.1098
225.781 12.7542
227.393 12.4239
229.004 12.1127
230.615 11.8197
232.227 11.5467
233.838 11.2895
235.449 11.0457
237.061 10.8167
238.672 10.6006
240.283 10.3945
241.895 10.1996
245.117 9.83855
248.340 9.51081
251.563 9.21105
254.492 8.96092
257.422 8.72855
260.352 8.51439
263.281 8.31223
266.211 8.12274
269.141 7.94617
272.070 7.77933
275.000 7.61986
278.223 7.45731
281.445 7.30276
284.668 7.15542
287.891 7.01750
294.336 6.75986
300.781 6.52646
307.227 6.31125
313.672 6.11342
320.117 5.92975
326.563 5.75783
332.422 5.61210
338.281 5.47416
350.000 5.21597
362.500 4.96811
368.750 4.85092
375.000 4.74039
387.500 4.52966
400.000 4.33460
412.500 4.15282
425.000 3.98107
434.375 3.85908
443.750 3.74215
462.500 3.52166
481.250 3.31694
500.000 3.12609
515.625 2.97660
531.250 2.83508
546.875 2.70100
562.500 2.57395
578.125 2.45362
593.750 2.33977
609.375 2.23225
625.000 2.13096
643.750 2.01800
662.500 1.91394
671.875 1.86460
681.250 1.81887
700.000 1.73269
712.500 1.68220
725.000 1.63510
737.500 1.59282
750.000 1.55545
761.719 1.52636
773.438 1.50200
785.156 1.48236
796.875 1.46784
804.688 1.46195
812.500 1.45893
820.313 1.45888
828.125 1.46193
835.938 1.46825
843.750 1.47802
851.563 1.49143
859.375 1.50868
867.188 1.53000
875.000 1.55564
885.742 1.59877
896.484 1.65087
907.227 1.71319
917.969 1.78727
928.711 1.87284
939.453 1.97254
944.824 2.02740
950.195 2.08702
960.938 2.21709
970.703 2.35197
975.586 2.42491
980.469 2.50317
985.352 2.58458
990.234 2.67173
1000.00 2.85988
1008.05 3.03228
1016.10 3.22041
1024.15 3.42625
1032.20 3.65204
1040.25 3.89794
1048.30 4.16770
1056.35 4.46275
1064.40 4.78465
1072.45 5.13870
1080.50 5.52530
1088.55 5.94914
1096.60 6.41563
1104.65 6.92577
1112.70 7.48854
1116.73 7.78968
1120.75 8.10802
1128.80 8.78881
1136.86 9.54413
1140.88 9.94833
1144.91 10.3766
1152.96 11.2989
1156.98 11.7981
1161.01 12.3261
1165.03 12.8788
1169.06 13.4634
1173.08 14.0844
1177.11 14.7360
1181.13 15.4241
1185.16 16.1579
1189.18 16.9306
1193.21 17.7458
1200.16 19.2802
1203.64 20.1078
1207.11 20.9825
1210.59 21.8954
1214.06 22.8712
1217.54 23.8888
1221.02 24.9707
1224.49 26.1157
1227.97 27.3157
1231.45 28.6034
1234.92 29.9487
1238.40 31.3884
1241.87 32.8942
1245.35 34.5092
1248.83 36.2259
1252.85 38.3513
1256.88 40.6364
1260.90 43.0969
1264.93 45.7505
1268.95 48.6146
1272.98 51.7121
1277.00 55.0660
1281.03 58.7016
1285.05 62.6537
1289.08 66.9514
1293.10 71.6350
1297.13 76.7493
1301.15 82.3419
1305.18 88.4697
1309.20 95.1960
1313.23 102.592
1317.25 110.747
1321.28 119.747
1323.29 124.601
1325.30 129.703
1327.32 135.080
1329.33 140.742
1331.34 146.708
1333.35 152.996
1335.37 159.636
1337.38 166.635
1339.39 174.026
1341.40 181.834
1343.42 190.083
1345.43 198.793
1347.44 207.984
1349.44 217.694
1351.45 227.962
1353.45 238.822
1355.46 250.314
1357.47 262.455
1359.47 275.306
1361.48 288.890
1363.49 303.244
1365.49 318.405
1367.50 334.424
1369.51 351.304
1371.51 369.099
1373.52 387.826
1375.53 407.496
1377.53 428.119
1379.66 451.005
1381.78 474.933
1386.03 525.762
1390.27 579.974
1394.52 636.407
1398.77 693.036
1403.01 747.468
1405.14 772.874
1407.26 796.487
1409.38 817.905
1411.51 836.707
1413.63 852.495
1415.75 864.938
1417.88 873.810
1420.00 878.924
1422.83 879.766
1425.13 875.485
1427.43 866.967
1429.73 854.527
1432.03 838.577
1434.34 819.557
1436.64 797.983
1441.24 749.205
1450.44 641.978
1455.04 588.715
1457.34 563.106
1459.64 538.328
1462.70 506.798
1465.75 476.958
1468.81 448.920
1471.87 422.694
1474.93 398.206
1477.98 375.407
1481.04 354.199
1484.10 334.505
1487.49 314.282
1490.89 295.669
1494.28 278.530
1497.68 262.742
1501.07 248.192
1504.46 234.860
1507.86 222.442
1511.25 210.963
1514.12 201.938
1517.00 193.464
1519.87 185.495
1522.74 178.033
1525.61 171.014
1528.48 164.392
1531.36 158.168
1534.23 152.305
1537.10 146.757
1539.97 141.523
1542.84 136.582
1545.72 131.896
1548.59 127.458
1551.46 123.261
1554.33 119.272
1557.20 115.482
1562.95 108.467
1568.69 102.105
1574.44 96.3249
1580.18 91.0636
1585.92 86.2489
1591.67 81.8415
1597.41 77.7936
1603.15 74.0641
1607.07 71.6890
1610.99 69.4389
1614.90 67.3044
1618.82 65.2777
1626.65 61.5185
1630.57 59.7742
1634.48 58.1318
1642.32 55.0260
1650.15 52.1934
1657.98 49.6023
1665.81 47.2261
1671.56 45.6150
1677.30 44.0887
1683.05 42.6392
1688.79 41.2843
1700.28 38.7759
1706.02 37.6232
1711.76 36.5324
1717.51 35.4872
1723.25 34.4970
1734.74 32.6604
1746.23 30.9906
1757.72 29.4619
1771.29 27.8287
1784.87 26.3471
1798.44 25.0022
1812.02 23.7793
1825.60 22.6572
1832.39 22.1330
1839.17 21.6418
1852.75 20.6904
1866.33 19.8132
1883.04 18.8280
1899.74 17.9294
1916.45 17.1068
1933.16 16.3513
1949.87 15.6553
1966.58 15.0123
1983.29 14.4166
2000.00 13.8637
2016.11 13.3723
2032.23 12.9070
2048.34 12.4659
2064.45 12.0597
2080.57 11.6755
2096.68 11.3093
2112.79 10.9677
2128.91 10.6455
2145.02 10.3371
2161.13 10.0458
2193.36 9.50860
2209.47 9.25752
2225.59 9.02163
2257.81 8.57604
2279.79 8.29605
2301.76 8.03239
2323.73 7.78349
2345.70 7.54808
2389.65 7.11347
2411.62 6.91244
2433.59 6.72367
2477.54 6.36680
2521.49 6.04153
2565.43 5.74371
2609.38 5.47018
2644.53 5.26866
2679.69 5.07793
2714.84 4.89705
2750.00 4.72560
2820.31 4.41373
2890.63 4.12974
2960.94 3.87456
3031.25 3.63961
3101.56 3.42589
3171.88 3.22734
3242.19 3.04629
3312.50 2.87423
3406.25 2.66496
3500.00 2.47316
3625.00 2.24198
3687.50 2.13319
3750.00 2.03206
3875.00 1.84065
3937.50 1.75205
4000.00 1.66751
4062.50 1.58684
4125.00 1.51074
4250.00 1.36680
4343.75 1.26875
4437.50 1.17877
4507.81 1.11750
4578.13 1.05970
4648.44 1.00828
4718.75 0.962138
4789.06 0.923096
4859.38 0.890700
4894.53 0.878054
4929.69 0.867558
4964.84 0.859261
5000.00 0.853373
5036.24 0.850758
5067.95 0.851396
5099.65 0.854970
5131.36 0.861666
5163.07 0.871784
5178.92 0.877759
5194.78 0.885666
5226.49 0.903699
5258.19 0.926333
5289.90 0.954204
5314.81 0.980533
5339.73 1.01076
5364.64 1.04540
5389.55 1.08519
5414.47 1.13010
5439.38 1.18136
5464.29 1.23938
5489.21 1.30467
5514.12 1.37915
5526.58 1.41947
5539.03 1.46291
5563.95 1.55770
5576.40 1.60989
5588.86 1.66574
5601.32 1.72456
5613.77 1.78747
5626.23 1.85528
5638.69 1.92687
5651.14 2.00316
5663.60 2.08591
5676.06 2.17369
5688.51 2.26702
5704.37 2.39691
5720.22 2.53951
5736.08 2.69606
5744.00 2.77814
5751.93 2.86587
5767.78 3.05535
5783.64 3.26509
5799.49 3.49780
5815.34 3.75708
5827.80 3.98251
5840.26 4.22903
5852.72 4.49978
5865.17 4.79843
5877.63 5.12787
5890.09 5.49393
5896.31 5.69181
5902.54 5.90157
5908.77 6.12290
5915.00 6.35680
5925.19 6.77136
5935.38 7.22920
5945.57 7.73652
5950.67 8.00992
5955.77 8.30060
5960.86 8.60556
5965.96 8.93045
5971.05 9.27294
5976.15 9.63647
5981.25 10.0191
5986.34 10.4294
5991.44 10.8667
5996.53 11.3329
6002.76 11.9462
6008.99 12.6124
6015.22 13.3381
6021.45 14.1304
6027.68 14.9981
6033.90 15.9509
6040.13 17.0006
6046.36 18.1609
6049.47 18.7877
6052.59 19.4482
6055.70 20.1451
6058.82 20.8812
6061.93 21.6595
6065.04 22.4831
6068.16 23.3556
6071.27 24.2811
6074.39 25.2640
6077.50 26.3086
6080.62 27.4203
6083.73 28.6048
6086.84 29.8685
6089.96 31.2185
6093.07 32.6611
6096.19 34.2010
6099.30 35.8532
6102.41 37.6316
6105.53 39.5453
6108.64 41.6062
6111.76 43.8293
6114.87 46.2292
6117.99 48.8241
6121.10 51.6336
6124.21 54.6803
6127.33 57.9858
6130.44 61.5770
6133.56 65.4820
6136.67 69.7309
6139.78 74.3559
6142.90 79.3903
6146.01 84.8678
6147.81 88.2433
6149.61 91.7813
6151.40 95.4890
6153.20 99.3713
6154.99 103.432
6156.79 107.674
6160.38 116.703
6163.97 126.438
6167.57 136.806
6171.16 147.676
6174.75 158.780
6180.43 176.062
6183.27 184.075
6186.11 191.268
6188.95 197.344
6191.79 201.998
6193.22 203.709
6194.64 204.970
6196.06 205.760
6197.48 206.062
6200.00 205.368
6201.89 203.817
6203.79 201.407
6205.68 198.187
6207.58 194.223
6209.47 189.592
6211.36 184.386
6213.26 178.703
6215.15 172.644
6218.94 159.773
6222.73 146.487
6226.51 133.321
6230.30 120.717
6233.11 111.871
6235.93 103.539
6238.74 95.7473
6241.56 88.5053
6244.37 81.8119
6247.18 75.6485
6250.00 69.9850
6252.81 64.7910
6255.25 60.6418
6257.69 56.7968
6260.13 53.2343
6262.56 49.9348
6265.00 46.8758
6267.44 44.0410
6269.88 41.4105
6272.31 38.9702
6274.97 36.5047
6277.63 34.2291
6280.29 32.1254
6282.95 30.1802
6285.61 28.3786
6288.27 26.7112
6290.93 25.1664
6293.59 23.7300
6296.03 22.4994
6298.46 21.3464
6300.90 20.2658
6303.34 19.2527
6305.78 18.3012
6308.21 17.4074
6310.65 16.5670
6313.09 15.7764
6315.53 15.0316
6317.97 14.3297
6320.40 13.6677
6322.84 13.0431
6325.28 12.4530
6327.72 11.8954
6330.15 11.3679
6332.59 10.8688
6335.03 10.3960
6337.47 9.94805
6339.90 9.52331
6342.34 9.12055
6344.78 8.73809
6347.22 8.37503
6349.65 8.02991
6352.09 7.70196
6354.53 7.38991
6356.97 7.09300
6361.84 6.54126
6366.72 6.04044
6371.59 5.58514
6376.47 5.17057
6381.34 4.79277
6386.22 4.44802
6391.09 4.13314
6395.97 3.84524
6400.84 3.58196
6405.72 3.34100
6410.59 3.12040
6415.47 2.91837
6420.35 2.73343
6425.22 2.56408
6430.10 2.40916
6434.97 2.26746
6439.85 2.13802
6444.72 2.01989
6449.60 1.91228
6454.47 1.81441
6459.35 1.72564
6464.22 1.64535
6469.10 1.57297
6473.98 1.50800
6478.85 1.45000
6483.73 1.39855
6488.60 1.35328
6493.92 1.31051
6499.24 1.27429
6504.56 1.24424
6509.88 1.22003
6515.19 1.20148
6520.51 1.18855
6525.83 1.18018
6531.15 1.17660
6536.03 1.17746
6540.90 1.18203
6545.78 1.19018
6550.65 1.20192
6555.53 1.21707
6560.40 1.23548
6565.28 1.25720
6570.15 1.28211
6575.03 1.31008
6579.90 1.34114
6584.78 1.37525
6589.65 1.41228
6594.53 1.45227
6599.40 1.49522
6609.15 1.58969
6616.25 1.66566
6623.34 1.74770
6630.43 1.83583
6637.52 1.93008
6648.19 2.08371
6658.87 2.25155
6669.54 2.43419
6680.22 2.63191
6690.89 2.84554
6701.57 3.07600
6712.24 3.32323
6722.92 3.58865
6736.05 3.94219
6742.62 4.13007
6749.19 4.32652
6762.33 4.74457
6775.47 5.19961
6788.60 5.69357
6801.74 6.23138
6808.31 6.51738
6814.88 6.81651
6828.02 7.45275
6841.15 8.14717
6847.72 8.51666
6854.29 8.90355
6867.43 9.72936
6874.00 10.1708
6880.57 10.6330
6887.14 11.1152
6893.71 11.6202
6906.84 12.7036
6913.41 13.2833
6919.98 13.8926
6926.55 14.5301
6933.12 15.1977
6941.48 16.0970
6949.84 17.0539
6958.20 18.0726
6966.56 19.1575
6974.92 20.3135
6983.28 21.5459
6991.64 22.8613
7000.00 24.2665
7006.36 25.4025
7012.73 26.5972
7019.09 27.8523
7025.46 29.1771
7031.82 30.5734
7038.18 32.0408
7044.55 33.5904
7050.91 35.2264
7057.27 36.9470
7063.64 38.7637
7070.00 40.6845
7076.37 42.7058
7082.73 44.8384
7089.09 47.0946
7095.46 49.4709
7101.82 51.9740
7108.27 54.6595
7114.73 57.4905
7121.18 60.4690
7127.63 63.6135
7134.08 66.9267
7140.54 70.4022
7146.99 74.0562
7153.44 77.8958
7159.89 81.9039
7166.35 86.0914
7179.25 94.9958
7192.16 104.535
7205.06 114.581
7228.80 133.627
7240.67 142.891
7252.53 151.522
7264.40 159.108
7270.33 162.403
7276.27 165.265
7282.20 167.721
7288.13 169.670
7294.07 171.108
7300.00 172.088
7304.75 172.472
7309.50 172.444
7317.22 171.684
7324.94 170.091
7332.66 167.708
7340.38 164.611
7348.09 160.876
7355.81 156.598
7363.53 151.888
7371.25 146.856
7402.13 125.255
7417.56 114.456
7433.00 104.203
7440.60 99.4071
7448.21 94.7981
7455.81 90.3892
7463.42 86.1542
7471.02 82.1346
7478.62 78.2979
7486.23 74.6404
7493.83 71.1862
7501.43 67.8983
7509.04 64.7725
7516.64 61.8255
7524.24 59.0238
7531.85 56.3615
7539.45 53.8526
7547.05 51.4663
7554.66 49.1983
7562.50 46.9926
7570.34 44.8981
7578.18 42.9066
7586.02 41.0264
7593.87 39.2411
7601.71 37.5387
7609.55 35.9266
7617.39 34.3958
7625.23 32.9325
7633.08 31.5417
7648.76 28.9542
7656.60 27.7465
7664.44 26.5969
7680.13 24.4391
7695.81 22.4657
7711.49 20.6486
7727.18 18.9730
7742.86 17.4260
7758.54 15.9885
7774.23 14.6542
7789.91 13.4109
7805.59 12.2488
7822.70 11.0691
7839.81 9.96934
7854.07 9.11260
7868.33 8.30616
7882.59 7.54751
7896.84 6.83690
7911.10 6.17556
7918.23 5.86291
7925.36 5.56429
7932.49 5.27731
7939.62 5.00513
7946.75 4.74527
7953.88 4.50278
7961.72 4.25512
7969.56 4.02899
7977.40 3.82636
7985.24 3.64962
7989.16 3.57181
7993.09 3.50158
7997.01 3.43937
8000.93 3.38564
8004.85 3.34092
8008.77 3.30580
8012.69 3.28077
8016.61 3.26604
8019.46 3.26250
8023.38 3.26875
8027.30 3.28826
8031.23 3.32179
8035.15 3.37036
8039.07 3.43510
8042.99 3.51726
8046.91 3.61817
8050.83 3.73930
8054.75 3.88232
8058.67 4.04900
8062.59 4.24129
8066.51 4.46135
8070.43 4.71153
8074.36 4.99444
8078.28 5.31294
8082.20 5.67009
8086.12 6.06956
8090.04 6.51509
8093.96 7.01091
8097.88 7.56171
8099.84 7.85939
8101.80 8.17263
8103.76 8.50249
8105.72 8.84940
8107.68 9.21451
8109.64 9.59831
8111.60 10.0019
8113.56 10.4261
8115.52 10.8723
8117.48 11.3410
8119.45 11.8337
8121.41 12.3512
8123.37 12.8951
8125.33 13.4662
8127.29 14.0663
8129.25 14.6963
8131.21 15.3583
8133.17 16.0531
8135.13 16.7831
8137.09 17.5492
8139.05 18.3539
8141.01 19.1984
8142.97 20.0854
8144.93 21.0160
8146.89 21.9934
8148.85 23.0187
8150.81 24.0953
8152.77 25.2246
8154.73 26.4101
8156.69 27.6532
8158.65 28.9573
8160.61 30.3251
8162.58 31.7601
8164.54 33.2640
8166.50 34.8411
8168.46 36.4930
8170.42 38.2244
8172.38 40.0368
8174.34 41.9341
8176.30 43.9193
8178.25 45.9855
8180.20 48.1431
8184.10 52.7479
8188.00 57.7620
8191.90 63.2035
8195.80 69.0921
8199.70 75.4102
8203.60 82.1479
8207.50 89.2908
8212.81 99.6015
8218.13 110.428
8223.44 121.534
8228.75 132.596
8231.41 137.994
8234.06 143.229
8236.72 148.249
8239.38 152.999
8242.03 157.428
8244.69 161.482
8247.34 165.119
8250.00 168.301
8254.25 172.372
8258.50 175.124
8262.75 176.539
8267.00 176.661
8270.19 175.957
8273.38 174.630
8276.56 172.743
8279.75 170.364
8282.94 167.563
8286.13 164.412
8292.50 157.305
8298.88 149.548
8305.25 141.573
8311.63 133.596
8314.81 129.682
8318.00 125.843
8322.52 120.559
8327.04 115.486
8331.55 110.640
8336.07 106.029
8340.59 101.653
8345.10 97.5119
8349.62 93.5992
8354.14 89.9064
8359.48 85.8119
8364.82 81.9943
8370.15 78.4346
8375.49 75.1147
8380.83 72.0189
8386.17 69.1392
8391.51 66.4383
8396.84 63.9094
8401.36 61.8958
8405.88 59.9900
8410.40 58.1844
8414.91 56.4732
8419.43 54.8494
8423.95 53.3071
8428.46 51.8416
8432.98 50.4477
8437.50 49.1201
8442.02 47.8556
8451.05 45.4993
8460.08 43.3500
8469.12 41.3832
8478.15 39.5784
8487.19 37.9174
8496.22 36.3845
8505.26 34.9664
8514.29 33.6509
8523.32 32.4278
8532.36 31.2881
8541.39 30.2237
8556.18 28.6264
8570.96 27.1923
8585.74 25.8881
8600.52 24.7001
8615.31 23.6136
8630.09 22.6165
8644.87 21.6987
8659.66 20.8513
8677.73 19.9011
8695.79 19.0301
8713.86 18.2299
8731.93 17.4935
8750.00 16.8106
8768.07 16.1779
8786.14 15.5890
8804.20 15.0385
8835.41 14.1702
8866.62 13.3919
8897.83 12.6859
8929.04 12.0467
8960.25 11.4619
8991.46 10.9238
9022.67 10.4270
9053.88 9.96724
9093.30 9.43518
9132.72 8.94468
9172.14 8.49560
9211.56 8.07794
9250.99 7.69194
9290.41 7.33024
9329.83 6.99546
9369.25 6.67583
9441.52 6.14317
9477.66 5.89300
9513.80 5.65798
9586.07 5.21470
9658.34 4.80867
9730.62 4.43009
9802.89 4.07809
9875.17 3.74731
9947.44 3.43386
10000.0 3.21667
10060.7 2.97507
10104.0 2.80862
10147.2 2.64647
10190.5 2.48836
10233.7 2.33410
10277.0 2.18348
10320.2 2.03645
10363.5 1.89291
10406.8 1.75296
10457.6 1.59312
10508.4 1.43873
10559.3 1.29031
10610.1 1.14878
10635.6 1.08093
10661.0 1.01532
10686.4 0.952136
10711.8 0.891663
10737.2 0.834206
10762.7 0.780130
10788.1 0.729860
10813.5 0.683892
10838.9 0.642788
10851.6 0.624281
10864.4 0.607255
10877.1 0.591813
10889.8 0.578066
10902.5 0.566133
10915.2 0.556144
10927.9 0.548235
10940.6 0.542571
10953.3 0.539310
10966.0 0.538632
10978.8 0.540732
10991.5 0.545822
11004.2 0.554134
11016.9 0.565919
11029.6 0.581463
11042.3 0.601043
11055.0 0.624993
11067.7 0.653671
11074.1 0.669916
11080.4 0.687465
11086.8 0.706428
11093.2 0.726802
11099.5 0.748710
11105.9 0.772147
11112.2 0.797252
11118.6 0.824013
11124.9 0.852587
11131.3 0.882960
11137.6 0.915307
11144.0 0.949607
11150.4 0.986056
11156.7 1.02463
11163.1 1.06555
11169.4 1.10878
11175.8 1.15457
11182.1 1.20287
11188.5 1.25397
11194.8 1.30783
11201.2 1.36473
11207.5 1.42464
11213.9 1.48789
11220.3 1.55443
11226.6 1.62463
11233.0 1.69854
11239.3 1.77636
11245.7 1.85812
11252.0 1.94429
11258.4 2.03479
11264.8 2.13013
11271.1 2.23023
11277.5 2.33566
11283.8 2.44633
11290.2 2.56287
11296.5 2.68518
11302.9 2.81397
11309.2 2.94912
11315.6 3.09142
11321.9 3.24077
11328.3 3.39801
11334.7 3.56332
11341.0 3.73711
11347.4 3.91954
11353.7 4.11166
11360.1 4.31337
11366.4 4.52583
11372.8 4.74895
11379.2 4.98401
11385.5 5.23092
11391.9 5.49114
11398.2 5.76455
11404.6 6.05279
11410.9 6.35574
11417.3 6.67524
11423.6 7.01118
11430.0 7.36559
11436.4 7.73899
11442.7 8.13248
11449.1 8.54655
11455.4 8.98375
11461.8 9.44402
11468.1 9.93020
11474.5 10.4423
11480.8 10.9834
11487.2 11.5535
11493.6 12.1562
11499.9 12.7915
11506.3 13.4634
11512.6 14.1718
11519.0 14.9213
11525.3 15.7119
11531.7 16.5484
11538.0 17.4309
11544.4 18.3650
11550.7 19.3505
11557.1 20.3936
11563.5 21.4942
11569.8 22.6590
11576.2 23.8876
11582.5 25.1875
11588.9 26.5581
11595.2 28.0072
11601.6 29.5341
11607.9 31.1470
11614.3 32.8445
11620.7 34.6353
11627.0 36.5169
11637.8 39.9467
11648.6 43.6645
11659.4 47.6798
11670.3 51.9917
11681.1 56.5944
11691.9 61.4563
11702.7 66.5434
11713.5 71.7992
11724.3 77.1528
11735.1 82.4976
11745.9 87.7234
11756.8 92.7003
11767.6 97.2943
11778.4 101.361
11789.2 104.779
11800.0 107.449
11810.8 109.302
11821.6 110.304
11832.4 110.464
11843.3 109.828
11854.1 108.468
11864.9 106.482
11875.7 103.978
11886.5 101.064
11897.3 97.8451
11908.1 94.4236
11929.8 87.2914
11940.6 83.7070
11951.4 80.1806
11962.2 76.7432
11973.0 73.4195
11984.6 69.9955
11996.2 66.7345
12007.8 63.6426
12019.4 60.7236
12031.0 57.9699
12042.6 55.3816
12054.3 52.9476
12065.9 50.6646
12077.5 48.5204
12089.1 46.5106
12100.7 44.6231
12112.3 42.8533
12123.9 41.1900
12135.5 39.6288
12147.1 38.1599
12158.7 36.7793
12170.3 35.4782
12181.9 34.2523
12193.5 33.0961
12205.1 32.0057
12216.7 30.9745
12228.3 30.0002
12239.9 29.0771
12251.5 28.2033
12263.2 27.3739
12274.8 26.5874
12286.4 25.8395
12298.0 25.1289
12309.6 24.4521
12321.2 23.8079
12332.8 23.1933
12344.4 22.6073
12367.6 21.5121
12390.8 20.5106
12414.0 19.5917
12437.2 18.7461
12460.4 17.9657
12483.7 17.2437
12506.9 16.5739
12530.1 15.9511
12553.3 15.3706
12576.5 14.8283
12599.7 14.3206
12622.9 13.8444
12646.1 13.3968
12669.3 12.9754
12692.5 12.5778
12715.8 12.2020
12739.0 11.8462
12762.2 11.5090
12785.4 11.1888
12808.6 10.8844
12831.8 10.5944
12855.0 10.3178
12878.2 10.0537
12901.4 9.80120
12947.9 9.32756
12994.3 8.89142
13040.7 8.48788
13087.1 8.11289
13133.6 7.76293
13180.0 7.43518
13226.4 7.12702
13272.8 6.83623
13319.2 6.56088
13365.7 6.29929
13412.1 6.04997
13458.5 5.81160
13504.9 5.58297
13551.4 5.36312
13597.8 5.15108
13644.2 4.94600
13690.6 4.74710
13737.0 4.55377
13783.5 4.36537
13829.9 4.18136
13876.3 4.00122
13922.7 3.82462
13969.2 3.65119
14015.6 3.48068
14062.0 3.31294
14085.2 3.23010
14108.4 3.14796
14131.6 3.06654
14154.8 2.98589
14178.0 2.90606
14201.3 2.82712
14224.5 2.74915
14247.7 2.67234
14270.9 2.59683
14294.1 2.52283
14317.3 2.45059
14340.5 2.38043
14363.7 2.31278
14386.9 2.24811
14410.2 2.18705
14433.4 2.13042
14456.6 2.07918
14479.8 2.03456
14491.4 2.01520
14503.0 1.99813
14514.6 1.98358
14526.2 1.97188
14537.8 1.96333
14549.4 1.95835
14561.0 1.95737
14572.6 1.96088
14584.2 1.96947
14595.9 1.98380
14607.5 2.00463
14619.1 2.03282
14630.7 2.06945
14642.3 2.11564
14653.9 2.17287
14665.5 2.24269
14677.1 2.32715
14688.7 2.42840
14694.5 2.48628
14700.3 2.54935
14706.1 2.61813
14711.9 2.69308
14717.7 2.77486
14723.5 2.86377
14729.3 2.96056
14735.1 3.06593
14740.9 3.18083
14746.7 3.30573
14752.5 3.44175
14758.3 3.58994
14764.1 3.75176
14769.9 3.92794
14775.7 4.12021
14781.5 4.33020
14787.3 4.56016
14793.1 4.81137
14798.9 5.08652
14804.7 5.38826
14810.6 5.72018
14816.4 6.08454
14822.2 6.48575
14828.0 6.92824
14833.8 7.41796
14839.6 7.95906
14845.4 8.55903
14851.2 9.22559
14854.1 9.58786
14857.0 9.96903
14859.9 10.3716
14862.8 10.7972
14865.7 11.2471
14868.6 11.7232
14871.5 12.2272
14874.4 12.7611
14877.3 13.3289
14880.2 13.9292
14883.1 14.5661
14886.0 15.2424
14888.9 15.9609
14891.8 16.7247
14894.7 17.5370
14897.6 18.4014
14900.5 19.3250
14903.4 20.3055
14906.3 21.3504
14909.2 22.4643
14912.1 23.6522
14915.0 24.9192
14917.9 26.2709
14920.8 27.7130
14923.7 29.2568
14926.6 30.8980
14929.5 32.6477
14932.4 34.5119
14935.3 36.4966
14938.2 38.6071
14941.1 40.8481
14944.0 43.2234
14947.5 46.2719
14951.0 49.5195
14954.5 52.9609
14958.0 56.5837
14961.5 60.3664
14965.0 64.2766
14972.0 72.2841
14975.5 76.2479
14979.0 80.0725
14982.5 83.6588
14986.0 86.9010
14989.5 89.6930
14993.0 91.9365
14996.5 93.5495
15000.0 94.4743
15003.6 94.6799
15007.1 94.1485
15010.7 92.9210
15014.3 91.0655
15017.8 88.6640
15021.4 85.8323
15024.9 82.6703
15028.5 79.2806
15035.6 72.1698
15042.8 65.1135
15046.3 61.7188
15049.9 58.4718
15053.4 55.3824
15057.0 52.4621
15061.9 48.6999
15066.9 45.2746
15071.8 42.1760
15076.8 39.3924
15081.7 36.8924
15086.6 34.6603
15091.6 32.6751
15096.5 30.9199
15101.4 29.3691
15106.4 28.0099
15111.3 26.8277
15116.3 25.8115
15121.2 24.9465
15126.1 24.2259
15131.1 23.6422
15136.0 23.1905
15140.9 22.8648
15145.9 22.6633
15150.8 22.5844
15155.8 22.6278
15160.7 22.7947
15165.6 23.0875
15170.6 23.5097
15175.5 24.0645
15180.4 24.7601
15185.4 25.6023
15190.3 26.5989
15195.3 27.7562
15200.2 29.0884
15205.1 30.6034
15210.1 32.3115
15215.0 34.2188
15220.3 36.5148
15225.6 39.0623
15230.9 41.8719
15236.3 44.9449
15241.6 48.2826
15246.9 51.8575
15252.2 55.6493
15257.5 59.6177
15262.8 63.7143
15268.1 67.8509
15273.4 71.9466
15278.8 75.8997
15284.1 79.6069
15289.4 82.9430
15294.7 85.8113
15300.0 88.1238
15305.3 89.8192
15310.6 90.8560
15315.9 91.2343
15321.3 90.9798
15326.6 90.1413
15331.9 88.7915
15337.2 87.0099
15342.5 84.8811
15347.8 82.4835
15353.1 79.9032
15363.8 74.4447
15369.1 71.6673
15374.4 68.9207
15379.7 66.2287
15385.0 63.6129
15389.2 61.6129
15393.4 59.6750
15397.6 57.8027
15401.8 56.0022
15405.9 54.2658
15410.1 52.6019
15414.3 51.0019
15418.5 49.4720
15422.7 48.0034
15426.9 46.6011
15431.1 45.2562
15435.2 43.9730
15439.4 42.7429
15443.6 41.5694
15447.8 40.4444
15452.0 39.3709
15456.2 38.3416
15460.4 37.3567
15468.7 35.5137
15477.1 33.8230
15485.5 32.2695
15493.8 30.8396
15502.2 29.5211
15510.6 28.3030
15518.9 27.1756
15527.3 26.1289
15535.7 25.1575
15544.1 24.2534
15552.4 23.4102
15560.8 22.6226
15569.2 21.8855
15577.5 21.1945
15585.9 20.5458
15594.3 19.9350
15602.7 19.3605
15611.0 18.8186
15619.4 18.3067
15627.8 17.8225
15636.1 17.3639
15644.5 16.9290
15652.9 16.5161
15661.3 16.1230
15669.6 15.7494
15678.0 15.3934
15686.4 15.0538
15703.1 14.4196
15719.9 13.8390
15736.6 13.3053
15753.3 12.8135
15770.1 12.3585
15786.8 11.9362
15803.6 11.5430
15820.3 11.1763
15837.1 10.8331
15853.8 10.5112
15870.5 10.2085
15887.3 9.92317
15904.0 9.65374
15920.8 9.39877
15937.5 9.15685
15954.2 8.92716
15971.0 8.70857
15987.7 8.50016
16004.5 8.30103
16021.2 8.11068
16038.0 7.92832
16054.7 7.75337
16088.2 7.42345
16121.7 7.11730
16155.2 6.83155
16188.6 6.56367
16222.1 6.31119
16255.6 6.07229
16289.1 5.84511
16322.6 5.62828
16356.1 5.42036
16389.5 5.22028
16423.0 5.02695
16456.5 4.83940
16490.0 4.65672
16523.5 4.47820
16557.0 4.30301
16590.4 4.13054
16623.9 3.96001
16657.4 3.79089
16690.9 3.62246
16724.4 3.45420
16757.9 3.28541
16791.4 3.11560
16824.8 2.94406
16858.3 2.77030
16891.8 2.59364
16908.6 2.50409
16925.3 2.41361
16942.0 2.32215
16958.8 2.22964
16975.5 2.13602
16992.3 2.04126
17009.0 1.94525
17025.7 1.84809
17042.5 1.74972
17059.2 1.65016
17076.0 1.54939
17092.7 1.44763
17109.5 1.34495
17126.2 1.24156
17159.7 1.03387
17176.4 0.930594
17193.2 0.828600
17201.5 0.778326
17209.9 0.728833
17218.3 0.680238
17226.7 0.632750
17235.0 0.586605
17243.4 0.542080
17251.8 0.499495
17260.1 0.459220
17268.5 0.421641
17272.7 0.404035
17276.9 0.387348
17281.1 0.371576
17285.3 0.356874
17289.4 0.343260
17293.6 0.330894
17297.8 0.319817
17302.0 0.310194
17306.2 0.302099
17310.4 0.295697
17314.6 0.291100
17318.7 0.288480
17322.9 0.287989
17327.1 0.289807
17331.3 0.294136
17335.5 0.301185
17339.7 0.311184
17343.9 0.324344
17346.0 0.332240
17348.0 0.341000
17350.1 0.350694
17352.2 0.361364
17354.3 0.373106
17356.4 0.385854
17358.5 0.399703
17360.6 0.414701
17362.7 0.430977
17364.8 0.448425
17366.9 0.467174
17369.0 0.487279
17371.1 0.508904
17373.2 0.531903
17375.2 0.556439
17377.3 0.582579
17379.4 0.610529
17381.5 0.640095
17383.6 0.671482
17385.7 0.704769
17387.8 0.740214
17389.9 0.777565
17392.0 0.817077
17394.1 0.858848
17396.2 0.903192
17398.3 0.949794
17400.4 0.999210
17402.5 1.05109
17404.6 1.10604
17406.6 1.16368
17408.7 1.22439
17410.8 1.28830
17412.9 1.35591
17415.0 1.42671
17417.1 1.50119
17419.2 1.57951
17421.3 1.66226
17423.4 1.74884
17425.5 1.83983
17427.6 1.93543
17429.7 2.03636
17431.8 2.14188
17433.8 2.25271
17435.9 2.36910
17438.0 2.49192
17440.1 2.62027
17442.2 2.75503
17444.3 2.89651
17446.4 3.04575
17448.5 3.20169
17450.6 3.36538
17452.7 3.53720
17454.8 3.71845
17456.9 3.90781
17459.0 4.10657
17461.0 4.31521
17463.1 4.53529
17465.2 4.76524
17467.3 5.00662
17469.4 5.26002
17471.5 5.52733
17473.6 5.80666
17475.7 6.09991
17477.8 6.40778
17479.9 6.73261
17482.0 7.07207
17484.1 7.42848
17486.2 7.80271
17488.3 8.19756
17490.3 8.61022
17492.4 9.04351
17494.5 9.49844
17496.6 9.97842
17498.7 10.4800
17500.8 11.0066
17502.9 11.5593
17505.0 12.1424
17507.1 12.7514
17509.2 13.3905
17511.3 14.0610
17513.4 14.7678
17515.5 15.5055
17517.5 16.2789
17519.6 17.0895
17521.7 17.9429
17523.8 18.8324
17525.9 19.7635
17528.0 20.7375
17530.3 21.8356
17532.5 22.9868
17534.8 24.1924
17537.0 25.4538
17539.3 26.7721
17541.5 28.1481
17546.0 31.0752
17550.5 34.2345
17555.0 37.6175
17559.5 41.2055
17564.0 44.9673
17568.5 48.8575
17573.0 52.8153
17577.5 56.7650
17582.0 60.6177
17586.5 64.2758
17591.0 67.6385
17595.5 70.6097
17600.0 73.1055
17604.5 75.0621
17609.0 76.4406
17613.5 77.2298
17618.0 77.4451
17622.5 77.1252
17627.0 76.3266
17631.5 75.1172
17636.0 73.5702
17640.5 71.7585
17645.0 69.7507
17654.0 65.3854
17658.5 63.1259
17663.0 60.8660
17667.5 58.6339
17672.0 56.4511
17676.6 54.3099
17681.1 52.2461
17685.7 50.2668
17690.2 48.3799
17694.7 46.5787
17699.3 44.8672
17703.8 43.2438
17708.4 41.7092
17712.9 40.2533
17717.5 38.8762
17722.0 37.5738
17726.6 36.3450
17731.1 35.1804
17735.7 34.0812
17740.2 33.0388
17744.8 32.0542
17749.3 31.1196
17753.9 30.2340
17758.4 29.3943
17762.9 28.5993
17767.5 27.8428
17772.0 27.1241
17776.6 26.4407
17781.1 25.7919
17785.7 25.1727
17790.2 24.5828
17794.8 24.0202
17799.3 23.4846
17803.9 22.9719
17808.4 22.4830
17817.5 21.5671
17826.6 20.7262
17835.7 19.9540
17844.8 19.2413
17853.9 18.5834
17863.0 17.9734
17872.1 17.4076
17881.2 16.8813
17890.3 16.3905
17899.4 15.9315
17908.4 15.5024
17917.5 15.0995
17926.6 14.7216
17935.7 14.3656
17944.8 14.0305
17953.9 13.7142
17963.0 13.4153
17972.1 13.1321
17981.2 12.8639
17990.3 12.6092
17999.4 12.3674
18008.5 12.1372
18017.6 11.9182
18026.7 11.7095
18035.8 11.5102
18053.9 11.1377
18072.1 10.7966
18090.3 10.4830
18108.5 10.1940
18126.7 9.92657
18144.9 9.67857
18163.1 9.44799
18181.3 9.23321
18199.4 9.03248
18217.6 8.84460
18235.8 8.66843
18254.0 8.50302
18272.2 8.34729
18290.4 8.20054
18308.6 8.06206
18326.8 7.93129
18344.9 7.80751
18363.1 7.69030
18399.5 7.47386
18435.9 7.27873
18472.3 7.10248
18508.6 6.94295
18545.0 6.79851
18581.4 6.66767
18617.8 6.54937
18654.1 6.44258
18690.5 6.34661
18726.9 6.26076
18763.3 6.18462
18799.6 6.11776
18836.0 6.05997
18872.4 6.01105
18908.8 5.97097
18945.1 5.93971
18981.5 5.91742
19017.9 5.90427
19054.3 5.90059
19090.6 5.90675
19127.0 5.92326
19163.4 5.95074
19199.8 5.98992
19236.1 6.04172
19272.5 6.10716
19308.9 6.18750
19345.3 6.28417
19381.6 6.39892
19418.0 6.53368
19454.4 6.69087
19490.8 6.87316
19527.1 7.08390
19563.5 7.32679
19599.9 7.60652
19636.3 7.92832
19672.6 8.29881
19690.8 8.50465
19709.0 8.72553
19727.2 8.96291
19745.4 9.21802
19763.6 9.49231
19781.8 9.78725
19799.9 10.1050
19818.1 10.4472
19836.3 10.8163
19854.5 11.2144
19872.7 11.6445
19890.9 12.1095
19909.1 12.6127
19927.3 13.1574
19945.4 13.7483
19963.6 14.3897
19981.8 15.0866
20000.0 15.8442
20015.9 16.5608
20031.8 17.3328
20047.6 18.1661
20063.5 19.0651
20079.4 20.0368
20095.3 21.0864
20111.1 22.2220
20127.0 23.4495
20142.9 24.7783
20158.8 26.2148
20174.6 27.7691
20190.5 29.4477
20206.4 31.2607
20222.3 33.2136
20238.1 35.3150
20254.0 37.5670
20269.4 39.8961
20284.8 42.3660
20300.1 44.9736
20315.5 47.7034
20346.3 53.4493
20377.0 59.3343
20392.4 62.1994
20407.8 64.9195
20423.1 67.4195
20438.5 69.6138
20453.9 71.4243
20469.3 72.7760
20484.6 73.6127
20500.0 73.8960
20515.4 73.6140
20530.8 72.7805
20546.1 71.4329
20561.5 69.6311
20576.9 67.4457
20592.3 64.9597
20607.6 62.2512
20623.0 59.4010
20653.8 53.5359
20684.5 47.7948
20699.9 45.0583
20715.3 42.4420
20730.6 39.9548
20746.0 37.6063
20758.1 35.8568
20770.2 34.1930
20782.3 32.6134
20794.4 31.1170
20806.4 29.6986
20818.5 28.3574
20830.6 27.0879
20842.7 25.8887
20854.8 24.7544
20866.9 23.6823
20879.0 22.6690
20891.0 21.7120
20903.1 20.8064
20915.2 19.9507
20927.3 19.1403
20939.4 18.3740
20951.5 17.6477
20963.6 16.9597
20975.7 16.3075
20987.7 15.6895
21011.9 14.5457
21036.1 13.5134
21060.2 12.5796
21084.4 11.7329
21108.6 10.9634
21132.8 10.2626
21156.9 9.62283
21181.1 9.03812
21205.3 8.50259
21229.4 8.01137
21253.6 7.56002
21277.8 7.14526
21302.0 6.76368
21326.1 6.41253
21350.3 6.08928
21374.5 5.79215
21398.7 5.51926
21422.8 5.26911
21447.0 5.04048
21471.2 4.83237
21495.3 4.64398
21519.5 4.47471
21543.7 4.32413
21567.9 4.19213
21592.0 4.07864
21616.2 3.98384
21640.4 3.90805
21664.5 3.85192
21688.7 3.81621
21712.9 3.80193
21737.1 3.81038
21761.2 3.84311
21785.4 3.90198
21809.6 3.98922
21821.7 4.04431
21833.7 4.10745
21845.8 4.17914
21857.9 4.25971
21870.0 4.34973
21882.1 4.44956
21894.2 4.55991
21906.3 4.68116
21918.3 4.81414
21930.4 4.95942
21942.5 5.11772
21954.6 5.28966
21966.7 5.47638
21978.8 5.67843
21990.9 5.89713
22002.9 6.13314
22015.0 6.38795
22027.1 6.66257
22039.2 6.95826
22051.3 7.27613
22063.4 7.61815
22075.5 7.98533
22087.6 8.37994
22099.6 8.80312
22111.7 9.25747
22123.8 9.74469
22135.9 10.2669
22148.0 10.8260
22160.1 11.4253
22172.2 12.0664
22184.2 12.7530
22196.3 13.4868
22208.4 14.2721
22220.5 15.1105
22232.6 16.0066
22244.7 16.9623
22256.8 17.9823
22268.8 19.0684
22280.9 20.2256
22293.0 21.4551
22302.6 22.4864
22312.2 23.5663
22321.8 24.6980
22331.4 25.8805
22350.6 28.4057
22369.8 31.1441
22388.9 34.0964
22408.1 37.2513
22427.3 40.5893
22446.5 44.0771
22465.7 47.6735
22484.9 51.3179
22504.1 54.9377
22523.3 58.4471
22542.4 61.7584
22561.6 64.7763
22580.8 67.4131
22600.0 69.5925
22619.2 71.2610
22638.4 72.3852
22657.6 72.9589
22676.8 73.0004
22695.9 72.5492
22715.1 71.6604
22734.3 70.3990
22753.5 68.8349
22772.7 67.0346
22791.9 65.0627
22830.3 60.8249
22849.4 58.6474
22868.6 56.4773
22887.8 54.3400
22907.0 52.2557
22928.8 49.9688
22950.6 47.7805
22972.3 45.6966
22994.1 43.7223
23015.9 41.8561
23037.7 40.0978
23059.4 38.4431
23081.2 36.8875
23103.0 35.4252
23124.7 34.0525
23146.5 32.7624
23168.3 31.5510
23190.1 30.4117
23211.8 29.3407
23233.6 28.3328
23255.4 27.3835
23277.2 26.4881
23298.9 25.6437
23320.7 24.8459
23342.5 24.0920
23364.3 23.3784
23386.0 22.7027
23407.8 22.0621
23429.6 21.4542
23451.4 20.8763
23473.1 20.3271
23494.9 19.8042
23516.7 19.3061
23538.4 18.8308
23560.2 18.3773
23582.0 17.9440
23603.8 17.5297
23647.3 16.7529
23690.9 16.0388
23734.4 15.3801
23777.9 14.7707
23821.5 14.2049
23865.0 13.6781
23908.6 13.1863
23952.1 12.7258
23995.7 12.2934
24039.2 11.8864
24082.8 11.5023
24126.3 11.1389
24169.9 10.7941
24213.4 10.4665
24257.0 10.1541
24300.5 9.85579
24344.1 9.57012
24387.6 9.29598
24431.2 9.03231
24474.7 8.77820
24518.2 8.53264
24561.8 8.29488
24605.3 8.06417
24648.9 7.83988
24692.4 7.62125
24736.0 7.40779
24779.5 7.19896
24823.1 6.99438
24866.6 6.79356
24910.2 6.59634
24931.9 6.49895
24953.7 6.40245
24975.5 6.30680
24997.3 6.21202
25019.0 6.11810
25040.8 6.02520
25062.6 5.93331
25084.4 5.84264
25106.1 5.75325
25127.9 5.66544
25149.7 5.57941
25171.4 5.49551
25193.2 5.41412
25215.0 5.33584
25236.8 5.26129
25258.5 5.19138
25280.3 5.12715
25302.1 5.07005
25313.0 5.04468
25323.9 5.02181
25334.8 5.00169
25345.6 4.98470
25356.5 4.97120
25367.4 4.96166
25378.3 4.95658
25389.2 4.95653
25400.1 4.96217
25411.0 4.97428
25421.9 4.99373
25432.7 5.02150
25443.6 5.05880
25454.5 5.10697
25465.4 5.16757
25476.3 5.24236
25487.2 5.33360
25498.1 5.44361
25508.9 5.57551
25519.8 5.73249
25530.7 5.91888
25541.6 6.13935
25552.5 6.39956
25563.4 6.70593
25568.8 6.87928
25574.3 7.06703
25579.7 7.27073
25585.1 7.49172
25590.6 7.73194
25596.0 7.99212
25601.5 8.27445
25606.9 8.58084
25612.4 8.91402
25617.8 9.27505
25623.3 9.66775
25628.7 10.0934
25634.1 10.5564
25639.6 11.0583
25645.0 11.6034
25650.5 12.1952
25655.9 12.8389
25661.4 13.5363
25666.8 14.2929
25672.2 15.1134
25677.7 16.0040
25683.1 16.9664
25688.6 18.0070
25694.0 19.1303
25700.6 20.6174
25707.3 22.2379
25713.9 24.0012
25720.5 25.9037
25727.1 27.9489
25733.8 30.1229
25740.4 32.4177
25747.0 34.8041
25753.6 37.2577
25760.3 39.7300
25766.9 42.1784
25773.5 44.5378
25780.1 46.7526
25786.8 48.7529
25793.4 50.4854
25800.0 51.8945
25806.6 52.9477
25813.3 53.6216
25819.9 53.9158
25826.5 53.8440
25833.1 53.4347
25839.8 52.7289
25846.4 51.7702
25853.0 50.6103
25859.6 49.2932
25866.3 47.8671
25879.5 44.8315
25886.1 43.2830
25892.8 41.7486
25899.4 40.2406
25906.0 38.7761
25911.8 37.5446
25917.5 36.3550
25923.3 35.2097
25929.0 34.1104
25934.8 33.0575
25940.5 32.0509
25946.3 31.0898
25952.0 30.1733
25957.8 29.2998
25963.5 28.4680
25969.3 27.6760
25975.0 26.9222
25980.8 26.2046
25986.5 25.5216
25992.3 24.8713
25998.0 24.2520
26003.8 23.6621
26009.5 23.0999
26015.3 22.5639
26021.0 22.0527
26026.8 21.5649
26032.5 21.0991
26038.3 20.6541
26044.0 20.2287
26049.8 19.8219
26055.5 19.4326
26067.0 18.7027
26078.5 18.0319
26090.0 17.4140
26101.5 16.8434
26113.0 16.3153
26124.5 15.8255
26136.0 15.3702
26147.5 14.9460
26159.0 14.5500
26170.5 14.1796
26182.0 13.8325
26193.5 13.5066
26205.0 13.2000
26216.5 12.9112
26228.0 12.6386
26239.5 12.3809
26251.0 12.1369
26262.5 11.9055
26274.0 11.6858
26285.5 11.4769
26297.0 11.2780
26308.5 11.0884
26320.0 10.9074
26331.5 10.7343
26343.0 10.5688
26366.0 10.2581
26389.0 9.97176
26412.0 9.70683
26435.0 9.46077
26458.0 9.23143
26481.0 9.01696
26504.0 8.81577
26527.0 8.62647
26550.0 8.44786
26573.0 8.27890
26596.0 8.11866
26619.0 7.96633
26642.0 7.82119
26665.0 7.68262
26688.0 7.55003
26711.0 7.42293
26734.0 7.30086
26757.0 7.18341
26780.0 7.07022
26826.0 6.85533
26872.0 6.65386
26918.0 6.46393
26964.0 6.28392
27010.0 6.11250
27056.0 5.94852
27102.0 5.79098
27148.0 5.63903
27194.0 5.49193
27240.0 5.34901
27286.0 5.20969
27332.0 5.07345
27378.0 4.93982
27424.0 4.80838
27470.0 4.67874
27516.0 4.55056
27562.0 4.42350
27608.0 4.29729
27654.0 4.17165
27700.0 4.04635
27746.0 3.92120
27792.0 3.79603
27838.0 3.67072
27884.0 3.54521
27930.0 3.41952
27976.0 3.29376
28022.0 3.16819
28045.0 3.10561
28068.0 3.04326
28091.0 2.98125
28114.0 2.91969
28137.0 2.85873
28160.0 2.79856
28183.0 2.73940
28206.0 2.68151
28229.0 2.62524
28252.0 2.57096
28275.0 2.51918
28298.0 2.47048
28321.0 2.42556
28344.0 2.38530
28367.0 2.35076
28390.0 2.32325
28413.0 2.30436
28436.0 2.29606
28459.0 2.30080
28470.5 2.30898
28482.0 2.32160
28493.5 2.33918
28505.0 2.36226
28516.5 2.39147
28528.0 2.42752
28539.5 2.47119
28551.0 2.52338
28562.5 2.58508
28574.0 2.65743
28585.5 2.74171
28597.0 2.83937
28608.5 2.95206
28620.0 3.08164
28631.5 3.23023
28643.0 3.40026
28654.5 3.59447
28666.0 3.81602
28671.8 3.93815
28677.5 4.06849
28683.3 4.20759
28689.0 4.35600
28694.8 4.51434
28700.5 4.68324
28706.3 4.86341
28712.0 5.05559
28717.8 5.26056
28723.5 5.47919
28729.3 5.71237
28735.0 5.96107
28740.8 6.22633
28746.5 6.50926
28752.3 6.81102
28758.0 7.13288
28763.8 7.47617
28769.5 7.84231
28775.3 8.23281
28781.0 8.64925
28786.8 9.09334
28792.5 9.56684
28798.3 10.0716
28804.0 10.6096
28809.8 11.1830
28815.5 11.7937
28821.3 12.4440
28827.0 13.1361
28832.8 13.8724
28838.5 14.6550
28844.3 15.4863
28850.0 16.3685
28854.7 17.1272
28859.4 17.9223
28864.1 18.7546
28868.8 19.6233
28878.1 21.4815
28887.5 23.4962
28896.9 25.6709
28906.3 27.9947
28915.6 30.4593
28925.0 33.0374
28934.4 35.7031
28943.8 38.4088
28953.1 41.1082
28962.5 43.7349
28971.9 46.2279
28981.3 48.5135
28990.6 50.5312
29000.0 52.2205
29009.4 53.5418
29018.8 54.4664
29028.1 54.9889
29037.5 55.1190
29046.9 54.8837
29056.3 54.3219
29065.6 53.4787
29075.0 52.4058
29084.4 51.1507
29093.8 49.7627
29112.5 46.7456
29121.9 45.1833
29131.3 43.6222
29140.6 42.0784
29150.0 40.5699
29156.7 39.5257
29163.3 38.5081
29169.9 37.5178
29176.6 36.5561
29183.2 35.6240
29189.9 34.7222
29196.5 33.8507
29203.1 33.0095
29209.8 32.1983
29216.4 31.4165
29223.1 30.6637
29229.7 29.9390
29236.3 29.2416
29243.0 28.5706
29256.3 27.3044
29269.5 26.1321
29282.8 25.0481
29296.1 24.0442
29309.4 23.1138
29322.7 22.2505
29335.9 21.4484
29349.2 20.7023
29362.5 20.0073
29375.8 19.3585
29389.1 18.7527
29402.4 18.1860
29415.6 17.6550
29428.9 17.1567
29442.2 16.6885
29455.5 16.2479
29468.8 15.8327
29482.0 15.4406
29495.3 15.0705
29508.6 14.7203
29521.9 14.3886
29535.2 14.0740
29548.4 13.7753
29561.7 13.4914
29575.0 13.2211
29588.3 12.9635
29601.6 12.7180
29614.9 12.4836
29628.1 12.2596
29641.4 12.0454
29654.7 11.8402
29681.3 11.4551
29707.8 11.1000
29734.4 10.7719
29760.9 10.4676
29787.5 10.1845
29814.1 9.92034
29840.6 9.67342
29867.2 9.44192
29893.8 9.22436
29920.3 9.01938
29946.9 8.82597
29973.4 8.64303
30000.0 8.46967
30035.7 8.25040
30071.4 8.04524
30107.1 7.85272
30142.8 7.67159
30178.4 7.50064
30214.1 7.33892
30249.8 7.18558
30285.5 7.03988
30321.0 6.90183
30356.5 6.77008
30392.0 6.64403
30427.4 6.52327
30462.9 6.40731
30498.4 6.29585
30569.4 6.08492
30640.4 5.88809
30711.3 5.70343
30782.3 5.52928
30853.3 5.36432
30924.2 5.20735
30995.2 5.05741
31066.2 4.91368
31137.1 4.77545
31208.1 4.64210
31279.1 4.51313
31350.0 4.38809
31421.0 4.26664
31492.0 4.14841
31562.9 4.03319
31633.9 3.92079
31704.9 3.81106
31775.9 3.70393
31846.8 3.59938
31917.8 3.49748
31988.8 3.39836
32059.7 3.30223
32130.7 3.20943
32201.7 3.12043
32272.6 3.03584
32343.6 2.95650
32414.6 2.88348
32485.5 2.81817
32521.0 2.78895
32556.5 2.76237
32592.0 2.73873
32627.5 2.71839
32663.0 2.70175
32698.4 2.68925
32733.9 2.68143
32769.4 2.67886
32804.9 2.68222
32840.4 2.69229
32875.9 2.70995
32911.4 2.73622
32946.8 2.77228
32982.3 2.81946
33017.8 2.87934
33053.3 2.95368
33088.8 3.04459
33124.3 3.15447
33159.7 3.28618
33195.2 3.44289
33213.0 3.53185
33230.7 3.62850
33248.5 3.73345
33266.2 3.84733
33283.9 3.97087
33301.7 4.10466
33319.4 4.24955
33337.2 4.40639
33354.9 4.57617
33372.7 4.75969
33390.4 4.95810
33408.1 5.17255
33425.9 5.40439
33443.6 5.65470
33461.4 5.92500
33479.1 6.21683
33496.9 6.53199
33514.6 6.87187
33532.3 7.23850
33550.1 7.63382
33567.8 8.06016
33585.6 8.51922
33603.3 9.01350
33621.0 9.54535
33638.8 10.1172
33656.5 10.7314
33674.3 11.3906
33692.0 12.0969
33704.8 12.6351
33717.5 13.1997
33730.3 13.7914
33743.0 14.4108
33768.5 15.7349
33794.0 17.1747
33819.5 18.7297
33845.0 20.3953
33870.5 22.1621
33896.0 24.0142
33921.5 25.9286
33947.0 27.8750
33972.5 29.8154
33998.0 31.7057
34023.5 33.4974
34049.0 35.1406
34074.5 36.5880
34100.0 37.7986
34125.5 38.7414
34151.0 39.3976
34176.5 39.7623
34202.0 39.8436
34227.5 39.6609
34253.0 39.2422
34278.5 38.6213
34304.0 37.8342
34329.5 36.9167
34355.0 35.9027
34406.0 33.7021
34431.5 32.5636
34457.0 31.4247
34482.5 30.2991
34508.0 29.1975
34542.4 27.7612
34576.9 26.3950
34611.3 25.1047
34645.7 23.8928
34680.1 22.7584
34714.5 21.6997
34749.0 20.7128
34783.4 19.7935
34817.8 18.9369
34852.2 18.1389
34886.7 17.3949
34921.1 16.7004
34955.5 16.0514
34989.9 15.4442
35024.3 14.8752
35058.8 14.3413
35093.2 13.8393
35127.6 13.3669
35162.0 12.9215
35196.4 12.5009
35230.9 12.1031
35265.3 11.7263
35299.7 11.3689
35334.1 11.0294
35368.6 10.7064
35403.0 10.3988
35437.4 10.1055
35471.8 9.82549
35506.2 9.55796
35540.7 9.30212
35575.1 9.05732
35609.5 8.82298
35643.9 8.59854
35678.4 8.38376
35712.8 8.17824
35747.2 7.98177
35781.6 7.79418
35816.0 7.61555
35850.5 7.44593
35884.9 7.28553
35919.3 7.13466
35953.7 6.99394
35988.2 6.86402
36022.6 6.74583
36057.0 6.64056
36091.4 6.54970
36125.8 6.47513
36160.3 6.41918
36194.7 6.38474
36229.1 6.37542
36263.5 6.39564
36280.7 6.41849
36297.9 6.45089
36315.2 6.49374
36332.4 6.54801
36349.6 6.61481
36366.8 6.69539
36384.0 6.79113
36401.2 6.90357
36418.4 7.03442
36435.6 7.18559
36452.9 7.35934
36470.1 7.55784
36487.3 7.78384
36504.5 8.04029
36521.7 8.33048
36538.9 8.65804
36556.1 9.02703
36573.3 9.44189
36590.5 9.90752
36607.7 10.4293
36625.0 11.0130
36642.2 11.6650
36659.4 12.3920
36676.6 13.2009
36693.8 14.0991
36711.0 15.0940
36729.1 16.2503
36747.1 17.5276
36765.2 18.9330
36783.3 20.4703
36801.3 22.1416
36819.4 23.9419
36837.4 25.8633
36855.5 27.8905
36873.6 30.0014
36891.6 32.1621
36909.7 34.3336
36927.8 36.4684
36945.8 38.5144
36963.9 40.4142
36981.9 42.1153
37000.0 43.5703
37018.1 44.7424
37036.1 45.6062
37054.2 46.1530
37072.3 46.3880
37090.3 46.3292
37108.4 46.0047
37126.4 45.4495
37144.5 44.7017
37162.6 43.7996
37180.6 42.7809
37216.8 40.5224
37234.8 39.3360
37252.9 38.1410
37270.9 36.9529
37289.0 35.7840
37313.7 34.2343
37338.4 32.7541
37363.0 31.3517
37387.7 30.0312
37412.4 28.7926
37437.0 27.6352
37461.7 26.5551
37486.4 25.5482
37511.1 24.6095
37535.7 23.7350
37560.4 22.9196
37585.1 22.1589
37609.7 21.4483
37634.4 20.7840
37659.1 20.1620
37683.8 19.5791
37708.4 19.0317
37733.1 18.5174
37757.8 18.0334
37782.4 17.5772
37807.1 17.1463
37831.8 16.7393
37856.5 16.3540
37881.1 15.9888
37905.8 15.6421
37930.5 15.3127
37955.2 14.9992
37979.8 14.7006
38004.5 14.4156
38029.2 14.1435
38053.8 13.8832
38078.5 13.6340
38103.2 13.3950
38127.9 13.1658
38177.2 12.7338
38226.5 12.3334
38275.9 11.9609
38325.2 11.6130
38374.6 11.2868
38423.9 10.9798
38473.3 10.6901
38522.6 10.4155
38571.9 10.1547
38621.3 9.90595
38670.6 9.66820
38720.0 9.44018
38769.3 9.22095
38818.7 9.00956
38868.0 8.80519
38938.8 8.52291
39009.5 8.25162
39080.3 7.98966
39115.6 7.86170
39151.0 7.73560
39186.4 7.61114
39221.8 7.48825
39257.1 7.36677
39292.5 7.24667
39327.9 7.12779
39363.3 7.01014
39398.6 6.89364
39434.0 6.77832
39469.4 6.66415
39504.8 6.55125
39540.1 6.43965
39575.5 6.32957
39610.9 6.22116
39646.3 6.11478
39681.6 6.01074
39717.0 5.90962
39752.4 5.81199
39787.8 5.71877
39823.1 5.63095
39858.5 5.54994
39893.9 5.47743
39911.6 5.44504
39929.3 5.41566
39946.9 5.38963
39964.6 5.36740
39982.3 5.34943
40000.0 5.33628
40027.9 5.32679
40055.9 5.33368
40083.8 5.36042
40097.8 5.38253
40111.8 5.41125
40125.7 5.44731
40139.7 5.49145
40153.7 5.54452
40167.6 5.60746
40181.6 5.68131
40195.6 5.76722
40209.5 5.86650
40223.5 5.98049
40237.5 6.11094
40251.4 6.25954
40265.4 6.42825
40279.4 6.61927
40293.4 6.83499
40307.3 7.07808
40321.3 7.35151
40335.3 7.65827
40349.2 8.00236
40363.2 8.38746
40377.2 8.81780
40391.1 9.29794
40405.1 9.83274
40419.1 10.4274
40433.0 11.0872
40447.0 11.8172
40454.9 12.2642
40462.8 12.7367
40470.7 13.2355
40478.6 13.7609
40486.5 14.3149
40494.4 14.8970
40510.3 16.1504
40526.1 17.5251
40541.9 19.0191
40557.7 20.6286
40573.5 22.3437
40589.3 24.1490
40605.1 26.0182
40620.9 27.9211
40636.8 29.8194
40652.6 31.6702
40668.4 33.4241
40684.2 35.0355
40700.0 36.4613
40715.8 37.6667
40731.6 38.6246
40747.4 39.3227
40763.3 39.7597
40779.1 39.9460
40794.9 39.9007
40810.7 39.6498
40826.5 39.2230
40842.3 38.6510
40858.1 37.9647
40889.8 36.3576
40905.6 35.4830
40921.4 34.5871
40937.2 33.6841
40953.0 32.7856
40965.1 32.1073
40977.2 31.4400
40989.3 30.7862
41001.4 30.1482
41013.4 29.5264
41025.5 28.9228
41037.6 28.3370
41049.7 27.7703
41061.8 27.2219
41073.9 26.6923
41086.0 26.1811
41098.0 25.6886
41110.1 25.2134
41122.2 24.7560
41134.3 24.3150
41146.4 23.8907
41158.5 23.4817
41170.6 23.0879
41182.7 22.7086
41194.7 22.3436
41218.9 21.6531
41243.1 21.0118
41267.2 20.4157
41291.4 19.8609
41315.6 19.3438
41339.8 18.8612
41363.9 18.4100
41388.1 17.9878
41412.3 17.5920
41436.4 17.2204
41460.6 16.8709
41484.8 16.5420
41509.0 16.2318
41533.1 15.9390
41557.3 15.6619
41581.5 15.3998
41605.7 15.1512
41629.8 14.9153
41654.0 14.6911
41678.2 14.4778
41702.3 14.2746
41726.5 14.0809
41750.7 13.8958
41774.9 13.7191
41799.0 13.5500
41823.2 13.3881
41847.4 13.2329
41871.5 13.0841
41919.9 12.8040
41968.2 12.5448
42016.6 12.3045
42064.9 12.0808
42113.3 11.8722
42161.6 11.6769
42209.9 11.4939
42258.3 11.3219
42306.6 11.1598
42355.0 11.0069
42403.3 10.8622
42451.7 10.7252
42500.0 10.5952
42500.0 14.0464
44375.0 13.6009
46250.0 13.1871
48125.0 12.8016
50000.0 12.4415
51949.9 12.2246
55975.0 11.8124
60000.0 11.4413
62500.0 11.1675
65000.0 10.9106
70000.0 10.4412
75000.0 10.0213
80000.0 9.64379
85000.0 9.33300
90000.0 9.04916
95000.0 8.73897
100000 8.45453
105000 8.25191
105001 8.25189
110000 8.06325
115000 7.86092
120000 7.67196
125000 7.46985
130000 7.28068
140000 7.05348
150000 6.82628
160000 6.59908
170000 6.37187
180000 6.14467
190000 5.91747
200000 5.69027
215511 5.50740
225000 5.40459
230768 5.33868
230768 5.33868
230840 5.33780
230912 5.33693
231057 5.33517
231201 5.33343
231346 5.33167
231636 5.32816
231926 5.32466
232216 5.32117
232507 5.31767
233089 5.31069
233673 5.30372
234258 5.29676
235433 5.28286
236614 5.26900
237801 5.25517
240192 5.22764
242607 5.20025
245047 5.17299
247524 5.14524
250000 5.11892
262500 4.96943
275000 4.83324
287500 4.68475
300000 4.54756
313313 4.46439
326626 4.38661
328873 4.37181
331120 4.35719
333367 4.34274
335614 4.32847
337861 4.31435
340108 4.30040
342355 4.28661
344602 4.27298
346849 4.25951
349095 4.24618
351342 4.23301
353589 4.21998
355836 4.20710
358083 4.19435
360330 4.18175
362577 4.16929
362577 4.16929
368000 4.13452
373423 4.10061
379034 4.06619
384646 4.03263
390257 3.99988
395868 3.96791
396244 3.96579
397898 3.95575
400000 3.94308
425000 3.84480
450000 3.75533
475000 3.67352
500000 3.59839
525530 3.54342
551060 3.49261
570321 3.45599
600000 3.40261
623571 3.37648
647142 3.35204
660506 3.33851
700000 3.30035
725000 3.28883
750000 3.27820
775000 3.26839
800000 3.25934
800000 3.25934
800000 3.25934
826595 3.25907
853189 3.25920
893002 3.25909
898522 3.25907
899844 3.25907
900000 3.25907
928377 3.26653
928377 3.26648
928479 3.26656
928479 3.26656
953949 3.27186
979419 3.28008
1.00000E+06 3.28536
1.00738E+06 3.28900
1.00798E+06 3.28929
1.03482E+06 3.30209
1.06165E+06 3.31505
1.06206E+06 3.31524
1.10000E+06 3.33279
1.12235E+06 3.34369
1.14387E+06 3.35402
1.18295E+06 3.37237
1.18315E+06 3.37247
1.20000E+06 3.38022
1.20843E+06 3.38504
1.20897E+06 3.38534
1.23973E+06 3.40255
1.27048E+06 3.41968
1.30000E+06 3.43569
1.30000E+06 3.43569
1.30000E+06 3.43569
1.32768E+06 3.45105
1.32768E+06 3.45105
1.34909E+06 3.46295
1.35839E+06 3.46808
1.40000E+06 3.49117
1.41933E+06 3.50193
1.43021E+06 3.50793
1.43021E+06 3.50793
1.45125E+06 3.51975
1.47982E+06 3.53559
1.50000E+06 3.54664
1.50482E+06 3.54857
1.52550E+06 3.55679
1.52952E+06 3.55840
1.54906E+06 3.56616
1.54907E+06 3.56616
1.57981E+06 3.57844
1.59324E+06 3.58374
1.60000E+06 3.58643
1.62061E+06 3.59480
1.66031E+06 3.61057
1.70000E+06 3.62623
1.71107E+06 3.63063
1.71107E+06 3.63063
1.73453E+06 3.63997
1.73454E+06 3.63996
1.73454E+06 3.63996
1.73749E+06 3.64115
1.73749E+06 3.64115
1.75361E+06 3.64756
1.75361E+06 3.64756
1.75943E+06 3.64988
1.76004E+06 3.65012
1.76004E+06 3.65012
1.78687E+06 3.66080
1.78687E+06 3.66080
1.79707E+06 3.66486
1.79707E+06 3.66480
1.79789E+06 3.66518
1.80000E+06 3.66602
1.83889E+06 3.68152
1.84737E+06 3.68487
1.90000E+06 3.70582
1.92041E+06 3.71394
1.92042E+06 3.71394
1.93145E+06 3.71837
1.97510E+06 3.73570
1.97972E+06 3.73755
1.99197E+06 3.74242
1.99346E+06 3.74301
1.99346E+06 3.74301
2.00000E+06 3.74561
2.03958E+06 3.75175
2.07916E+06 3.75790
2.07917E+06 3.75790
2.11640E+06 3.76369
2.15363E+06 3.76946
2.15363E+06 3.76946
2.17608E+06 3.77295
2.18070E+06 3.77367
2.20566E+06 3.77754
2.20566E+06 3.77754
2.24301E+06 3.78335
2.24803E+06 3.78413
2.25000E+06 3.78443
2.30231E+06 3.79259
2.35461E+06 3.80067
2.35930E+06 3.80139
2.35930E+06 3.80139
2.39134E+06 3.80637
2.39596E+06 3.80709
2.44076E+06 3.81405
2.44745E+06 3.81508
2.46840E+06 3.81834
2.47295E+06 3.81904
2.47295E+06 3.81904
2.47397E+06 3.81920
2.47397E+06 3.81920
2.50000E+06 3.82324
2.50280E+06 3.82325
2.50458E+06 3.82325
2.52835E+06 3.82330
2.53314E+06 3.82331
2.53314E+06 3.82331
2.59184E+06 3.82344
2.61202E+06 3.82348
2.62449E+06 3.82350
2.62551E+06 3.82351
2.66529E+06 3.82359
2.69896E+06 3.82366
2.75000E+06 3.82376
2.76204E+06 3.82379
2.78466E+06 3.82384
2.83975E+06 3.82395
2.85607E+06 3.82399
2.86423E+06 3.82400
2.87597E+06 3.82403
2.90729E+06 3.82409
2.95095E+06 3.82418
3.00000E+06 3.82428
3.12500E+06 3.81425
3.25000E+06 3.80461
3.37500E+06 3.79532
3.50000E+06 3.78637
3.62500E+06 3.77161
3.75000E+06 3.75729
4.00000E+06 3.72984
4.25000E+06 3.69628
4.50000E+06 3.66461
5.00000E+06 3.59511
5.50000E+06 3.52284
5.74456E+06 3.48506
5.84282E+06 3.47044
6.00000E+06 3.44768
6.24500E+06 3.40811
6.50000E+06 3.36900
6.74537E+06 3.32755
7.00000E+06 3.28660
7.25249E+06 3.24244
7.41611E+06 3.21489
7.46082E+06 3.20751
7.48533E+06 3.20348
7.49852E+06 3.20132
7.50000E+06 3.20108
7.60109E+06 3.18283
7.64041E+06 3.17581
7.76604E+06 3.15374
7.76605E+06 3.15374
7.88513E+06 3.13326
7.88514E+06 3.13326
8.00000E+06 3.11390
8.11231E+06 3.09371
8.14978E+06 3.08706
8.36413E+06 3.04983
8.39783E+06 3.04409
8.39891E+06 3.04391
8.40694E+06 3.04255
8.41381E+06 3.04139
8.50000E+06 3.02691
8.56096E+06 3.01620
8.61836E+06 3.00622
8.61907E+06 3.00609
8.76945E+06 2.98039
8.88351E+06 2.96131
8.94286E+06 2.95152
8.94676E+06 2.95088
9.00000E+06 2.94218
9.08223E+06 2.92846
9.16937E+06 2.91412
9.19956E+06 2.90920
9.34034E+06 2.88656
9.36111E+06 2.88326
9.36111E+06 2.88326
9.36351E+06 2.88288
9.38186E+06 2.87998
9.42472E+06 2.87323
9.50000E+06 2.86148
9.52164E+06 2.85810
9.52446E+06 2.85766
9.52447E+06 2.85765
9.53433E+06 2.85612
9.55531E+06 2.85285
9.61999E+06 2.84286
9.66549E+06 2.83588
9.66855E+06 2.83542
9.70538E+06 2.82981
9.70700E+06 2.82957
9.73792E+06 2.82489
9.77567E+06 2.81920
9.83790E+06 2.80990
9.86514E+06 2.80586
9.88993E+06 2.80219
9.91339E+06 2.79874
1.00000E+07 2.78608
1.00891E+07 2.77388
1.01081E+07 2.77129
1.02360E+07 2.75410
1.02808E+07 2.74815
1.05000E+07 2.71957
1.08238E+07 2.67596
1.08899E+07 2.66730
1.10000E+07 2.65305
1.10551E+07 2.64674
1.10713E+07 2.64489
1.11666E+07 2.63411
1.11927E+07 2.63119
1.12050E+07 2.62981
1.13455E+07 2.61424
1.14559E+07 2.60220
1.14724E+07 2.60042
1.15000E+07 2.59744
1.15402E+07 2.59283
1.15520E+07 2.59149
1.15801E+07 2.58828
1.16249E+07 2.58321
1.16456E+07 2.58087
1.16958E+07 2.57523
1.16961E+07 2.57520
1.18193E+07 2.56151
1.18194E+07 2.56150
1.18827E+07 2.55455
1.18937E+07 2.55335
1.19229E+07 2.55017
1.19254E+07 2.54990
1.19509E+07 2.54713
1.19529E+07 2.54692
1.20000E+07 2.54183
1.20477E+07 2.53719
1.20563E+07 2.53636
1.20611E+07 2.53589
1.20768E+07 2.53438
1.21065E+07 2.53151
1.21641E+07 2.52599
1.22019E+07 2.52238
1.22151E+07 2.52113
1.22355E+07 2.51920
1.22423E+07 2.51855
1.22529E+07 2.51755
1.22590E+07 2.51697
1.22620E+07 2.51669
1.23135E+07 2.51184
1.23284E+07 2.51045
1.23875E+07 2.50494
1.24545E+07 2.49873
1.25000E+07 2.49455
1.29374E+07 2.45303
1.29850E+07 2.44865
1.30000E+07 2.44727
1.35000E+07 2.40613
1.40000E+07 2.36499
1.41496E+07 2.35405
1.41497E+07 2.35404
1.45000E+07 2.32917
1.47500E+07 2.31097
1.50000E+07 2.29334
1.52500E+07 2.27788
1.55000E+07 2.26285
1.57500E+07 2.24740
1.60000E+07 2.23236
1.64191E+07 2.21150
1.64191E+07 2.21150
1.65000E+07 2.20757
1.70000E+07 2.18278
1.75000E+07 2.16402
1.80000E+07 2.14526
1.82500E+07 2.13882
1.85000E+07 2.13246
1.87500E+07 2.12602
1.90000E+07 2.11965
1.92500E+07 2.11605
1.95000E+07 2.11247
1.97500E+07 2.10887
2.00000E+07 2.10529
