Ge-70(n,tot) ENDFB-8.0
Energy(eV) XS(b)
1.00000E-05 249.430
1.03125E-05 245.648
1.06250E-05 242.034
1.09375E-05 238.577
1.12500E-05 235.265
1.15625E-05 232.088
1.18750E-05 229.038
1.21875E-05 226.107
1.25000E-05 223.286
1.28125E-05 220.570
1.31250E-05 217.951
1.34375E-05 215.425
1.37500E-05 212.985
1.43750E-05 208.347
1.50000E-05 204.004
1.56250E-05 199.924
1.62500E-05 196.083
1.68750E-05 192.458
1.75000E-05 189.030
1.81250E-05 185.781
1.87500E-05 182.697
1.93750E-05 179.764
2.00000E-05 176.970
2.09375E-05 173.017
2.18750E-05 169.322
2.28125E-05 165.858
2.37500E-05 162.603
2.46875E-05 159.536
2.56250E-05 156.639
2.65625E-05 153.898
2.75000E-05 151.300
2.84375E-05 148.831
2.93750E-05 146.483
3.03125E-05 144.245
3.12500E-05 142.109
3.21875E-05 140.068
3.31250E-05 138.115
3.40625E-05 136.243
3.50000E-05 134.448
3.59375E-05 132.724
3.68750E-05 131.066
3.78125E-05 129.472
3.87500E-05 127.935
3.96875E-05 126.454
4.06250E-05 125.026
4.25000E-05 122.312
4.43750E-05 119.774
4.62500E-05 117.393
4.81250E-05 115.155
5.00000E-05 113.044
5.15625E-05 111.375
5.31250E-05 109.781
5.46875E-05 108.257
5.62500E-05 106.797
5.78125E-05 105.397
5.93750E-05 104.054
6.09375E-05 102.763
6.25000E-05 101.522
6.40625E-05 100.327
6.56250E-05 99.1755
6.71875E-05 98.0650
6.87500E-05 96.9931
7.18750E-05 94.9565
7.50000E-05 93.0504
7.81250E-05 91.2617
8.12500E-05 89.5788
8.43750E-05 87.9917
8.75000E-05 86.4920
9.06250E-05 85.0718
9.37500E-05 83.7246
9.68750E-05 82.4443
0.000100000 81.2256
0.000103125 80.0638
0.000106250 78.9548
0.000109375 77.8946
0.000112500 76.8798
0.000115625 75.9073
0.000118750 74.9744
0.000121875 74.0784
0.000125000 73.2170
0.000128125 72.3881
0.000131250 71.5896
0.000134375 70.8199
0.000137500 70.0773
0.000143750 68.6672
0.000150000 67.3485
0.000156250 66.1120
0.000162500 64.9496
0.000168750 63.8542
0.000175000 62.8199
0.000181250 61.8412
0.000187500 60.9134
0.000193750 60.0324
0.000200000 59.1944
0.000209375 58.0110
0.000218750 56.9072
0.000228125 55.8746
0.000237500 54.9062
0.000246875 53.9956
0.000256250 53.1375
0.000265625 52.3272
0.000275000 51.5603
0.000284375 50.8334
0.000293750 50.1431
0.000303125 49.4866
0.000312500 48.8612
0.000321875 48.2646
0.000331250 47.6948
0.000340625 47.1498
0.000350000 46.6279
0.000359375 46.1276
0.000368750 45.6476
0.000378125 45.1864
0.000387500 44.7429
0.000396875 44.3162
0.000406250 43.9050
0.000425000 43.1262
0.000443750 42.4001
0.000462500 41.7211
0.000481250 41.0844
0.000500000 40.4861
0.000515625 40.0141
0.000531250 39.5644
0.000546875 39.1353
0.000562500 38.7254
0.000578125 38.3332
0.000593750 37.9576
0.000609375 37.5975
0.000625000 37.2518
0.000640625 36.9197
0.000656250 36.6004
0.000671875 36.2929
0.000687500 35.9968
0.000718750 35.4356
0.000750000 34.9123
0.000781250 34.4228
0.000812500 33.9638
0.000843750 33.5322
0.000875000 33.1257
0.000906250 32.7418
0.000937500 32.3786
0.000968750 32.0344
0.00100000 31.7075
0.00103125 31.3967
0.00106250 31.1007
0.00109375 30.8183
0.00112500 30.5486
0.00115625 30.2907
0.00118750 30.0438
0.00121875 29.8071
0.00125000 29.5799
0.00128125 29.3617
0.00131250 29.1519
0.00134375 28.9499
0.00137500 28.7554
0.00143750 28.3867
0.00150000 28.0430
0.00156250 27.7214
0.00162500 27.4198
0.00168750 27.1362
0.00175000 26.8690
0.00181250 26.6165
0.00187500 26.3777
0.00193750 26.1512
0.00200000 25.9360
0.00209375 25.6327
0.00218750 25.3502
0.00228125 25.0864
0.00237500 24.8393
0.00246875 24.6072
0.00256250 24.3887
0.00265625 24.1825
0.00275000 23.9875
0.00284375 23.8028
0.00293750 23.6275
0.00303125 23.4608
0.00312500 23.3021
0.00321875 23.1507
0.00331250 23.0061
0.00340625 22.8679
0.00350000 22.7355
0.00359375 22.6086
0.00368750 22.4868
0.00378125 22.3697
0.00387500 22.2572
0.00396875 22.1488
0.00406250 22.0444
0.00425000 21.8466
0.00443750 21.6620
0.00462500 21.4892
0.00481250 21.3271
0.00500000 21.1746
0.00515625 21.0542
0.00531250 20.9394
0.00546875 20.8297
0.00562500 20.7248
0.00578125 20.6244
0.00593750 20.5281
0.00609375 20.4357
0.00625000 20.3469
0.00640625 20.2615
0.00656250 20.1793
0.00671875 20.1001
0.00687500 20.0237
0.00718750 19.8787
0.00750000 19.7432
0.00781250 19.6162
0.00812500 19.4969
0.00843750 19.3845
0.00875000 19.2783
0.00906250 19.1779
0.00937500 19.0827
0.00968750 18.9923
0.0100000 18.9064
0.0103125 18.8244
0.0106250 18.7463
0.0109375 18.6716
0.0112500 18.6001
0.0115625 18.5316
0.0118750 18.4660
0.0121875 18.4029
0.0125000 18.3423
0.0128125 18.2840
0.0131250 18.2279
0.0134375 18.1737
0.0137500 18.1215
0.0143750 18.0224
0.0150000 17.9296
0.0156250 17.8427
0.0162500 17.7609
0.0168750 17.6838
0.0175000 17.6110
0.0181250 17.5421
0.0187500 17.4767
0.0193750 17.4146
0.0200000 17.3555
0.0206625 17.2959
0.0213250 17.2391
0.0219875 17.1850
0.0226500 17.1333
0.0233125 17.0839
0.0239750 17.0366
0.0246375 16.9912
0.0253000 16.9477
0.0264578 16.8757
0.0276156 16.8084
0.0287734 16.7452
0.0299313 16.6858
0.0310891 16.6299
0.0322469 16.5770
0.0334047 16.5269
0.0345625 16.4795
0.0355274 16.4417
0.0364922 16.4055
0.0374570 16.3707
0.0384219 16.3373
0.0393867 16.3051
0.0403516 16.2740
0.0413164 16.2441
0.0422813 16.2153
0.0442109 16.1604
0.0461406 16.1091
0.0480703 16.0610
0.0500000 16.0157
0.0515625 15.9810
0.0531250 15.9478
0.0546875 15.9160
0.0562500 15.8856
0.0578125 15.8565
0.0593750 15.8285
0.0609375 15.8017
0.0625000 15.7758
0.0640625 15.7510
0.0656250 15.7270
0.0671875 15.7039
0.0687500 15.6816
0.0718750 15.6392
0.0750000 15.5995
0.0781250 15.5622
0.0812500 15.5271
0.0843750 15.4940
0.0875000 15.4627
0.0906250 15.4330
0.0937500 15.4048
0.0968750 15.3781
0.100000 15.3526
0.103125 15.3283
0.106250 15.3050
0.109375 15.2828
0.112500 15.2615
0.115625 15.2411
0.118750 15.2215
0.121875 15.2027
0.125000 15.1846
0.128125 15.1671
0.131250 15.1503
0.134375 15.1341
0.137500 15.1185
0.143750 15.0887
0.150000 15.0608
0.156250 15.0346
0.162500 15.0100
0.168750 14.9867
0.175000 14.9646
0.181250 14.9438
0.187500 14.9239
0.193750 14.9051
0.200000 14.8871
0.209375 14.8617
0.218750 14.8379
0.228125 14.8156
0.237500 14.7946
0.246875 14.7748
0.256250 14.7561
0.265625 14.7384
0.275000 14.7216
0.284375 14.7056
0.293750 14.6904
0.303125 14.6759
0.312500 14.6620
0.321875 14.6488
0.331250 14.6361
0.340625 14.6239
0.350000 14.6122
0.359375 14.6010
0.368750 14.5902
0.378125 14.5797
0.387500 14.5697
0.396875 14.5600
0.406250 14.5507
0.425000 14.5329
0.443750 14.5162
0.462500 14.5005
0.500000 14.4717
0.531250 14.4500
0.562500 14.4301
0.593750 14.4117
0.625000 14.3946
0.687500 14.3638
0.750000 14.3368
0.812500 14.3128
0.875000 14.2912
0.937500 14.2717
1.00000 14.2538
1.06250 14.2374
1.12500 14.2222
1.18750 14.2081
1.25000 14.1949
1.37500 14.1710
1.50000 14.1497
1.62500 14.1305
1.75000 14.1130
1.87500 14.0970
2.00000 14.0821
2.18750 14.0617
2.37500 14.0432
2.56250 14.0261
2.75000 14.0103
2.93750 13.9956
3.12500 13.9817
3.31250 13.9686
3.50000 13.9561
3.87500 13.9328
4.25000 13.9113
4.62500 13.8913
5.00000 13.8723
5.31250 13.8573
5.62500 13.8428
5.93750 13.8288
6.25000 13.8153
6.87500 13.7893
7.50000 13.7645
8.12500 13.7408
8.75000 13.7178
9.37500 13.6956
10.0000 13.6739
10.6250 13.6527
11.2500 13.6320
11.8750 13.6117
12.5000 13.5917
13.7500 13.5526
15.0000 13.5146
16.2500 13.4774
17.5000 13.4410
18.7500 13.4052
20.0000 13.3700
21.8750 13.3182
23.7500 13.2673
25.6250 13.2173
27.5000 13.1681
29.3750 13.1196
31.2500 13.0718
33.1250 13.0247
35.0000 12.9781
36.8750 12.9321
38.7500 12.8866
42.5000 12.7971
46.2500 12.7095
50.0000 12.6237
53.1250 12.5534
56.2500 12.4842
59.3750 12.4161
62.5000 12.3490
65.6250 12.2828
68.7500 12.2177
71.8750 12.1534
75.0000 12.0900
81.2500 11.9659
87.5000 11.8451
93.7500 11.7274
100.000 11.6127
106.250 11.5009
112.500 11.3918
118.750 11.2854
125.000 11.1814
131.250 11.0799
137.500 10.9807
143.750 10.8838
150.000 10.7890
156.250 10.6962
162.500 10.6055
168.750 10.5167
175.000 10.4298
187.500 10.2612
200.000 10.0993
209.375 9.98193
218.750 9.86793
228.125 9.75710
237.500 9.64928
246.875 9.54432
256.250 9.44209
265.625 9.34245
275.000 9.24529
284.375 9.15048
293.750 9.05792
303.125 8.96751
312.500 8.87915
331.250 8.70816
350.000 8.54423
368.750 8.38673
387.500 8.23507
406.250 8.08868
425.000 7.94706
443.750 7.80972
462.500 7.67620
481.250 7.54608
500.000 7.41892
515.625 7.31494
531.250 7.21251
546.875 7.11140
562.500 7.01138
578.125 6.91222
593.750 6.81369
609.375 6.71553
625.000 6.61750
640.625 6.51934
654.297 6.43308
667.969 6.34629
681.641 6.25874
695.313 6.17024
708.984 6.08053
722.656 5.98937
736.328 5.89648
750.000 5.80148
762.695 5.71073
775.391 5.61747
781.738 5.57034
788.086 5.52199
800.781 5.42267
813.477 5.31976
826.172 5.21235
838.867 5.09995
845.215 5.04178
851.563 4.98208
857.422 4.92530
863.281 4.86707
869.141 4.80741
875.000 4.74614
883.789 4.65045
892.578 4.55013
896.973 4.49825
901.367 4.44478
905.762 4.39041
910.156 4.33385
914.551 4.27648
918.945 4.21671
923.340 4.15574
927.734 4.09264
932.129 4.02805
936.524 3.96102
940.918 3.89177
945.313 3.82017
950.684 3.72916
956.055 3.63423
961.426 3.53498
966.797 3.43093
972.168 3.32201
977.539 3.20749
980.225 3.14813
982.910 3.08707
985.596 3.02453
988.281 2.96042
992.188 2.86393
996.094 2.76396
1000.00 2.65955
1000.00 2.65953
1000.01 2.65942
1000.01 2.65931
1000.02 2.65912
1000.03 2.65874
1000.06 2.65797
1000.11 2.65644
1000.23 2.65336
1000.45 2.64717
1000.91 2.63476
1001.81 2.60979
1003.62 2.55911
1007.23 2.45486
1010.84 2.34658
1014.45 2.23411
1018.07 2.11727
1021.68 1.99595
1023.49 1.93355
1025.29 1.87004
1027.10 1.80533
1028.91 1.73951
1030.71 1.67250
1032.52 1.60441
1034.33 1.53518
1036.13 1.46492
1037.94 1.39361
1039.75 1.32139
1041.55 1.24828
1043.36 1.17446
1045.17 1.09999
1046.97 1.02513
1048.78 0.950009
1050.58 0.874983
1052.39 0.800294
1054.20 0.726427
1056.00 0.653795
1057.81 0.583086
1059.62 0.514964
1060.52 0.482149
1061.42 0.450385
1062.33 0.419750
1063.23 0.390474
1064.13 0.362706
1064.59 0.349435
1065.04 0.336647
1065.49 0.324314
1065.94 0.312496
1066.39 0.301226
1066.84 0.290559
1067.30 0.280485
1067.75 0.271086
1068.20 0.262360
1068.65 0.254389
1069.10 0.247181
1069.55 0.240803
1070.01 0.235305
1070.46 0.230748
1070.91 0.227170
1071.36 0.224645
1071.81 0.223224
1072.04 0.222952
1072.26 0.222982
1072.49 0.223323
1072.72 0.223986
1072.83 0.224442
1072.94 0.224981
1073.05 0.225605
1073.17 0.226316
1073.22 0.226707
1073.28 0.227114
1073.34 0.227551
1073.39 0.228002
1073.45 0.228483
1073.51 0.228979
1073.56 0.229507
1073.59 0.229775
1073.62 0.230049
1073.65 0.230338
1073.68 0.230624
1073.70 0.230915
1073.73 0.231212
1073.76 0.231525
1073.79 0.231834
1073.85 0.232468
1073.90 0.233139
1073.96 0.233821
1074.01 0.234528
1074.07 0.235258
1074.13 0.236026
1074.18 0.236806
1074.30 0.238454
1074.41 0.240203
1074.52 0.242055
1074.64 0.244013
1074.75 0.246076
1074.97 0.250506
1075.20 0.255400
1075.43 0.260750
1075.65 0.266571
1075.88 0.272847
1076.10 0.279650
1076.33 0.286968
1076.55 0.294815
1076.78 0.303208
1077.01 0.312164
1077.23 0.321699
1077.46 0.331831
1077.68 0.342529
1077.91 0.353908
1078.14 0.365940
1078.36 0.378645
1078.59 0.391983
1078.81 0.406094
1079.04 0.420943
1079.26 0.436551
1079.49 0.452869
1079.72 0.470066
1079.94 0.488096
1080.17 0.506985
1080.39 0.526760
1080.62 0.547449
1080.85 0.569081
1081.07 0.591685
1081.30 0.615186
1081.52 0.639825
1081.75 0.665532
1081.97 0.692341
1082.20 0.720162
1082.43 0.749279
1082.65 0.779609
1082.88 0.811190
1083.10 0.843916
1083.33 0.878120
1083.55 0.913702
1083.78 0.950709
1084.01 0.989188
1084.23 1.02919
1084.46 1.07076
1084.68 1.11395
1084.91 1.15862
1085.14 1.20522
1085.36 1.25362
1085.59 1.30387
1085.81 1.35580
1086.26 1.46615
1086.72 1.58472
1087.17 1.71266
1087.62 1.85036
1088.07 1.99853
1088.52 2.15758
1088.97 2.32905
1089.43 2.51350
1089.88 2.71192
1090.33 2.92491
1090.78 3.15456
1091.23 3.40172
1091.69 3.66778
1092.14 3.95361
1092.59 4.26214
1093.04 4.59387
1093.49 4.95226
1093.94 5.33795
1094.39 5.75510
1094.85 6.20559
1095.30 6.69243
1095.75 7.21771
1096.20 7.78745
1096.65 8.40319
1097.10 9.07222
1097.56 9.79664
1098.01 10.5854
1098.46 11.4432
1098.91 12.3773
1099.36 13.3935
1099.81 14.5052
1100.27 15.7180
1100.72 17.0488
1101.17 18.5049
1101.39 19.2875
1101.62 20.1082
1101.85 20.9691
1102.07 21.8728
1102.30 22.8218
1102.52 23.8188
1102.75 24.8669
1102.98 25.9643
1103.20 27.1241
1103.43 28.3454
1103.65 29.6321
1103.88 30.9824
1104.10 32.4130
1104.33 33.9231
1104.56 35.5182
1104.78 37.1966
1105.01 38.9796
1105.23 40.8670
1105.46 42.8664
1105.69 44.9862
1105.91 47.2355
1106.14 49.6241
1106.36 52.1629
1106.59 54.8516
1106.81 57.7268
1107.04 60.7915
1107.27 64.0614
1107.49 67.5379
1107.72 71.2709
1107.94 75.2666
1108.17 79.5487
1108.39 84.1219
1108.62 89.0558
1108.85 94.3628
1109.07 100.079
1109.30 106.244
1109.52 112.904
1109.75 120.108
1109.98 127.913
1110.20 136.344
1110.43 145.547
1110.65 155.568
1110.88 166.500
1111.10 178.392
1111.33 191.468
1111.56 205.814
1111.78 221.586
1112.01 238.881
1112.23 258.057
1112.35 268.395
1112.46 279.275
1112.57 290.732
1112.69 302.804
1112.80 315.531
1112.91 328.956
1113.02 343.126
1113.14 358.089
1113.25 373.899
1113.36 390.613
1113.48 408.292
1113.59 427.001
1113.70 446.811
1113.81 467.605
1113.93 489.833
1114.04 513.400
1114.15 538.395
1114.27 564.914
1114.38 593.056
1114.49 622.928
1114.61 654.639
1114.72 687.995
1114.83 723.710
1114.94 761.613
1115.06 801.824
1115.17 844.461
1115.28 889.636
1115.40 937.456
1115.51 988.013
1115.62 1040.90
1115.77 1115.62
1115.92 1195.34
1116.07 1279.97
1116.22 1368.60
1116.36 1461.92
1116.51 1558.58
1116.81 1756.45
1116.96 1855.04
1117.11 1950.36
1117.26 2039.93
1117.41 2120.54
1117.55 2190.60
1117.70 2247.02
1117.85 2287.68
1118.00 2310.98
1118.15 2316.50
1118.30 2304.10
1118.45 2274.69
1118.60 2230.21
1118.74 2172.17
1118.89 2103.25
1119.04 2025.99
1119.19 1943.44
1119.49 1768.40
1119.79 1593.71
1119.93 1509.09
1120.08 1427.56
1120.23 1349.62
1120.38 1276.05
1120.55 1195.11
1120.73 1120.09
1120.90 1049.99
1121.07 985.437
1121.24 925.396
1121.42 870.263
1121.59 819.078
1121.76 772.116
1121.93 728.517
1122.11 688.491
1122.28 651.292
1122.45 617.091
1122.62 585.249
1122.80 555.916
1122.97 528.549
1123.14 503.280
1123.31 479.648
1123.49 457.776
1123.66 437.272
1123.83 418.247
1124.00 400.368
1124.18 383.740
1124.35 368.075
1124.52 353.470
1124.69 339.679
1124.87 326.793
1125.04 314.597
1125.21 303.175
1125.38 292.342
1125.56 282.176
1125.73 272.568
1125.90 263.479
1126.07 254.823
1126.24 246.668
1126.42 238.888
1126.59 231.544
1126.93 217.890
1127.28 205.520
1127.62 194.280
1127.97 184.033
1128.31 174.667
1128.66 166.082
1129.00 158.193
1129.35 150.926
1129.69 144.215
1130.04 138.006
1130.38 132.247
1130.73 126.897
1131.07 121.916
1131.42 117.283
1131.76 112.942
1132.11 108.879
1132.45 105.070
1132.80 101.496
1133.14 98.1345
1133.49 94.9703
1133.83 91.9874
1134.18 89.1718
1134.52 86.5107
1134.87 83.9928
1135.21 81.6075
1135.56 79.3454
1135.90 77.1979
1136.25 75.1571
1136.94 71.3723
1137.63 67.9296
1138.32 64.7917
1139.01 61.9223
1139.70 59.2941
1140.39 56.8728
1141.08 54.6396
1141.77 52.5745
1142.46 50.6631
1143.15 48.8847
1143.84 47.2289
1144.53 45.6843
1145.22 44.2406
1145.91 42.8887
1146.60 41.6206
1147.29 40.4291
1147.97 39.3094
1148.66 38.2526
1149.35 37.2551
1150.04 36.3124
1150.73 35.4202
1151.42 34.5748
1152.11 33.7728
1152.80 33.0111
1153.49 32.2879
1154.18 31.5984
1154.87 30.9415
1155.56 30.3149
1156.25 29.7167
1157.63 28.5985
1159.01 27.5748
1160.39 26.6330
1161.77 25.7654
1163.15 24.9627
1164.53 24.2191
1165.91 23.5276
1167.29 22.8835
1168.67 22.2823
1170.05 21.7202
1171.43 21.1931
1172.81 20.6980
1174.19 20.2324
1175.57 19.7939
1176.95 19.3798
1178.33 18.9884
1179.71 18.6179
1181.09 18.2670
1182.47 17.9337
1183.85 17.6172
1185.23 17.3159
1186.61 17.0290
1187.99 16.7552
1189.37 16.4939
1190.75 16.2442
1192.12 16.0055
1194.88 15.5579
1197.64 15.1461
1200.40 14.7658
1203.16 14.4139
1205.92 14.0872
1208.68 13.7830
1211.44 13.4990
1214.20 13.2334
1216.96 12.9842
1219.72 12.7501
1222.48 12.5297
1225.24 12.3217
1228.00 12.1252
1230.75 11.9391
1233.51 11.7626
1236.27 11.5949
1239.03 11.4354
1241.79 11.2835
1244.55 11.1385
1247.31 11.0001
1250.07 10.8677
1252.83 10.7408
1255.59 10.6191
1258.35 10.5024
1261.11 10.3901
1263.87 10.2821
1269.39 10.0778
1274.90 9.88746
1280.42 9.70939
1285.94 9.54221
1291.46 9.38461
1296.98 9.23554
1302.50 9.09397
1308.02 8.95905
1313.54 8.83000
1319.05 8.70612
1324.57 8.58671
1330.09 8.47115
1335.61 8.35886
1341.13 8.24929
1346.65 8.14182
1352.17 8.03592
1357.69 7.93098
1363.20 7.82642
1368.72 7.72152
1371.48 7.66872
1374.24 7.61557
1377.00 7.56191
1379.76 7.50769
1382.52 7.45274
1385.28 7.39693
1388.04 7.34008
1390.80 7.28207
1393.56 7.22267
1396.32 7.16170
1399.08 7.09888
1401.83 7.03400
1404.59 6.96671
1407.35 6.89668
1410.11 6.82347
1411.49 6.78553
1412.87 6.74666
1414.25 6.70671
1415.63 6.66567
1417.01 6.62340
1418.39 6.57986
1419.77 6.53489
1421.15 6.48842
1422.53 6.44032
1423.91 6.39050
1425.29 6.33873
1426.67 6.28494
1428.05 6.22887
1429.43 6.17039
1430.81 6.10921
1432.19 6.04512
1433.57 5.97785
1434.95 5.90713
1436.33 5.83252
1437.71 5.75366
1439.09 5.67012
1439.78 5.62643
1440.46 5.58145
1441.15 5.53495
1441.84 5.48692
1442.53 5.43729
1443.22 5.38595
1443.91 5.33281
1444.60 5.27775
1445.29 5.22067
1445.98 5.16152
1446.67 5.10000
1447.36 5.03605
1448.05 4.96951
1448.74 4.90032
1449.43 4.82808
1450.12 4.75271
1450.81 4.67398
1451.50 4.59178
1452.19 4.50563
1452.88 4.41536
1453.57 4.32068
1454.26 4.22128
1454.95 4.11680
1455.64 4.00688
1455.99 3.94976
1456.33 3.89113
1456.68 3.83094
1457.02 3.76931
1457.37 3.70584
1457.71 3.64065
1458.06 3.57368
1458.40 3.50487
1458.75 3.43417
1459.09 3.36153
1459.44 3.28691
1459.78 3.21047
1460.12 3.13173
1460.47 3.05089
1460.81 2.96792
1461.16 2.88280
1461.50 2.79555
1461.85 2.70621
1462.19 2.61482
1462.54 2.52176
1462.88 2.42664
1463.23 2.32994
1463.57 2.23193
1463.92 2.13301
1464.26 2.03371
1464.61 1.93470
1464.78 1.88545
1464.95 1.83692
1465.13 1.78871
1465.30 1.74156
1465.47 1.69514
1465.64 1.65021
1465.82 1.60654
1465.99 1.56495
1466.16 1.52532
1466.33 1.48853
1466.51 1.45465
1466.68 1.42461
1466.85 1.39874
1467.02 1.37806
1467.20 1.36322
1467.37 1.35541
1467.54 1.35570
1467.71 1.36549
1467.89 1.38635
1467.97 1.40151
1468.06 1.42017
1468.14 1.44290
1468.23 1.46950
1468.27 1.48444
1468.32 1.50054
1468.36 1.51785
1468.40 1.53641
1468.45 1.55676
1468.47 1.56746
1468.49 1.57801
1468.51 1.58944
1468.53 1.60069
1468.55 1.61286
1468.58 1.62485
1468.60 1.63780
1468.62 1.65054
1468.64 1.66430
1468.66 1.67784
1468.68 1.69245
1468.70 1.70681
1468.73 1.72230
1468.75 1.73753
1468.77 1.75394
1468.79 1.77084
1468.83 1.80531
1468.88 1.84176
1468.92 1.88027
1468.96 1.92093
1469.01 1.96384
1469.05 2.00910
1469.09 2.05680
1469.18 2.16126
1469.27 2.27575
1469.35 2.40245
1469.44 2.54248
1469.52 2.69901
1469.61 2.86984
1469.70 3.05823
1469.74 3.15955
1469.78 3.26592
1469.83 3.38026
1469.87 3.49762
1469.91 3.62083
1469.96 3.75017
1470.00 3.88595
1470.04 4.02851
1470.08 4.17818
1470.13 4.33533
1470.17 4.50429
1470.21 4.67780
1470.26 4.86003
1470.30 5.05147
1470.34 5.25259
1470.39 5.46393
1470.43 5.68605
1470.47 5.91954
1470.52 6.16504
1470.56 6.42322
1470.60 6.69480
1470.64 6.98056
1470.69 7.28132
1470.73 7.59796
1470.77 7.93141
1470.82 8.28269
1470.86 8.66172
1470.90 9.05244
1470.95 9.46450
1470.99 9.89923
1471.03 10.3581
1471.08 10.8425
1471.12 11.3543
1471.16 11.8952
1471.21 12.4809
1471.25 13.0868
1471.29 13.7281
1471.33 14.4073
1471.38 15.1271
1471.42 15.8903
1471.46 16.7000
1471.51 17.5598
1471.55 18.4950
1471.59 19.4674
1471.64 20.5020
1471.68 21.6037
1471.72 22.7775
1471.77 24.0294
1471.81 25.3656
1471.85 26.7931
1471.90 28.3563
1471.94 29.9927
1471.98 31.7459
1472.02 33.6264
1472.07 35.6454
1472.11 37.8157
1472.15 40.1513
1472.20 42.6679
1472.24 45.4485
1472.28 48.3867
1472.33 51.5652
1472.37 55.0087
1472.41 58.7447
1472.46 62.8045
1472.50 67.2232
1472.54 72.0408
1472.59 77.4305
1472.63 83.2000
1472.67 89.5251
1472.71 96.4732
1472.74 100.294
1472.76 104.121
1472.78 108.333
1472.80 112.558
1472.82 117.212
1472.84 121.886
1472.87 127.040
1472.89 132.222
1472.91 137.943
1472.93 143.984
1472.95 150.367
1472.97 156.800
1473.00 163.920
1473.02 171.105
1473.04 179.068
1473.06 187.114
1473.08 196.043
1473.10 205.076
1473.12 215.113
1473.15 225.280
1473.17 236.590
1473.19 248.062
1473.21 260.840
1473.23 273.814
1473.25 288.282
1473.27 302.989
1473.30 319.404
1473.32 336.104
1473.34 354.760
1473.36 373.753
1473.38 394.980
1473.40 416.597
1473.43 440.759
1473.45 465.362
1473.47 492.848
1473.49 520.813
1473.51 552.018
1473.53 583.711
1473.55 618.994
1473.58 654.725
1473.60 703.679
1473.63 756.057
1473.66 811.803
1473.68 868.508
1473.71 930.219
1473.74 991.895
1473.79 1121.49
1473.82 1187.37
1473.84 1248.98
1473.87 1309.40
1473.89 1362.50
1473.92 1410.56
1473.95 1448.43
1473.97 1477.58
1474.00 1494.88
1474.01 1499.61
1474.03 1501.10
1474.05 1495.35
1474.08 1478.20
1474.11 1451.87
1474.13 1415.69
1474.16 1373.83
1474.19 1324.72
1474.21 1273.54
1474.27 1162.98
1474.32 1051.51
1474.35 996.479
1474.37 945.296
1474.40 894.372
1474.43 847.686
1474.45 798.466
1474.48 753.835
1474.51 712.017
1474.54 672.931
1474.57 636.463
1474.59 602.480
1474.62 570.838
1474.65 541.385
1474.68 513.032
1474.71 487.582
1474.74 463.883
1474.76 441.804
1474.79 421.221
1474.82 402.017
1474.85 384.087
1474.88 367.330
1474.90 351.114
1474.93 336.472
1474.96 322.748
1474.99 309.873
1475.02 297.782
1475.04 286.415
1475.07 275.719
1475.10 265.644
1475.13 255.816
1475.16 246.869
1475.19 238.417
1475.21 230.425
1475.24 222.861
1475.27 215.695
1475.30 208.901
1475.33 202.453
1475.35 196.116
1475.38 190.305
1475.44 179.514
1475.49 169.716
1475.55 160.793
1475.61 152.506
1475.66 145.056
1475.72 138.216
1475.78 131.921
1475.83 126.013
1475.89 120.651
1475.94 115.682
1476.00 111.068
1476.06 106.776
1476.11 102.776
1476.17 99.0407
1476.22 95.5475
1476.28 92.2186
1476.34 89.1519
1476.39 86.2703
1476.45 83.5587
1476.51 80.9593
1476.56 78.5511
1476.62 76.2760
1476.67 74.1240
1476.73 72.0508
1476.79 70.1207
1476.84 68.2888
1476.90 66.5485
1476.96 64.8646
1477.01 63.2904
1477.12 60.3599
1477.24 57.6673
1477.35 55.2285
1477.46 52.9731
1477.57 50.9179
1477.69 49.0064
1477.80 47.2553
1477.91 45.6322
1478.02 44.1245
1478.14 42.7087
1478.25 41.4000
1478.36 40.1662
1478.47 39.0214
1478.59 37.9381
1478.70 36.9295
1478.81 35.9720
1478.92 35.0777
1479.04 34.2262
1479.15 33.4286
1479.26 32.6672
1479.37 31.9521
1479.49 31.2676
1479.60 30.6233
1479.71 30.0106
1479.82 29.4272
1479.94 28.8665
1480.05 28.3363
1480.27 27.3421
1480.50 26.4328
1480.72 25.6018
1480.95 24.8332
1481.17 24.1236
1481.40 23.4666
1481.62 22.8594
1481.85 22.2919
1482.07 21.7626
1482.30 21.2680
1482.52 20.8048
1482.75 20.3703
1482.97 19.9618
1483.20 19.5773
1483.42 19.2163
1483.64 18.8737
1483.87 18.5497
1484.09 18.2427
1484.32 17.9516
1484.54 17.6752
1484.77 17.4123
1484.99 17.1621
1485.22 16.9247
1485.44 16.6972
1485.67 16.4799
1485.89 16.2722
1486.12 16.0735
1486.57 15.7007
1487.02 15.3584
1487.47 15.0417
1487.92 14.7491
1488.37 14.4767
1488.82 14.2237
1489.27 13.9871
1489.72 13.7658
1490.17 13.5584
1490.61 13.3640
1491.06 13.1808
1491.51 13.0080
1491.96 12.8449
1492.41 12.6909
1492.86 12.5448
1493.31 12.4062
1493.76 12.2745
1494.21 12.1495
1494.66 12.0303
1495.11 11.9168
1495.56 11.8083
1496.01 11.7048
1496.46 11.6056
1496.91 11.5106
1497.36 11.4195
1497.81 11.3324
1498.71 11.1681
1499.61 11.0161
1500.51 10.8749
1501.41 10.7436
1502.31 10.6212
1503.20 10.5066
1504.10 10.3991
1505.00 10.2981
1505.90 10.2029
1506.80 10.1132
1507.70 10.0283
1508.60 9.94802
1509.50 9.87185
1510.40 9.79948
1511.30 9.73056
1512.20 9.66495
1513.10 9.60229
1514.00 9.54250
1514.90 9.48525
1515.80 9.43048
1516.70 9.37798
1517.59 9.32759
1518.49 9.27913
1519.39 9.23258
1521.19 9.14455
1522.99 9.06271
1524.79 8.98641
1526.59 8.91497
1528.39 8.84798
1530.19 8.78491
1531.98 8.72547
1533.78 8.66924
1535.58 8.61597
1537.38 8.56541
1539.18 8.51734
1540.98 8.47151
1542.78 8.42778
1544.58 8.38597
1546.37 8.34596
1548.17 8.30758
1549.97 8.27073
1551.77 8.23530
1553.57 8.20122
1555.37 8.16837
1557.17 8.13668
1560.76 8.07649
1564.36 8.02012
1567.96 7.96717
1571.55 7.91724
1575.15 7.87003
1578.75 7.82525
1582.35 7.78269
1585.94 7.74213
1589.54 7.70340
1593.14 7.66632
1596.74 7.63079
1600.33 7.59665
1603.93 7.56381
1607.53 7.53217
1611.13 7.50165
1614.72 7.47216
1618.32 7.44364
1625.51 7.38922
1632.71 7.33797
1639.90 7.28951
1647.10 7.24353
1654.29 7.19978
1661.49 7.15803
1668.68 7.11809
1675.88 7.07980
1683.07 7.04301
1690.27 7.00761
1697.46 6.97347
1704.66 6.94050
1711.85 6.90862
1719.05 6.87774
1733.43 6.81875
1747.82 6.76305
1762.21 6.71026
1776.60 6.66004
1790.99 6.61215
1805.38 6.56634
1812.58 6.54415
1819.77 6.52242
1826.97 6.50112
1834.16 6.48024
1841.36 6.45975
1848.55 6.43965
1855.74 6.41992
1859.34 6.41020
1862.94 6.40056
1866.54 6.39101
1870.13 6.38155
1873.73 6.37218
1877.33 6.36291
1880.93 6.35372
1884.52 6.34463
1888.12 6.33564
1891.72 6.32677
1895.32 6.31801
1898.91 6.30940
1902.51 6.30097
1906.11 6.29277
1909.71 6.28490
1911.50 6.28115
1913.30 6.27756
1915.10 6.27420
1916.90 6.27115
1918.70 6.26854
1920.50 6.26662
1921.40 6.26602
1922.30 6.26577
1923.20 6.26597
1924.09 6.26677
1924.99 6.26839
1925.89 6.27118
1926.34 6.27317
1926.79 6.27567
1927.24 6.27882
1927.69 6.28276
1928.14 6.28772
1928.59 6.29400
1929.04 6.30200
1929.49 6.31228
1929.94 6.32576
1930.17 6.33407
1930.39 6.34365
1930.61 6.35488
1930.84 6.36806
1931.06 6.38367
1931.29 6.40220
1931.51 6.42464
1931.74 6.45198
1931.96 6.48574
1932.08 6.50575
1932.19 6.52805
1932.30 6.55344
1932.41 6.58199
1932.53 6.61484
1932.64 6.65220
1932.75 6.69571
1932.86 6.74584
1932.98 6.80453
1933.09 6.87384
1933.20 6.95727
1933.26 7.00475
1933.31 7.05701
1933.37 7.11581
1933.43 7.17988
1933.48 7.25113
1933.54 7.33067
1933.59 7.42152
1933.65 7.52214
1933.71 7.63598
1933.76 7.76547
1933.82 7.91359
1933.87 8.08409
1933.93 8.28167
1933.96 8.39244
1933.99 8.51236
1934.02 8.64732
1934.04 8.78923
1934.07 8.94392
1934.10 9.11295
1934.13 9.29815
1934.16 9.50163
1934.18 9.72586
1934.21 9.97374
1934.24 10.2590
1934.27 10.5663
1934.30 10.9097
1934.32 11.2950
1934.35 11.7293
1934.38 12.2213
1934.39 12.4920
1934.41 12.7813
1934.42 13.0907
1934.44 13.4223
1934.45 13.8045
1934.47 14.1890
1934.48 14.6029
1934.49 15.0494
1934.51 15.5318
1934.52 16.0541
1934.54 16.6206
1934.55 17.2364
1934.56 17.9073
1934.58 18.6398
1934.59 19.4414
1934.61 20.3209
1934.62 21.2884
1934.63 22.3555
1934.65 23.5358
1934.66 24.8453
1934.67 25.5541
1934.68 26.3025
1934.68 27.0932
1934.69 27.9293
1934.70 28.8142
1934.70 29.7516
1934.71 30.7454
1934.72 31.7998
1934.72 32.9198
1934.73 34.1103
1934.74 35.3769
1934.75 36.7258
1934.75 38.1635
1934.76 39.6974
1934.77 41.3353
1934.77 43.0857
1934.78 44.9581
1934.79 46.9626
1934.79 49.1101
1934.80 51.4126
1934.81 53.8828
1934.82 56.5345
1934.82 59.3822
1934.83 62.4415
1934.84 65.7286
1934.84 69.2602
1934.85 73.0536
1934.86 77.1256
1934.86 81.4926
1934.87 86.1694
1934.88 91.1686
1934.89 96.4986
1934.89 102.999
1934.90 109.040
1934.91 115.393
1934.91 122.029
1934.93 136.967
1934.94 151.196
1934.95 159.068
1934.96 165.567
1934.97 171.515
1934.97 176.722
1934.98 181.005
1934.99 184.198
1934.99 186.172
1935.00 186.842
1935.00 186.625
1935.01 185.974
1935.02 183.824
1935.02 180.470
1935.03 176.049
1935.04 169.906
1935.04 163.785
1935.05 157.165
1935.06 150.223
1935.07 134.973
1935.09 121.104
1935.09 114.507
1935.10 108.198
1935.11 102.204
1935.12 96.5398
1935.12 90.4755
1935.13 84.8418
1935.14 79.6246
1935.15 74.8039
1935.16 70.3564
1935.16 66.2569
1935.17 62.4800
1935.18 59.0007
1935.19 55.7947
1935.20 52.8392
1935.20 50.1130
1935.21 47.5961
1935.22 45.2705
1935.23 43.1193
1935.24 41.1275
1935.24 39.5043
1935.25 37.7748
1935.26 36.1681
1935.27 34.6736
1935.27 33.2820
1935.28 31.9846
1935.29 30.7737
1935.30 29.6420
1935.31 28.5833
1935.31 27.5917
1935.32 26.6619
1935.33 25.7892
1935.34 24.9691
1935.35 24.1977
1935.35 23.4713
1935.36 22.7866
1935.37 22.2194
1935.38 21.6051
1935.39 21.0244
1935.39 20.4751
1935.40 19.9551
1935.42 18.9948
1935.43 18.1296
1935.45 17.3476
1935.47 16.6388
1935.48 15.9944
1935.50 15.4421
1935.51 14.9023
1935.53 14.4078
1935.54 13.9538
1935.56 13.5612
1935.58 13.1740
1935.59 12.8163
1935.61 12.4853
1935.62 12.1968
1935.64 11.9102
1935.65 11.6436
1935.67 11.3952
1935.69 11.1632
1935.72 10.7435
1935.75 10.3854
1935.78 10.0584
1935.81 9.76815
1935.85 9.50944
1935.88 9.28475
1935.91 9.07599
1935.94 8.88776
1935.97 8.71746
1936.00 8.56750
1936.04 8.42638
1936.07 8.30141
1936.10 8.18318
1936.13 8.07796
1936.16 7.97794
1936.19 7.88575
1936.26 7.72416
1936.32 7.58285
1936.38 7.46227
1936.45 7.35538
1936.51 7.26303
1936.57 7.18145
1936.64 7.10902
1936.70 7.04347
1936.76 6.98573
1936.83 6.93303
1936.89 6.88626
1936.95 6.84326
1937.02 6.80483
1937.14 6.73781
1937.27 6.68114
1937.40 6.63315
1937.52 6.59216
1937.65 6.55712
1937.78 6.52646
1937.90 6.49969
1938.03 6.47616
1938.16 6.45553
1938.28 6.43705
1938.41 6.42056
1938.66 6.39258
1938.92 6.36963
1939.17 6.35071
1939.43 6.33478
1939.68 6.32132
1939.93 6.30975
1940.19 6.29979
1940.44 6.29107
1940.69 6.28345
1941.20 6.27067
1941.71 6.26043
1942.21 6.25203
1942.72 6.24501
1943.23 6.23905
1943.73 6.23389
1944.24 6.22938
1945.25 6.22178
1946.27 6.21556
1947.28 6.21027
1948.30 6.20565
1949.31 6.20151
1950.32 6.19773
1951.34 6.19423
1953.37 6.18783
1955.39 6.18198
1957.42 6.17650
1959.45 6.17128
1961.48 6.16624
1963.50 6.16134
1967.56 6.15185
1971.61 6.14263
1975.67 6.13362
1979.72 6.12476
1983.78 6.11602
1987.84 6.10738
1991.89 6.09884
1995.95 6.09037
2000.00 6.08198
2004.52 6.07271
2009.04 6.06352
2013.56 6.05440
2018.08 6.04536
2022.60 6.03639
2027.12 6.02749
2031.63 6.01865
2036.15 6.00988
2045.19 5.99252
2054.23 5.97540
2063.27 5.95850
2072.31 5.94183
2081.35 5.92537
2090.38 5.90912
2108.46 5.87719
2126.54 5.84601
2144.61 5.81552
2162.69 5.78568
2180.77 5.75647
2216.92 5.69974
2253.07 5.64509
2289.22 5.59231
2325.38 5.54120
2361.53 5.49161
2397.68 5.44339
2433.83 5.39641
2469.99 5.35054
2506.14 5.30569
2542.29 5.26176
2578.45 5.21865
2614.60 5.17629
2650.75 5.13461
2686.90 5.09352
2723.06 5.05296
2759.21 5.01288
2795.36 4.97320
2831.52 4.93388
2867.67 4.89486
2900.75 4.85936
2933.83 4.82403
2950.38 4.80641
2966.92 4.78882
3000.00 4.75371
3012.28 4.74105
3030.36 4.72242
3048.43 4.70381
3066.51 4.68522
3075.55 4.67595
3084.58 4.66669
3093.62 4.65746
3102.66 4.64829
3107.18 4.64374
3111.70 4.63923
3116.22 4.63478
3120.74 4.63042
3125.26 4.62621
3127.52 4.62419
3129.78 4.62226
3132.04 4.62045
3134.29 4.61880
3136.55 4.61740
3138.81 4.61638
3139.94 4.61608
3141.07 4.61597
3142.20 4.61612
3143.33 4.61661
3144.46 4.61758
3145.59 4.61921
3146.72 4.62184
3147.85 4.62596
3148.42 4.62885
3148.98 4.63250
3149.55 4.63716
3150.11 4.64317
3150.68 4.65103
3151.24 4.66151
3151.81 4.67580
3152.09 4.68494
3152.37 4.69585
3152.65 4.70907
3152.94 4.72516
3153.22 4.74513
3153.50 4.77012
3153.78 4.80218
3153.92 4.82158
3154.07 4.84388
3154.21 4.86985
3154.35 4.89990
3154.49 4.93517
3154.63 4.97695
3154.77 5.02730
3154.91 5.08782
3155.05 5.16197
3155.13 5.20578
3155.20 5.25413
3155.27 5.30925
3155.34 5.37156
3155.41 5.44236
3155.48 5.52203
3155.55 5.61483
3155.62 5.72060
3155.69 5.84553
3155.76 5.99011
3155.83 6.16379
3155.90 6.37183
3155.94 6.49339
3155.97 6.62386
3156.01 6.76818
3156.04 6.92834
3156.08 7.11215
3156.11 7.31233
3156.15 7.53717
3156.18 7.79088
3156.22 8.08735
3156.26 8.41659
3156.29 8.79417
3156.33 9.22995
3156.34 9.48067
3156.36 9.75205
3156.38 10.0464
3156.40 10.3479
3156.41 10.6947
3156.43 11.0516
3156.45 11.4641
3156.47 11.8905
3156.48 12.3860
3156.50 12.9328
3156.52 13.5380
3156.54 14.1710
3156.56 14.9156
3156.57 15.6996
3156.59 16.6285
3156.61 17.6139
3156.63 18.7910
3156.63 19.4384
3156.64 20.1296
3156.65 20.8684
3156.66 21.6592
3156.67 22.5068
3156.68 23.3121
3156.69 24.2819
3156.70 25.3255
3156.71 26.4501
3156.71 27.5243
3156.72 28.8250
3156.73 30.2328
3156.74 31.7591
3156.75 33.2254
3156.76 35.0111
3156.77 36.9558
3156.78 39.0773
3156.78 41.3951
3156.79 43.9310
3156.80 46.7094
3156.81 49.7575
3156.82 52.7173
3156.83 56.3581
3156.84 60.3620
3156.85 64.7659
3156.85 69.0473
3156.86 74.3115
3156.87 80.0848
3156.88 86.3986
3156.89 92.4826
3156.90 98.1751
3156.90 104.207
3156.91 110.561
3156.92 117.206
3156.93 131.152
3156.95 145.375
3156.95 152.267
3156.96 158.791
3156.97 164.753
3156.97 169.954
3156.98 174.199
3156.99 177.313
3156.99 179.160
3157.00 179.669
3157.01 178.986
3157.01 176.961
3157.02 173.684
3157.03 169.300
3157.04 163.985
3157.04 157.936
3157.05 151.354
3157.06 144.429
3157.07 130.202
3157.08 116.311
3157.09 109.706
3157.10 103.397
3157.11 97.4140
3157.11 91.7708
3157.12 85.0206
3157.13 79.4898
3157.14 74.3834
3157.15 69.6792
3157.15 64.8357
3157.16 60.8995
3157.17 57.2827
3157.18 53.9589
3157.19 50.5391
3157.20 47.7575
3157.20 45.1964
3157.21 42.8362
3157.22 40.6588
3157.23 38.6478
3157.24 36.7883
3157.24 35.0668
3157.25 33.2798
3157.26 31.8123
3157.27 30.4484
3157.28 29.1791
3157.29 27.8544
3157.29 26.7605
3157.30 25.7387
3157.31 24.7829
3157.32 23.7802
3157.33 22.9479
3157.33 22.1667
3157.34 21.4326
3157.36 20.0919
3157.37 18.9008
3157.39 17.7759
3157.41 16.8313
3157.42 15.9324
3157.44 15.1720
3157.46 14.4435
3157.47 13.8232
3157.49 13.2588
3157.51 12.7439
3157.52 12.2448
3157.54 11.8152
3157.56 11.3967
3157.57 11.0348
3157.59 10.6807
3157.60 10.3732
3157.64 9.82343
3157.67 9.33410
3157.70 8.90984
3157.74 8.53969
3157.77 8.22413
3157.80 7.93652
3157.83 7.68159
3157.87 7.45459
3157.90 7.25744
3157.93 7.07463
3157.96 6.90992
3158.00 6.76101
3158.03 6.62986
3158.06 6.50664
3158.10 6.39423
3158.16 6.19985
3158.23 6.03288
3158.29 5.89256
3158.36 5.76999
3158.42 5.66542
3158.49 5.57283
3158.55 5.49283
3158.62 5.42118
3158.68 5.35863
3158.75 5.30205
3158.82 5.25222
3158.95 5.16642
3159.08 5.09624
3159.21 5.03810
3159.34 4.98938
3159.47 4.94816
3159.60 4.91296
3159.73 4.88266
3159.86 4.85640
3159.99 4.83347
3160.26 4.79557
3160.52 4.76574
3160.78 4.74181
3161.04 4.72232
3161.30 4.70628
3161.57 4.69281
3161.83 4.68142
3162.35 4.66332
3162.88 4.64970
3163.40 4.63914
3163.92 4.63076
3164.45 4.62396
3164.97 4.61836
3165.49 4.61366
3166.54 4.60620
3167.59 4.60053
3168.64 4.59603
3169.69 4.59234
3170.73 4.58921
3171.78 4.58650
3172.83 4.58409
3173.88 4.58193
3175.97 4.57809
3178.07 4.57472
3180.16 4.57165
3182.26 4.56879
3184.35 4.56607
3186.45 4.56346
3188.54 4.56093
3190.64 4.55846
3194.83 4.55365
3199.02 4.54895
3203.21 4.54433
3207.40 4.53976
3215.78 4.53071
3224.16 4.52173
3232.54 4.51279
3240.92 4.50386
3257.69 4.48600
3274.45 4.46811
3291.21 4.45016
3307.97 4.43213
3324.73 4.41401
3341.50 4.39578
3358.26 4.37745
3375.02 4.35900
3391.78 4.34042
3425.31 4.30283
3458.83 4.26460
3492.36 4.22565
3525.88 4.18588
3559.40 4.14519
3592.93 4.10344
3626.45 4.06051
3659.98 4.01623
3693.50 3.97042
3727.02 3.92286
3760.55 3.87330
3777.31 3.84767
3794.07 3.82143
3810.83 3.79451
3827.60 3.76687
3844.36 3.73845
3861.12 3.70918
3877.88 3.67900
3894.65 3.64780
3911.41 3.61551
3928.17 3.58201
3944.93 3.54718
3961.69 3.51090
3978.46 3.47299
3995.22 3.43328
4011.98 3.39156
4020.36 3.36987
4028.74 3.34758
4037.12 3.32465
4045.50 3.30104
4053.89 3.27672
4062.27 3.25162
4070.65 3.22570
4079.03 3.19890
4087.41 3.17115
4095.79 3.14239
4104.17 3.11252
4112.55 3.08148
4120.93 3.04917
4129.31 3.01547
4137.70 2.98027
4141.89 2.96206
4146.08 2.94344
4150.27 2.92437
4154.46 2.90484
4158.65 2.88482
4162.84 2.86429
4167.03 2.84324
4171.22 2.82164
4175.41 2.79946
4179.60 2.77668
4183.79 2.75327
4187.98 2.72922
4192.17 2.70451
4196.36 2.67913
4198.46 2.66619
4200.55 2.65310
4202.65 2.63986
4204.74 2.62649
4206.84 2.61301
4208.93 2.59949
4211.03 2.58598
4213.12 2.57263
4215.22 2.55965
4216.27 2.55343
4217.32 2.54752
4218.36 2.54203
4219.41 2.53717
4220.46 2.53328
4221.51 2.53090
4222.03 2.53054
4222.55 2.53096
4223.08 2.53242
4223.60 2.53528
4224.13 2.54005
4224.65 2.54755
4225.17 2.55903
4225.44 2.56685
4225.70 2.57650
4225.96 2.58855
4226.22 2.60363
4226.48 2.62270
4226.74 2.64708
4227.01 2.67872
4227.27 2.72052
4227.40 2.74657
4227.53 2.77703
4227.66 2.81294
4227.79 2.85525
4227.92 2.90637
4228.05 2.96834
4228.18 3.04440
4228.32 3.13906
4228.45 3.25881
4228.51 3.33150
4228.58 3.41322
4228.64 3.50847
4228.71 3.61687
4228.77 3.74496
4228.84 3.89290
4228.91 4.07062
4228.97 4.27970
4229.04 4.53610
4229.07 4.68488
4229.10 4.84480
4229.13 5.02827
4229.17 5.23348
4229.20 5.46400
4229.23 5.71575
4229.27 6.00955
4229.30 6.34441
4229.33 6.72826
4229.36 7.15662
4229.40 7.66842
4229.43 8.26708
4229.45 8.61586
4229.46 8.97309
4229.48 9.36170
4229.49 9.78544
4229.51 10.2789
4229.53 10.7893
4229.54 11.3870
4229.56 12.0087
4229.58 12.7412
4229.59 13.5081
4229.61 14.3613
4229.63 15.3138
4229.64 16.4519
4229.66 17.6613
4229.68 19.1186
4229.69 20.6807
4229.70 21.6529
4229.71 22.5804
4229.72 23.5730
4229.72 24.6364
4229.73 25.7771
4229.74 27.0022
4229.75 28.3195
4229.76 29.7377
4229.77 31.4658
4229.77 33.1313
4229.78 34.9310
4229.79 36.8779
4229.80 38.9861
4229.81 41.2713
4229.81 43.7503
4229.82 46.4416
4229.83 49.7477
4229.84 52.9569
4229.85 56.4437
4229.85 60.2303
4229.86 64.3388
4229.87 68.7898
4229.88 73.6010
4229.89 78.9871
4229.89 84.3477
4229.90 89.5205
4229.91 94.9645
4229.92 100.654
4229.93 112.594
4229.94 124.800
4229.95 131.571
4229.96 137.171
4229.97 142.305
4229.97 146.806
4229.98 150.513
4229.99 153.282
4229.99 154.995
4230.00 155.580
4230.00 155.394
4230.01 154.833
4230.02 152.976
4230.02 150.077
4230.03 146.258
4230.04 141.666
4230.04 136.465
4230.05 130.819
4230.06 124.884
4230.07 112.689
4230.09 100.755
4230.09 95.0669
4230.10 89.6242
4230.11 84.4522
4230.11 79.0244
4230.12 75.6054
4230.12 72.4678
4230.13 69.4748
4230.13 66.6233
4230.14 63.9092
4230.14 61.3278
4230.15 58.8743
4230.15 56.5432
4230.16 54.3292
4230.16 52.2268
4230.17 50.2306
4230.17 48.3352
4230.18 44.8262
4230.19 41.6602
4230.20 38.8008
4230.21 36.2148
4230.22 33.8725
4230.23 31.7473
4230.24 29.8157
4230.25 28.0568
4230.26 26.4521
4230.27 24.9854
4230.28 23.6422
4230.29 22.4099
4230.30 21.2772
4230.31 20.2342
4230.32 19.2721
4230.33 18.3831
4230.34 17.5603
4230.35 16.7974
4230.36 16.0891
4230.37 15.4304
4230.39 14.2448
4230.41 13.2106
4230.43 12.3037
4230.46 11.4670
4230.48 10.7636
4230.50 10.1380
4230.52 9.57923
4230.54 9.07829
4230.56 8.62757
4230.58 8.22065
4230.60 7.85211
4230.62 7.51730
4230.64 7.21229
4230.68 6.67849
4230.72 6.22869
4230.76 5.84625
4230.80 5.51085
4230.84 5.22879
4230.88 4.98356
4230.92 4.76902
4230.96 4.58029
4231.00 4.41338
4231.04 4.26506
4231.08 4.13268
4231.16 3.90729
4231.24 3.72357
4231.32 3.57184
4231.40 3.44506
4231.48 3.33682
4231.56 3.24582
4231.64 3.16763
4231.72 3.09995
4231.80 3.04095
4231.88 2.98920
4232.04 2.90306
4232.20 2.83428
4232.36 2.77907
4232.52 2.73375
4232.68 2.69603
4232.84 2.66408
4233.00 2.63706
4233.16 2.61381
4233.32 2.59364
4233.64 2.56035
4233.96 2.53422
4234.28 2.51305
4234.60 2.49563
4234.92 2.48092
4235.24 2.46836
4235.88 2.44774
4236.52 2.43130
4237.17 2.41759
4237.81 2.40576
4238.45 2.39525
4239.09 2.38568
4240.37 2.36848
4241.65 2.35290
4242.93 2.33829
4244.22 2.32426
4245.50 2.31058
4248.06 2.28372
4250.63 2.25701
4253.19 2.23010
4255.75 2.20278
4258.32 2.17494
4260.88 2.14647
4263.45 2.11730
4266.01 2.08738
4268.57 2.05665
4271.14 2.02506
4273.70 1.99255
4276.27 1.95909
4278.83 1.92461
4281.39 1.88907
4283.96 1.85241
4286.52 1.81458
4289.09 1.77551
4291.65 1.73515
4294.21 1.69343
4296.78 1.65029
4299.34 1.60566
4301.91 1.55946
4304.47 1.51163
4307.03 1.46209
4309.60 1.41077
4312.16 1.35759
4314.73 1.30249
4317.29 1.24539
4319.85 1.18623
4322.42 1.12497
4324.98 1.06157
4327.55 0.996034
4328.83 0.962469
4330.11 0.928384
4331.39 0.893790
4332.67 0.858703
4333.96 0.823144
4335.24 0.787141
4336.52 0.750727
4337.80 0.713945
4339.08 0.676850
4340.37 0.639504
4342.93 0.564399
4345.49 0.489482
4348.06 0.415996
4349.34 0.380324
4350.62 0.345738
4351.90 0.312592
4353.19 0.281308
4354.47 0.252399
4355.11 0.239024
4355.75 0.226484
4356.39 0.214878
4357.03 0.204313
4357.67 0.194909
4358.31 0.186798
4358.96 0.180125
4359.60 0.175052
4360.24 0.171757
4360.56 0.170836
4360.88 0.170437
4361.20 0.170587
4361.52 0.171313
4361.84 0.172652
4362.16 0.174628
4362.48 0.177289
4362.80 0.180655
4363.12 0.184785
4363.44 0.189694
4363.76 0.195458
4364.08 0.202085
4364.40 0.209666
4364.72 0.218205
4365.05 0.227808
4365.37 0.238474
4365.69 0.250330
4366.01 0.263367
4366.65 0.293414
4366.97 0.310582
4367.29 0.329213
4367.61 0.349510
4367.93 0.371437
4368.25 0.395231
4368.57 0.420846
4368.89 0.448554
4369.21 0.478299
4369.53 0.510394
4369.85 0.544772
4370.17 0.581790
4370.49 0.621372
4370.81 0.663925
4371.13 0.709360
4371.46 0.758147
4371.78 0.810179
4372.10 0.865996
4372.42 0.925477
4372.74 0.989240
4373.06 1.05715
4373.38 1.12991
4373.70 1.20738
4374.02 1.29036
4374.34 1.37868
4374.66 1.47328
4374.98 1.57397
4375.30 1.68183
4375.62 1.79666
4375.94 1.91968
4376.26 2.05070
4376.58 2.19112
4376.90 2.34072
4377.22 2.50116
4377.54 2.67220
4377.87 2.85576
4378.19 3.05159
4378.51 3.26192
4378.83 3.48653
4379.15 3.72801
4379.47 3.98616
4379.79 4.26401
4380.11 4.56141
4380.43 4.88194
4380.75 5.22550
4381.07 5.59631
4381.39 5.99439
4381.71 6.42478
4382.03 6.88762
4382.35 7.38895
4382.67 7.92914
4382.99 8.51546
4383.31 9.14860
4383.63 9.83738
4383.95 10.5830
4384.28 11.3961
4384.60 12.2787
4384.92 13.2439
4385.24 14.2946
4385.56 15.4473
4385.88 16.7061
4386.20 18.0919
4386.52 19.6107
4386.68 20.4319
4386.84 21.2889
4387.00 22.1893
4387.16 23.1356
4387.32 24.1371
4387.48 25.1846
4387.64 26.2873
4387.80 27.4490
4387.96 28.6813
4388.12 29.9731
4388.28 31.3364
4388.44 32.7760
4388.60 34.3070
4388.76 35.9161
4388.92 37.6186
4389.08 39.4213
4389.24 41.3437
4389.40 43.3698
4389.56 45.5198
4389.72 47.8028
4389.88 50.2447
4390.04 52.8261
4390.20 55.5737
4390.36 58.5005
4390.53 61.6408
4390.69 64.9713
4390.85 68.5276
4391.01 72.3282
4391.17 76.4195
4391.33 80.7726
4391.49 85.4361
4391.65 90.4360
4391.81 95.8355
4391.97 101.598
4392.13 107.791
4392.29 114.449
4392.45 121.659
4392.61 129.373
4392.77 137.679
4392.93 146.628
4393.09 156.331
4393.25 166.722
4393.41 177.915
4393.57 189.966
4393.73 203.017
4393.89 216.958
4394.05 231.919
4394.21 247.941
4394.39 266.720
4394.56 286.706
4394.73 308.118
4394.91 330.654
4395.08 354.461
4395.26 379.089
4395.61 430.079
4395.78 455.793
4395.95 480.719
4396.13 504.520
4396.30 526.247
4396.48 545.459
4396.65 561.283
4396.83 573.281
4397.00 581.042
4397.18 584.340
4397.35 583.117
4397.52 577.539
4397.70 568.032
4397.87 554.989
4398.05 539.145
4398.22 521.054
4398.40 501.326
4398.74 459.040
4399.09 416.101
4399.27 395.146
4399.44 374.979
4399.62 355.618
4399.79 337.152
4399.94 322.286
4400.08 308.108
4400.23 294.618
4400.38 281.892
4400.52 269.741
4400.67 258.308
4400.82 247.414
4400.96 237.180
4401.11 227.437
4401.26 218.290
4401.40 209.586
4401.55 201.414
4401.70 193.636
4401.84 186.330
4401.99 179.373
4402.14 172.833
4402.28 166.600
4402.43 160.697
4402.58 155.104
4402.72 149.837
4402.87 144.805
4403.02 140.062
4403.16 135.525
4403.31 131.242
4403.46 127.141
4403.60 123.264
4403.89 116.031
4404.19 109.455
4404.48 103.464
4404.77 97.9724
4405.07 92.9623
4405.36 88.3642
4405.65 84.1349
4405.95 80.2363
4406.24 76.6351
4406.53 73.3020
4406.83 70.2109
4407.12 67.3389
4407.41 64.6657
4407.70 62.1733
4408.00 59.8455
4408.29 57.6680
4408.58 55.6280
4408.88 53.7139
4409.17 51.9155
4409.46 50.2177
4409.76 48.6238
4410.05 47.1202
4410.34 45.7001
4410.64 44.3571
4410.93 43.0858
4411.22 41.8810
4411.51 40.7378
4411.81 39.6522
4412.10 38.6202
4412.39 37.6381
4412.69 36.7027
4413.27 34.9603
4413.86 33.3714
4414.45 31.9156
4415.03 30.5822
4415.62 29.3553
4416.20 28.2235
4416.79 27.1766
4417.38 26.2061
4417.96 25.3043
4418.55 24.4647
4419.13 23.6799
4419.72 22.9477
4420.31 22.2619
4420.89 21.6186
4421.48 21.0130
4422.07 20.4442
4422.65 19.9080
4423.24 19.4018
4423.82 18.9227
4424.41 18.4699
4425.00 18.0409
4425.58 17.6339
4426.17 17.2473
4426.75 16.8797
4427.34 16.5297
4427.93 16.1962
4428.51 15.8776
4429.10 15.5740
4430.27 15.0063
4431.44 14.4860
4432.62 14.0078
4433.79 13.5665
4434.96 13.1589
4436.13 12.7809
4437.30 12.4296
4438.48 12.1021
4439.65 11.7967
4440.82 11.5106
4441.99 11.2427
4443.17 10.9910
4444.34 10.7543
4445.51 10.5313
4446.68 10.3208
4447.86 10.1216
4449.03 9.93329
4450.20 9.75474
4451.37 9.58528
4452.55 9.42409
4453.72 9.27085
4454.89 9.12487
4456.06 8.98566
4457.23 8.85266
4458.41 8.72566
4459.58 8.60419
4460.75 8.48788
4463.10 8.26943
4465.44 8.06823
4467.78 7.88217
4470.13 7.70975
4472.47 7.54939
4474.82 7.39999
4477.16 7.26034
4479.51 7.12956
4481.85 7.00684
4484.20 6.89148
4486.54 6.78274
4488.89 6.68015
4491.23 6.58311
4493.57 6.49125
4495.92 6.40407
4498.26 6.32130
4500.61 6.24252
4502.95 6.16751
4505.30 6.09594
4507.64 6.02763
4509.99 5.96228
4512.33 5.89976
4514.68 5.83982
4517.02 5.78233
4519.37 5.72713
4521.71 5.67410
4526.40 5.57394
4531.09 5.48092
4535.78 5.39425
4540.47 5.31325
4545.15 5.23733
4549.84 5.16597
4554.53 5.09872
4559.22 5.03522
4563.91 4.97510
4568.60 4.91806
4573.29 4.86385
4577.98 4.81220
4582.67 4.76292
4587.36 4.71581
4592.05 4.67070
4596.74 4.62743
4601.42 4.58588
4606.11 4.54590
4610.80 4.50739
4615.49 4.47024
4620.18 4.43435
4624.87 4.39965
4634.25 4.33346
4643.63 4.27113
4653.00 4.21217
4662.38 4.15618
4671.76 4.10280
4681.14 4.05175
4690.52 4.00275
4699.90 3.95559
4709.27 3.91005
4718.65 3.86597
4728.03 3.82317
4737.41 3.78154
4746.79 3.74093
4756.17 3.70125
4765.54 3.66238
4774.92 3.62423
4793.68 3.54976
4812.44 3.47726
4831.19 3.40622
4849.95 3.33620
4868.71 3.26681
4887.46 3.19771
4906.22 3.12858
4924.97 3.05912
4943.73 2.98906
4962.49 2.91814
4981.24 2.84607
5000.00 2.77261
5018.39 2.69917
5036.78 2.62389
5055.17 2.54651
5073.55 2.46674
5091.94 2.38432
5110.33 2.29894
5128.72 2.21028
5147.11 2.11801
5156.30 2.07041
5165.49 2.02178
5174.69 1.97206
5183.88 1.92121
5193.08 1.86917
5202.27 1.81591
5211.46 1.76136
5220.66 1.70548
5229.85 1.64822
5239.05 1.58953
5248.24 1.52936
5257.43 1.46767
5266.63 1.40442
5275.82 1.33958
5285.02 1.27313
5294.21 1.20505
5303.41 1.13535
5312.60 1.06407
5321.79 0.991255
5330.99 0.917013
5340.18 0.841488
5349.38 0.764895
5358.57 0.687538
5367.76 0.609840
5372.36 0.571036
5376.96 0.532377
5381.55 0.493968
5386.15 0.455932
5390.75 0.418410
5395.35 0.381567
5399.94 0.345596
5404.54 0.310720
5409.14 0.277199
5411.44 0.261036
5413.73 0.245338
5416.03 0.230134
5418.33 0.215490
5420.63 0.201446
5422.93 0.188071
5425.23 0.175419
5427.52 0.163567
5429.82 0.152580
5432.12 0.142547
5434.42 0.133546
5436.72 0.125681
5439.02 0.119047
5441.32 0.113761
5442.47 0.111658
5443.61 0.109940
5444.76 0.108620
5445.91 0.107719
5447.06 0.107252
5448.21 0.107242
5449.36 0.107705
5450.51 0.108665
5451.66 0.110143
5452.81 0.112161
5453.96 0.114743
5455.11 0.117915
5456.26 0.121705
5457.41 0.126135
5458.56 0.131237
5459.70 0.137039
5460.85 0.143581
5462.00 0.150882
5463.15 0.158983
5464.30 0.167921
5465.45 0.177740
5466.60 0.188465
5467.75 0.200144
5468.90 0.212822
5470.05 0.226556
5471.20 0.241370
5472.35 0.257326
5473.50 0.274477
5474.65 0.292895
5475.79 0.312607
5476.94 0.333688
5478.09 0.356204
5479.24 0.380244
5480.39 0.405837
5481.54 0.433079
5482.69 0.462050
5483.84 0.492859
5484.99 0.525541
5486.14 0.560215
5487.29 0.596978
5488.44 0.635968
5489.59 0.677227
5490.73 0.720902
5491.88 0.767115
5493.03 0.816037
5494.18 0.867719
5495.33 0.922346
5496.48 0.980070
5497.63 1.04111
5498.78 1.10552
5499.93 1.17354
5501.08 1.24536
5502.23 1.32125
5503.38 1.40130
5504.53 1.48580
5505.67 1.57498
5506.82 1.66921
5507.97 1.76858
5509.12 1.87347
5510.27 1.98419
5511.42 2.10119
5512.57 2.22460
5513.72 2.35492
5514.87 2.49254
5516.02 2.63804
5517.17 2.79161
5518.32 2.95388
5519.47 3.12539
5520.62 3.30685
5521.76 3.49857
5522.91 3.70135
5524.06 3.91591
5525.21 4.14319
5526.36 4.38363
5527.51 4.63828
5528.66 4.90810
5529.81 5.19437
5530.96 5.49768
5532.11 5.81947
5533.26 6.16105
5534.41 6.52411
5535.56 6.90955
5536.70 7.31933
5537.85 7.75522
5539.00 8.21959
5540.15 8.71375
5541.30 9.24039
5542.45 9.80203
5543.60 10.4020
5544.75 11.0422
5545.90 11.7264
5547.05 12.4584
5548.20 13.2427
5549.35 14.0823
5550.50 14.9829
5551.64 15.9495
5552.79 16.9891
5553.94 18.1063
5555.09 19.3092
5556.24 20.6057
5557.39 22.0059
5558.54 23.5173
5559.69 25.1519
5560.84 26.9221
5561.99 28.8432
5563.14 30.9271
5564.29 33.1927
5565.44 35.6592
5566.59 38.3506
5567.73 41.2866
5568.88 44.4968
5570.03 48.0123
5571.18 51.8712
5572.33 56.1064
5573.48 60.7654
5574.63 65.8984
5575.20 68.6625
5575.78 71.5671
5576.35 74.6204
5576.93 77.8253
5577.50 81.2023
5578.08 84.7492
5578.65 88.4887
5579.23 92.4186
5579.80 96.5640
5580.38 100.930
5580.95 105.530
5581.53 110.367
5582.10 115.473
5582.67 120.844
5583.25 126.513
5583.82 132.475
5584.40 138.767
5584.97 145.393
5585.55 152.370
5586.12 159.700
5586.70 167.422
5587.27 175.524
5587.85 184.046
5588.42 192.972
5589.33 208.031
5590.24 224.166
5591.15 241.389
5592.07 259.662
5592.98 278.923
5593.89 298.993
5595.71 340.738
5596.62 361.802
5597.53 382.405
5598.44 402.066
5599.36 420.240
5600.27 436.381
5601.18 449.914
5602.09 460.395
5603.00 467.472
5603.91 470.943
5604.82 470.765
5605.73 467.071
5606.65 460.140
5607.56 450.350
5608.47 438.187
5609.38 424.139
5610.29 408.700
5612.11 375.420
5613.94 341.396
5614.85 324.750
5615.76 308.619
5616.67 293.100
5617.58 278.272
5618.72 260.711
5619.87 244.355
5621.01 229.165
5622.15 215.131
5623.29 202.170
5624.44 190.237
5625.58 179.240
5626.72 169.125
5627.86 159.802
5629.01 151.220
5630.15 143.300
5631.29 135.997
5632.43 129.243
5633.58 123.001
5634.72 117.219
5635.86 111.857
5637.00 106.872
5638.14 102.241
5639.29 97.9236
5640.43 93.9013
5641.57 90.1420
5642.71 86.6299
5643.86 83.3387
5645.00 80.2559
5646.14 77.3595
5647.28 74.6398
5648.43 72.0784
5649.57 69.6673
5650.71 67.3913
5651.85 65.2441
5653.00 63.2144
5654.14 61.2937
5655.28 59.4727
5656.42 57.7476
5657.57 56.1089
5658.71 54.5535
5659.85 53.0732
5660.99 51.6656
5663.28 49.0454
5665.56 46.6602
5667.85 44.4820
5670.13 42.4870
5672.42 40.6555
5674.70 38.9680
5676.99 37.4101
5679.27 35.9684
5681.56 34.6318
5683.84 33.3888
5686.13 32.2310
5688.41 31.1506
5690.70 30.1408
5692.98 29.1947
5695.27 28.3071
5697.55 27.4729
5699.84 26.6879
5702.12 25.9480
5704.41 25.2497
5706.69 24.5897
5708.97 23.9654
5711.26 23.3735
5713.54 22.8121
5715.83 22.2789
5718.11 21.7720
5720.40 21.2894
5722.68 20.8297
5724.97 20.3913
5727.25 19.9730
5731.82 19.1907
5736.39 18.4741
5740.96 17.8156
5745.53 17.2086
5750.10 16.6475
5754.67 16.1274
5759.24 15.6441
5763.81 15.1940
5768.38 14.7737
5772.95 14.3806
5777.52 14.0121
5782.09 13.6661
5786.66 13.3405
5791.23 13.0337
5795.80 12.7440
5800.37 12.4702
5804.94 12.2109
5809.51 11.9651
5814.08 11.7317
5818.65 11.5098
5823.22 11.2985
5827.79 11.0973
5832.36 10.9052
5836.93 10.7217
5841.50 10.5463
5846.07 10.3784
5855.20 10.0632
5864.34 9.77281
5873.48 9.50433
5882.62 9.25525
5891.76 9.02351
5900.90 8.80727
5910.04 8.60492
5919.18 8.41507
5928.32 8.23656
5937.46 8.06827
5946.60 7.90931
5955.74 7.75880
5964.88 7.61604
5974.02 7.48036
5983.16 7.35116
5992.30 7.22790
6001.43 7.11013
6010.57 6.99738
6019.71 6.88931
6028.85 6.78552
6037.99 6.68572
6047.13 6.58959
6056.27 6.49689
6074.55 6.32073
6092.83 6.15549
6111.11 5.99970
6129.39 5.85206
6147.66 5.71144
6165.94 5.57686
6184.22 5.44745
6202.50 5.32243
6220.78 5.20106
6239.06 5.08269
6257.34 4.96670
6275.62 4.85251
6293.89 4.73953
6312.17 4.62720
6330.45 4.51497
6348.73 4.40226
6367.01 4.28845
6385.29 4.17292
6403.57 4.05497
6412.71 3.99486
6421.85 3.93385
6430.99 3.87184
6440.12 3.80872
6449.26 3.74434
6458.40 3.67860
6467.54 3.61134
6476.68 3.54241
6485.82 3.47165
6494.96 3.39886
6504.10 3.32386
6513.24 3.24644
6522.38 3.16635
6531.52 3.08335
6540.66 2.99714
6549.80 2.90743
6558.94 2.81387
6568.08 2.71608
6572.65 2.66547
6577.22 2.61365
6581.79 2.56055
6586.35 2.50614
6590.92 2.45031
6595.49 2.39303
6600.06 2.33421
6604.63 2.27381
6609.20 2.21172
6613.77 2.14787
6618.34 2.08220
6622.91 2.01463
6627.48 1.94506
6632.05 1.87344
6636.62 1.79966
6641.19 1.72369
6645.76 1.64541
6650.33 1.56480
6654.90 1.48181
6659.47 1.39645
6664.04 1.30869
6668.61 1.21861
6673.18 1.12631
6675.46 1.07939
6677.75 1.03201
6680.03 0.984186
6682.32 0.935974
6684.60 0.887441
6686.89 0.838659
6691.46 0.740716
6696.03 0.643094
6698.31 0.594774
6700.60 0.547057
6702.88 0.500192
6705.17 0.454493
6707.45 0.410269
6709.74 0.367956
6710.88 0.347658
6712.02 0.328047
6713.16 0.309182
6714.31 0.291147
6715.45 0.274018
6716.59 0.257925
6717.73 0.242949
6718.88 0.229237
6720.02 0.216895
6721.16 0.206089
6722.30 0.196958
6722.87 0.193082
6723.45 0.189692
6724.02 0.186809
6724.59 0.184468
6725.16 0.182690
6725.73 0.181504
6726.02 0.181142
6726.30 0.180939
6726.59 0.180900
6726.87 0.181028
6727.16 0.181327
6727.44 0.181801
6727.73 0.182456
6728.02 0.183293
6728.30 0.184321
6728.59 0.185544
6728.87 0.186966
6729.16 0.188585
6729.44 0.190418
6729.73 0.192457
6730.30 0.197204
6730.87 0.202868
6731.44 0.209496
6732.01 0.217136
6732.58 0.225840
6733.16 0.235679
6733.73 0.246676
6734.30 0.258907
6734.87 0.272436
6735.44 0.287355
6736.01 0.303683
6736.58 0.321518
6737.15 0.340940
6737.73 0.362068
6738.30 0.384917
6738.87 0.409614
6739.44 0.436256
6740.01 0.464999
6740.58 0.495851
6741.15 0.528978
6741.72 0.564499
6742.30 0.602616
6742.87 0.643331
6743.44 0.686856
6744.01 0.733345
6744.58 0.783053
6745.15 0.835980
6745.72 0.892397
6746.29 0.952500
6746.87 1.01662
6747.44 1.08475
6748.01 1.15723
6748.58 1.23433
6749.15 1.31632
6749.72 1.40348
6750.29 1.49612
6750.86 1.59458
6751.44 1.69938
6752.01 1.81056
6752.58 1.92868
6753.15 2.05418
6753.72 2.18776
6754.29 2.32946
6754.86 2.48004
6755.43 2.64007
6756.01 2.81048
6756.58 2.99133
6757.15 3.18364
6757.72 3.38818
6758.29 3.60616
6758.86 3.83774
6759.43 4.08425
6760.00 4.34675
6760.58 4.62688
6761.15 4.92491
6761.72 5.24264
6762.29 5.58153
6762.86 5.94382
6763.43 6.32998
6764.00 6.74249
6764.57 7.18340
6765.15 7.65581
6765.72 8.16051
6766.29 8.70099
6766.86 9.28017
6767.43 9.90129
6768.00 10.5679
6768.57 11.2839
6769.14 12.0535
6769.71 12.8830
6770.29 13.7748
6770.86 14.7359
6771.43 15.7729
6772.00 16.8949
6772.57 18.1058
6773.14 19.4163
6773.71 20.8362
6774.28 22.3792
6774.86 24.0521
6775.43 25.8710
6776.00 27.8513
6776.57 30.0101
6777.14 32.3664
6777.71 34.9418
6778.28 37.7605
6778.85 40.8554
6779.42 44.2463
6780.00 47.9729
6780.57 52.0737
6780.85 54.2819
6781.14 56.6007
6781.42 59.0365
6781.71 61.5868
6782.00 64.2764
6782.28 67.0939
6782.57 70.0670
6782.85 73.1829
6783.14 76.4721
6783.42 79.9332
6783.71 83.5755
6783.99 87.3953
6784.28 91.4295
6784.57 95.6606
6784.85 100.129
6785.14 104.816
6785.42 109.763
6785.71 114.950
6785.99 120.424
6786.28 126.157
6786.56 132.202
6786.85 138.526
6787.14 145.185
6787.42 152.139
6787.89 164.431
6788.37 177.648
6788.84 191.791
6789.32 206.803
6789.79 222.688
6790.26 239.310
6791.21 274.030
6791.68 291.660
6792.16 309.010
6792.63 325.672
6793.11 341.162
6793.58 355.079
6794.05 366.937
6794.53 376.340
6795.00 382.970
6795.47 386.669
6795.95 387.369
6796.42 385.156
6796.90 380.253
6797.37 372.948
6797.84 363.619
6798.32 352.670
6798.79 340.531
6799.74 314.026
6800.69 286.664
6801.16 273.201
6801.63 260.099
6802.11 247.460
6802.58 235.379
6802.97 225.943
6803.35 216.901
6803.74 208.258
6804.12 200.033
6804.51 192.178
6804.89 184.724
6805.28 177.621
6805.67 170.893
6806.05 164.489
6806.44 158.413
6806.82 152.648
6807.21 147.193
6807.59 142.003
6807.98 137.092
6808.37 132.418
6808.75 127.992
6809.14 123.777
6809.52 119.772
6809.91 115.966
6810.29 112.356
6810.68 108.912
6811.06 105.642
6811.45 102.519
6811.84 99.5505
6812.61 94.0124
6813.38 88.9660
6814.15 84.3571
6814.92 80.1383
6815.69 76.2632
6816.46 72.7053
6817.23 69.4271
6818.00 66.4004
6818.78 63.5968
6819.55 61.0014
6820.32 58.5911
6821.09 56.3486
6821.86 54.2559
6822.63 52.3047
6823.40 50.4800
6824.17 48.7710
6824.95 47.1679
6825.72 45.6619
6826.49 44.2452
6827.26 42.9106
6828.03 41.6503
6828.80 40.4615
6829.57 39.3374
6830.34 38.2733
6831.12 37.2635
6831.89 36.3066
6832.66 35.3978
6833.43 34.5338
6834.20 33.7105
6834.97 32.9272
6836.51 31.4677
6838.06 30.1363
6839.60 28.9178
6841.14 27.7983
6842.68 26.7684
6844.22 25.8175
6845.77 24.9374
6847.31 24.1203
6848.85 23.3610
6850.39 22.6533
6851.94 21.9925
6853.48 21.3738
6855.02 20.7941
6856.56 20.2495
6858.11 19.7376
6859.65 19.2549
6861.19 18.7999
6862.73 18.3699
6864.27 17.9630
6865.82 17.5773
6867.36 17.2116
6868.90 16.8641
6870.44 16.5338
6871.99 16.2192
6873.53 15.9195
6875.07 15.6337
6876.61 15.3607
6879.70 14.8500
6882.78 14.3818
6885.87 13.9510
6888.95 13.5536
6892.04 13.1857
6895.12 12.8444
6898.21 12.5266
6901.29 12.2304
6904.38 11.9533
6907.46 11.6938
6910.55 11.4502
6913.63 11.2211
6916.71 11.0052
6919.80 10.8014
6922.88 10.6088
6925.97 10.4264
6929.05 10.2534
6932.14 10.0892
6935.22 9.93297
6938.31 9.78431
6941.39 9.64255
6944.48 9.50730
6947.56 9.37802
6950.65 9.25441
6953.73 9.13602
6956.82 9.02254
6962.98 8.80916
6969.15 8.61202
6975.32 8.42934
6981.49 8.25945
6987.66 8.10106
6993.83 7.95296
7000.00 7.81412
7004.25 7.72336
7008.50 7.63631
7012.75 7.55273
7017.00 7.47242
7025.50 7.32074
7034.01 7.17984
7042.51 7.04851
7051.01 6.92571
7059.51 6.81056
7068.01 6.70226
7076.51 6.60014
7085.01 6.50363
7093.51 6.41219
7102.02 6.32537
7110.52 6.24276
7119.02 6.16402
7127.52 6.08881
7136.02 6.01686
7144.52 5.94789
7153.02 5.88169
7161.52 5.81805
7170.03 5.75677
7178.53 5.69769
7187.03 5.64066
7204.03 5.53216
7221.03 5.43029
7238.04 5.33421
7255.04 5.24322
7272.04 5.15673
7286.29 5.08732
7300.54 5.02045
7314.78 4.95586
7329.03 4.89336
7343.28 4.83274
7357.53 4.77385
7386.02 4.66063
7414.52 4.55264
7443.01 4.44901
7471.51 4.34898
7500.00 4.25194
7530.19 4.15074
7560.38 4.05169
7590.56 3.95431
7620.75 3.85814
7650.94 3.76277
7681.13 3.66783
7711.31 3.57296
7741.50 3.47783
7770.84 3.38479
7800.18 3.29089
7829.52 3.19585
7858.87 3.09935
7888.21 3.00109
7917.55 2.90075
7946.89 2.79800
7976.23 2.69249
8005.57 2.58384
8034.91 2.47167
8049.58 2.41412
8064.25 2.35553
8078.93 2.29584
8093.60 2.23499
8108.27 2.17291
8122.94 2.10954
8137.61 2.04482
8152.28 1.97868
8166.95 1.91106
8181.62 1.84189
8196.29 1.77110
8210.96 1.69864
8225.63 1.62443
8240.30 1.54843
8254.97 1.47060
8269.64 1.39090
8284.31 1.30933
8298.98 1.22590
8313.66 1.14066
8328.33 1.05374
8335.66 1.00969
8343.00 0.965290
8350.33 0.920576
8357.67 0.875602
8365.00 0.830411
8372.34 0.785085
8387.01 0.694348
8394.34 0.649143
8401.68 0.604236
8409.01 0.559784
8416.35 0.515986
8423.69 0.473070
8431.02 0.431328
8438.36 0.391086
8442.02 0.371648
8445.69 0.352745
8449.36 0.334430
8453.03 0.316777
8456.69 0.299860
8460.36 0.283765
8464.03 0.268574
8467.70 0.254389
8471.37 0.241320
8475.03 0.229489
8478.70 0.219020
8482.37 0.210062
8486.04 0.202775
8487.87 0.199811
8489.70 0.197335
8491.54 0.195366
8493.37 0.193934
8495.21 0.193065
8497.04 0.192789
8498.87 0.193137
8500.71 0.194139
8502.54 0.195831
8504.37 0.198247
8506.21 0.201426
8508.04 0.205408
8509.88 0.210234
8511.71 0.215948
8513.54 0.222597
8515.38 0.230230
8517.21 0.238899
8519.04 0.248653
8520.88 0.259562
8522.71 0.271681
8524.55 0.285076
8526.38 0.299806
8528.21 0.315960
8530.05 0.333609
8531.88 0.352833
8533.71 0.373707
8535.55 0.396346
8537.38 0.420837
8539.22 0.447284
8541.05 0.475795
8542.88 0.506488
8544.72 0.539488
8546.55 0.574926
8548.39 0.612923
8550.22 0.653668
8552.05 0.697304
8553.89 0.743999
8555.72 0.793908
8557.55 0.847279
8559.39 0.904294
8561.22 0.965174
8563.06 1.03012
8564.89 1.09946
8566.72 1.17343
8568.56 1.25232
8570.39 1.33644
8572.23 1.42613
8574.06 1.52176
8575.89 1.62371
8577.73 1.73234
8579.56 1.84821
8581.39 1.97176
8583.23 2.10350
8585.06 2.24402
8586.90 2.39390
8588.73 2.55383
8590.56 2.72451
8592.40 2.90662
8594.23 3.10120
8596.07 3.30908
8597.90 3.53123
8599.73 3.76876
8601.57 4.02283
8603.40 4.29475
8605.24 4.58591
8607.07 4.89769
8608.90 5.23210
8610.74 5.59083
8612.57 5.97591
8614.40 6.38933
8616.24 6.83400
8618.07 7.31241
8619.91 7.82754
8621.74 8.38239
8623.57 8.98120
8625.41 9.62774
8627.24 10.3265
8629.07 11.0825
8630.91 11.9013
8632.74 12.7892
8634.58 13.7530
8636.41 14.7999
8638.24 15.9399
8640.08 17.1821
8641.91 18.5375
8643.74 20.0178
8645.58 21.6384
8647.41 23.4145
8649.25 25.3639
8651.08 27.5055
8652.00 28.6565
8652.91 29.8647
8653.83 31.1334
8654.75 32.4662
8655.66 33.8670
8656.58 35.3397
8657.50 36.8887
8658.42 38.5185
8659.33 40.2341
8660.25 42.0406
8661.17 43.9436
8662.08 45.9490
8663.00 48.0629
8663.92 50.2920
8664.83 52.6434
8665.75 55.1216
8666.67 57.7400
8667.58 60.5041
8668.50 63.4228
8669.42 66.5051
8670.34 69.7606
8671.25 73.1993
8672.17 76.8315
8673.09 80.6635
8674.00 84.7147
8674.92 88.9919
8675.84 93.5065
8676.75 98.2693
8677.67 103.291
8678.59 108.583
8679.50 114.153
8680.42 120.004
8681.83 129.601
8683.24 139.903
8684.65 150.918
8686.07 162.624
8687.48 174.981
8688.89 187.887
8691.71 214.823
8693.12 228.464
8694.53 241.854
8695.94 254.684
8697.36 266.602
8698.77 277.253
8700.18 286.274
8701.59 293.369
8703.00 298.303
8704.41 300.940
8705.82 301.242
8707.23 299.284
8708.65 295.237
8710.06 289.337
8711.47 281.887
8712.88 273.196
8714.29 263.581
8717.11 242.712
8719.94 221.235
8721.35 210.694
8722.76 200.454
8724.17 190.586
8725.58 181.142
8726.76 173.567
8727.95 166.323
8729.13 159.413
8730.32 152.834
8731.50 146.581
8732.68 140.645
8733.87 135.015
8735.05 129.679
8736.24 124.625
8737.42 119.838
8738.60 115.306
8739.79 111.015
8740.97 106.951
8742.16 103.101
8743.34 99.4541
8744.52 96.0002
8745.71 92.7225
8746.89 89.6132
8748.08 86.6622
8749.26 83.8600
8750.44 81.1976
8751.63 78.6667
8752.81 76.2594
8754.00 73.9681
8755.18 71.7862
8756.36 69.7070
8758.73 65.8331
8761.10 62.3028
8763.47 59.0792
8765.83 56.1260
8768.20 53.4156
8770.57 50.9224
8772.94 48.6239
8775.31 46.5005
8777.67 44.5347
8780.04 42.7113
8782.41 41.0173
8784.78 39.4395
8787.15 37.9678
8789.51 36.5928
8791.88 35.3061
8794.25 34.1000
8796.62 32.9677
8798.99 31.9033
8801.35 30.9016
8803.72 29.9569
8806.09 29.0651
8808.46 28.2222
8810.82 27.4246
8813.19 26.6689
8815.56 25.9522
8817.93 25.2716
8820.30 24.6250
8822.66 24.0095
8825.03 23.4232
8829.77 22.3310
8834.50 21.3348
8839.24 20.4232
8843.97 19.5861
8848.71 18.8151
8853.45 18.1031
8858.18 17.4439
8862.92 16.8317
8867.65 16.2622
8872.39 15.7310
8877.12 15.2345
8881.86 14.7694
8886.60 14.3329
8891.33 13.9226
8896.07 13.5362
8900.80 13.1716
8905.54 12.8270
8910.27 12.5010
8915.01 12.1920
8919.75 11.8987
8924.48 11.6199
8929.22 11.3545
8933.95 11.1018
8938.69 10.8605
8943.42 10.6302
8952.89 10.1990
8962.37 9.80302
8971.84 9.43798
8981.31 9.10011
8990.78 8.78637
9000.25 8.49399
9009.72 8.22072
9019.19 7.96452
9028.67 7.72365
9038.14 7.49656
9047.61 7.28195
9057.08 7.07860
9066.55 6.88551
9076.02 6.70170
9085.49 6.52641
9094.97 6.35884
9104.44 6.19839
9113.91 6.04440
9123.38 5.89640
9132.85 5.75386
9142.32 5.61636
9161.27 5.35492
9180.21 5.10929
9199.15 4.87713
9218.09 4.65647
9237.04 4.44565
9255.98 4.24323
9274.92 4.04794
9293.87 3.85871
9312.81 3.67459
9331.75 3.49474
9350.69 3.31840
9369.64 3.14492
9388.58 2.97370
9407.52 2.80422
9426.47 2.63602
9445.41 2.46868
9464.35 2.30186
9483.29 2.13530
9502.24 1.96878
9521.18 1.80219
9540.12 1.63555
9559.06 1.46901
9568.54 1.38588
9578.01 1.30294
9587.48 1.22025
9596.95 1.13796
9606.42 1.05619
9615.89 0.975124
9625.36 0.894973
9634.84 0.816002
9644.31 0.738524
9653.78 0.662949
9663.25 0.589741
9667.99 0.554206
9672.72 0.519501
9677.46 0.485705
9682.19 0.452930
9686.93 0.421289
9691.66 0.390917
9696.40 0.361942
9701.14 0.334526
9703.50 0.321457
9705.87 0.308844
9708.24 0.296713
9710.61 0.285094
9712.98 0.274005
9715.34 0.263481
9717.71 0.253552
9720.08 0.244251
9722.45 0.235612
9724.82 0.227671
9727.18 0.220468
9729.55 0.214045
9731.92 0.208440
9734.29 0.203701
9736.65 0.199877
9739.02 0.197019
9741.39 0.195181
9743.76 0.194421
9746.13 0.194800
9748.49 0.196382
9750.86 0.199238
9753.23 0.203439
9755.60 0.209064
9757.97 0.216195
9760.33 0.224922
9762.70 0.235337
9765.07 0.247541
9767.44 0.261633
9769.80 0.277741
9772.17 0.295979
9774.54 0.316477
9776.91 0.339363
9779.28 0.364805
9781.64 0.392953
9784.01 0.423976
9786.38 0.458042
9787.56 0.476288
9788.75 0.495373
9789.93 0.515324
9791.11 0.536167
9792.30 0.557931
9793.48 0.580647
9794.67 0.604345
9795.85 0.629056
9797.03 0.654815
9798.22 0.681654
9799.40 0.709611
9800.59 0.738722
9801.77 0.769024
9802.95 0.800560
9804.14 0.833369
9805.32 0.867465
9807.69 0.939845
9810.06 1.01805
9812.43 1.10250
9814.79 1.19363
9817.16 1.29192
9819.53 1.39790
9821.90 1.51214
9824.26 1.63519
9826.63 1.76783
9829.00 1.91075
9831.37 2.06475
9833.74 2.23068
9836.10 2.40952
9838.47 2.60229
9840.84 2.81016
9843.21 3.03426
9845.58 3.27618
9847.94 3.53735
9850.31 3.81944
9852.68 4.12418
9855.05 4.45386
9857.41 4.81064
9859.78 5.19704
9862.15 5.61567
9864.52 6.07002
9866.89 6.56339
9869.25 7.09967
9871.62 7.68324
9873.99 8.31897
9876.36 9.01237
9878.73 9.76965
9881.09 10.5974
9883.46 11.5043
9885.83 12.4990
9887.01 13.0324
9888.20 13.5916
9889.38 14.1782
9890.56 14.7938
9891.75 15.4401
9892.93 16.1188
9894.12 16.8320
9895.30 17.5818
9896.48 18.3704
9897.67 19.2002
9898.85 20.0738
9900.04 20.9931
9901.22 21.9626
9902.40 22.9849
9903.59 24.0632
9904.77 25.2013
9905.96 26.4031
9907.14 27.6729
9908.32 29.0151
9909.51 30.4347
9910.69 31.9369
9911.88 33.5274
9913.06 35.2122
9914.24 36.9979
9915.43 38.8914
9916.61 40.9003
9917.80 43.0325
9918.98 45.2948
9920.16 47.7001
9921.35 50.2565
9922.53 52.9743
9923.71 55.8647
9924.90 58.9394
9926.08 62.2108
9927.27 65.6919
9928.45 69.3930
9929.63 73.3345
9930.82 77.5275
9932.00 81.9869
9933.19 86.7270
9934.37 91.7621
9935.55 97.1059
9936.74 102.771
9937.92 108.762
9939.49 117.227
9941.06 126.291
9942.62 135.961
9944.19 146.202
9945.76 156.977
9947.33 168.193
9950.46 191.466
9952.03 203.163
9953.60 214.577
9955.16 225.441
9956.73 235.433
9958.30 244.251
9959.87 251.585
9961.43 257.187
9963.00 260.858
9964.57 262.494
9966.14 262.080
9967.70 259.695
9969.27 255.503
9970.84 249.723
9972.41 242.629
9973.97 234.493
9975.54 225.604
9978.68 206.553
9981.81 187.161
9983.38 177.707
9984.95 168.554
9986.51 159.755
9988.08 151.362
9989.57 143.774
9991.06 136.579
9992.55 129.776
9994.04 123.358
9995.53 117.313
9997.02 111.628
9998.51 106.285
10000.0 101.267
10001.3 97.0467
10002.7 93.0575
10004.0 89.2862
10005.3 85.7203
10006.7 82.3478
10008.0 79.1570
10009.3 76.1368
10010.6 73.2978
10012.0 70.5869
10013.3 68.0171
10014.6 65.5795
10015.9 63.2830
10017.3 61.0849
10018.6 58.9962
10019.9 57.0099
10021.3 55.1337
10023.9 51.6180
10026.6 48.4335
10029.2 45.5197
10031.9 42.8666
10034.5 40.4264
10037.2 38.1934
10039.8 36.1296
10042.5 34.2319
10045.2 32.4697
10047.8 30.8363
10050.5 29.3188
10053.1 27.9113
10055.8 26.5933
10058.4 25.3660
10061.1 24.2124
10063.7 23.1341
10066.4 22.1170
10069.1 21.1630
10071.7 20.2601
10074.4 19.4106
10077.0 18.6040
10079.7 17.8427
10082.3 17.1178
10085.0 16.4318
10087.6 15.7767
10090.3 15.1527
10095.6 13.9915
10100.9 12.9300
10106.2 11.9553
10111.5 11.0562
10116.9 10.2236
10122.2 9.44970
10127.5 8.72770
10132.8 8.05196
10138.1 7.41761
10143.4 6.82052
10148.7 6.25715
10154.0 5.72454
10159.3 5.22018
10164.6 4.74203
10170.0 4.28844
10175.3 3.85737
10180.6 3.44955
10185.9 3.06367
10188.6 2.87857
10191.2 2.69964
10193.9 2.52558
10196.5 2.35778
10199.2 2.19509
10201.8 2.03889
10204.5 1.88816
10207.1 1.74428
10209.8 1.60640
10212.4 1.47588
10215.1 1.35207
10217.8 1.23589
10219.1 1.18080
10220.4 1.12780
10221.8 1.07695
10223.1 1.02869
10224.4 0.982354
10225.7 0.938402
10227.1 0.896922
10228.4 0.858289
10229.7 0.822014
10231.0 0.788504
10232.4 0.757869
10233.7 0.730424
10235.0 0.705875
10236.4 0.684574
10237.7 0.666660
10239.0 0.652376
10240.3 0.641662
10241.7 0.634806
10243.0 0.631984
10244.3 0.633358
10245.6 0.639144
10247.0 0.649560
10248.3 0.664829
10249.6 0.685014
10251.0 0.710674
10252.3 0.741939
10253.6 0.779095
10254.3 0.799811
10254.9 0.822091
10255.6 0.846348
10256.3 0.871898
10256.9 0.899561
10257.6 0.928553
10258.3 0.959801
10258.9 0.992417
10259.6 1.02744
10260.3 1.06387
10260.9 1.10287
10261.6 1.14333
10262.3 1.18653
10262.9 1.23122
10263.6 1.27884
10264.2 1.32801
10264.9 1.37950
10265.6 1.43336
10266.9 1.54937
10268.2 1.67586
10269.6 1.81340
10270.9 1.96148
10272.2 2.12299
10273.5 2.29760
10274.9 2.48607
10276.2 2.68763
10277.5 2.90622
10278.8 3.14131
10280.2 3.39389
10281.5 3.66294
10282.8 3.95367
10284.2 4.26535
10285.5 4.59929
10286.8 4.95413
10288.1 5.33676
10289.5 5.74621
10290.8 6.18421
10292.1 6.64901
10293.4 7.14965
10294.8 7.68489
10296.1 8.25706
10297.4 8.86391
10298.8 9.51731
10300.1 10.2157
10301.4 10.9622
10302.7 11.7541
10304.1 12.6068
10305.4 13.5185
10306.7 14.4933
10308.0 15.5279
10309.4 16.6425
10310.7 17.8351
10312.0 19.1111
10313.4 20.4662
10314.7 21.9274
10316.0 23.4919
10317.3 25.1674
10318.7 26.9480
10320.0 28.8696
10321.3 30.9286
10322.7 33.1351
10324.0 35.4815
10325.3 38.0150
10326.6 40.7306
10328.0 43.6414
10329.3 46.7369
10330.6 50.0785
10331.9 53.6584
10333.3 57.4926
10334.6 61.5652
10335.9 65.9543
10337.3 70.6464
10338.6 75.6579
10339.9 80.9627
10340.9 84.9928
10341.8 89.1606
10342.7 93.5117
10343.7 98.0496
10345.6 107.695
10347.4 118.105
10349.3 129.264
10351.2 141.131
10353.1 153.623
10355.0 166.618
10356.8 180.015
10358.7 193.447
10360.6 206.712
10362.5 219.494
10364.4 231.457
10366.2 242.256
10368.1 251.572
10370.0 259.134
10371.9 264.771
10373.8 268.316
10375.7 269.794
10377.5 269.288
10379.4 266.957
10381.3 263.018
10383.2 257.724
10385.1 251.337
10386.9 244.078
10388.8 236.264
10392.6 219.687
10394.5 211.255
10396.3 202.895
10398.2 194.701
10400.1 186.738
10401.5 180.989
10402.9 175.448
10404.3 170.082
10405.7 164.899
10407.1 159.901
10408.5 155.088
10409.8 150.459
10411.2 146.012
10412.6 141.744
10414.0 137.649
10415.4 133.722
10416.8 129.958
10418.2 126.350
10419.6 122.894
10421.0 119.582
10422.4 116.408
10423.8 113.346
10425.1 110.432
10427.9 104.960
10430.7 99.9268
10433.5 95.2912
10436.3 91.0158
10439.0 87.0667
10441.8 83.4132
10444.6 80.0277
10447.4 76.8744
10450.2 73.9536
10453.0 71.2337
10455.7 68.6966
10458.5 66.3264
10461.3 64.1085
10464.1 62.0301
10466.9 60.0794
10469.6 58.2460
10472.4 56.5203
10475.2 54.8940
10478.0 53.3591
10480.8 51.9087
10483.5 50.5365
10486.3 49.2367
10489.1 48.0041
10491.9 46.8297
10494.7 45.7176
10497.4 44.6595
10500.2 43.6518
10503.0 42.6911
10505.8 41.7743
10508.6 40.8987
10511.3 40.0617
10516.9 38.4911
10522.5 37.0514
10528.0 35.7249
10533.6 34.4993
10539.2 33.3618
10544.7 32.3071
10550.3 31.3251
10555.8 30.4085
10561.4 29.5512
10567.0 28.7476
10572.5 27.9931
10578.1 27.2831
10583.7 26.6128
10589.2 25.9812
10594.8 25.3840
10600.3 24.8184
10605.9 24.2811
10611.5 23.7717
10617.0 23.2874
10622.6 22.8262
10628.2 22.3858
10633.7 21.9662
10639.3 21.5654
10644.8 21.1820
10656.0 20.4630
10667.1 19.8014
10678.2 19.1898
10689.3 18.6236
10700.4 18.0973
10711.6 17.6067
10722.7 17.1477
10733.8 16.7179
10744.9 16.3141
10756.1 15.9339
10767.2 15.5749
10778.3 15.2358
10789.4 14.9142
10800.6 14.6092
10811.7 14.3191
10822.8 14.0430
10833.9 13.7796
10845.0 13.5281
10856.2 13.2872
10867.3 13.0566
10878.4 12.8351
10889.5 12.6226
10911.8 12.2212
10934.0 11.8481
10956.3 11.4995
10978.5 11.1726
11000.8 10.8646
11023.0 10.5734
11045.3 10.2969
11067.5 10.0335
11089.8 9.78134
11112.0 9.53936
11134.3 9.30605
11156.5 9.08037
11178.8 8.86125
11201.0 8.64779
11223.2 8.43884
11245.5 8.23359
11267.7 8.03113
11290.0 7.83064
11334.5 7.43147
11356.7 7.23091
11379.0 7.02838
11401.2 6.82251
11412.3 6.71798
11423.5 6.61213
11434.6 6.50466
11445.7 6.39554
11456.8 6.28446
11468.0 6.17117
11479.1 6.05527
11490.2 5.93670
11501.3 5.81489
11512.5 5.68972
11523.6 5.56054
11534.7 5.42715
11545.8 5.28893
11556.9 5.14531
11568.1 4.99553
11573.6 4.91823
11579.2 4.83914
11584.8 4.75803
11590.3 4.67506
11595.9 4.58998
11601.4 4.50265
11607.0 4.41279
11612.6 4.32056
11618.1 4.22567
11623.7 4.12793
11629.3 4.02719
11634.8 3.92324
11640.4 3.81590
11645.9 3.70495
11651.5 3.58996
11657.1 3.47110
11662.6 3.34792
11668.2 3.22015
11673.8 3.08729
11679.3 2.94954
11684.9 2.80637
11690.4 2.65751
11693.2 2.58059
11696.0 2.50242
11698.8 2.42271
11701.6 2.34144
11704.3 2.25857
11707.1 2.17411
11709.9 2.08804
11712.7 2.00036
11715.5 1.91109
11718.2 1.82026
11721.0 1.72790
11723.8 1.63409
11726.6 1.53890
11729.4 1.44247
11732.1 1.34494
11734.9 1.24653
11740.5 1.04780
11743.3 0.948599
11746.1 0.850057
11748.8 0.752840
11751.6 0.657784
11754.4 0.565934
11755.8 0.521609
11757.2 0.478601
11758.6 0.437129
11760.0 0.397436
11761.3 0.359794
11762.7 0.324512
11764.1 0.291935
11765.5 0.262452
11766.9 0.236500
11768.3 0.214576
11769.0 0.205233
11769.7 0.197237
11770.4 0.190438
11771.1 0.185116
11771.4 0.182968
11771.8 0.181209
11772.1 0.179850
11772.5 0.178927
11772.8 0.178397
11773.2 0.178309
11773.5 0.178676
11773.9 0.179483
11774.2 0.180792
11774.6 0.182603
11774.9 0.184932
11775.2 0.187706
11775.6 0.191106
11775.9 0.195076
11776.3 0.199635
11776.6 0.204646
11777.3 0.216849
11778.0 0.231499
11778.7 0.249200
11779.4 0.269633
11780.1 0.293594
11780.8 0.321029
11781.5 0.352177
11782.2 0.386760
11782.9 0.426051
11783.6 0.469209
11784.3 0.517798
11785.0 0.570756
11785.7 0.629977
11786.4 0.694149
11787.1 0.765546
11787.8 0.842568
11788.5 0.927933
11789.2 1.01971
11789.9 1.12113
11790.5 1.22988
11791.2 1.34978
11791.9 1.47809
11792.6 1.61932
11793.3 1.77024
11794.0 1.93614
11794.7 2.11324
11795.4 2.30775
11796.1 2.51525
11796.8 2.74302
11797.5 2.98591
11798.2 3.25246
11798.9 3.53668
11799.6 3.84860
11800.3 4.18123
11801.0 4.54636
11801.7 4.93589
11802.4 5.36367
11803.1 5.82028
11803.8 6.32208
11804.4 6.85809
11805.1 7.44763
11805.8 8.07795
11806.5 8.77191
11807.2 9.51468
11807.9 10.3334
11808.6 11.2108
11809.3 12.1791
11810.0 13.2181
11810.7 14.3665
11811.4 15.6006
11812.1 16.9665
11812.8 18.4365
11813.5 20.0660
11814.2 21.8225
11814.9 23.7724
11815.6 25.8771
11815.9 27.0200
11816.3 28.2170
11817.0 30.7459
11817.3 32.1203
11817.7 33.5606
11818.0 35.0699
11818.3 36.6056
11818.7 38.2614
11819.0 39.9971
11819.4 41.8166
11819.7 43.6680
11820.1 45.6644
11820.4 47.7570
11820.8 49.9501
11821.1 52.1811
11821.5 54.5857
11821.8 57.1046
11822.2 59.7424
11822.5 62.4231
11822.9 65.3090
11823.2 68.3275
11823.9 74.6838
11824.6 81.7075
11825.3 89.2226
11826.0 97.4619
11826.7 106.191
11827.4 115.643
11828.1 125.504
11828.8 135.833
11829.5 146.519
11830.2 157.572
11830.8 168.484
11831.5 179.333
11832.2 189.547
11832.9 199.136
11833.6 207.543
11834.3 214.657
11835.0 220.269
11835.7 224.275
11836.4 226.489
11837.1 226.984
11837.8 225.832
11838.5 223.150
11839.2 219.209
11839.9 214.195
11840.6 208.333
11841.3 201.742
11841.9 194.812
11843.3 180.224
11844.0 172.835
11844.7 165.660
11845.4 158.663
11846.1 151.895
11846.7 145.852
11847.4 140.055
11848.0 134.512
11848.7 129.227
11849.3 124.201
11849.9 119.428
11850.6 114.901
11851.2 110.677
11851.9 106.613
11852.5 102.767
11853.1 99.1274
11853.8 95.6838
11854.4 92.4252
11855.1 89.3411
11855.7 86.4211
11856.3 83.6976
11857.0 81.0748
11857.6 78.5884
11858.2 76.2298
11858.9 73.9912
11859.5 71.8652
11860.2 69.8449
11860.8 67.9238
11861.4 66.1236
11862.1 64.3817
11862.7 62.7220
11863.4 61.1396
11864.0 59.6298
11864.6 58.1885
11865.3 56.8115
11866.5 54.2552
11867.8 51.8940
11869.1 49.7254
11870.4 47.7287
11871.7 45.9000
11872.9 44.1947
11874.2 42.6142
11875.5 41.1461
11876.8 39.7901
11878.0 38.5153
11879.3 37.3245
11880.6 36.2101
11881.9 35.1733
11883.2 34.1919
11884.4 33.2761
11885.7 32.4065
11887.0 31.5927
11888.3 30.8178
11889.5 30.0850
11890.8 29.3911
11892.1 28.7383
11893.4 28.1137
11894.6 27.5201
11895.9 26.9555
11897.2 26.4219
11898.5 25.9091
11899.8 25.4198
11901.0 24.9525
11902.3 24.5093
11904.9 23.6723
11907.4 22.9064
11910.0 22.1978
11912.5 21.5455
11915.1 20.9385
11917.6 20.3768
11920.2 19.8515
11922.7 19.3630
11925.3 18.9059
11927.8 18.4773
11930.4 18.0731
11933.0 17.6942
11935.5 17.3355
11938.1 16.9982
11940.6 16.6779
11943.2 16.3756
11945.7 16.0878
11948.3 15.8154
11950.8 15.5553
11953.4 15.3086
11956.0 15.0723
11958.5 14.8477
11961.1 14.6321
11963.6 14.4267
11966.2 14.2300
11968.7 14.0414
11973.8 13.6857
11978.9 13.3571
11984.0 13.0524
11989.2 12.7689
11994.3 12.5045
11999.4 12.2571
12004.5 12.0251
12009.6 11.8074
12014.7 11.6018
12019.8 11.4076
12024.9 11.2238
12030.0 11.0496
12035.1 10.8840
12040.2 10.7265
12045.4 10.5764
12050.5 10.4333
12055.6 10.2961
12060.7 10.1649
12065.8 10.0389
12070.9 9.91802
12076.0 9.80176
12081.1 9.68984
12091.3 9.47809
12101.5 9.28030
12111.8 9.09498
12122.0 8.92067
12132.2 8.75627
12142.4 8.60039
12152.6 8.45243
12162.8 8.31127
12173.1 8.17649
12183.3 8.04721
12193.5 7.92302
12203.7 7.80344
12213.9 7.68814
12224.1 7.57652
12234.4 7.46835
12244.6 7.36332
12254.8 7.26125
12275.2 7.06450
12295.7 6.87652
12316.1 6.69566
12336.5 6.52084
12357.0 6.35082
12377.4 6.18483
12397.8 6.02189
12418.3 5.86143
12438.7 5.70264
12459.1 5.54507
12479.6 5.38808
12500.0 5.23117
12521.0 5.06884
12542.1 4.90563
12563.8 4.73523
12585.6 4.56276
12607.3 4.38768
12629.1 4.20949
12650.8 4.02767
12672.6 3.84172
12694.3 3.65113
12716.0 3.45550
12737.8 3.25417
12748.7 3.15120
12759.5 3.04677
12770.4 2.94062
12781.3 2.83290
12792.2 2.72339
12803.0 2.61224
12813.9 2.49924
12824.8 2.38458
12835.7 2.26807
12846.5 2.14993
12857.4 2.03000
12868.3 1.90857
12879.2 1.78565
12890.0 1.66138
12900.9 1.53586
12911.8 1.40958
12933.5 1.15583
12944.4 1.02938
12955.3 0.904308
12966.2 0.781315
12977.0 0.661811
12982.5 0.603726
12987.9 0.547076
12993.4 0.492115
12998.8 0.439218
13004.2 0.388509
13006.9 0.364122
13009.7 0.340445
13012.4 0.317530
13015.1 0.295432
13017.8 0.274210
13020.5 0.253998
13023.3 0.234716
13026.0 0.216508
13028.7 0.199452
13031.4 0.183626
13034.1 0.169116
13036.9 0.156013
13039.6 0.144413
13042.3 0.134454
13045.0 0.126172
13047.7 0.119724
13050.4 0.115234
13053.2 0.112841
13054.5 0.112467
13055.9 0.112670
13057.2 0.113470
13058.6 0.114886
13060.0 0.116940
13061.3 0.119652
13064.0 0.127109
13066.7 0.137497
13069.5 0.150994
13072.2 0.167812
13074.9 0.188181
13076.3 0.199772
13077.6 0.212345
13079.0 0.225931
13080.3 0.240567
13081.7 0.256287
13083.1 0.273128
13084.4 0.291130
13085.8 0.310186
13087.1 0.330620
13088.5 0.352338
13089.9 0.375384
13091.2 0.399804
13092.6 0.425647
13093.9 0.452961
13095.3 0.481799
13096.7 0.512213
13098.0 0.544258
13099.4 0.577993
13100.7 0.613477
13102.1 0.650771
13103.5 0.689940
13104.8 0.731052
13106.2 0.774174
13107.5 0.819040
13108.9 0.866388
13110.2 0.915971
13111.6 0.967871
13113.0 1.02217
13114.3 1.07896
13115.7 1.13833
13117.0 1.20037
13118.4 1.26518
13119.8 1.33287
13121.1 1.40353
13122.5 1.47729
13123.8 1.55426
13125.2 1.63455
13126.6 1.71830
13127.9 1.80563
13129.3 1.89600
13130.6 1.99088
13132.0 2.08978
13133.4 2.19283
13134.7 2.30021
13136.1 2.41208
13137.4 2.52861
13140.1 2.77547
13142.9 3.04414
13145.6 3.33547
13148.3 3.65129
13151.0 3.99232
13153.7 4.36328
13156.5 4.76538
13159.2 5.20125
13161.9 5.67379
13164.6 6.18618
13167.3 6.74189
13170.1 7.34475
13172.8 7.99646
13175.5 8.70641
13178.2 9.47738
13180.9 10.3150
13183.6 11.2253
13186.4 12.2151
13189.1 13.2920
13191.8 14.4640
13194.5 15.7355
13197.2 17.1256
13200.0 18.6409
13202.7 20.2934
13205.4 22.0964
13208.1 24.0645
13210.8 26.2135
13213.6 28.5608
13216.3 31.1154
13219.0 33.9165
13221.7 36.9770
13224.4 40.3204
13227.1 43.9575
13229.9 47.9407
13232.6 52.2838
13235.3 57.0134
13238.0 62.1356
13239.5 65.1555
13241.0 68.3118
13244.0 75.0456
13247.0 82.3563
13250.0 90.2507
13253.0 98.7188
13256.0 107.728
13259.0 117.219
13262.0 127.096
13265.0 137.229
13268.0 147.444
13271.0 157.532
13274.0 167.251
13277.0 176.338
13280.0 184.528
13283.0 191.574
13286.0 197.268
13289.0 201.460
13292.0 204.068
13295.0 205.089
13298.0 204.591
13301.0 202.699
13304.0 199.584
13307.0 195.444
13310.0 190.485
13313.0 184.905
13316.0 178.892
13322.0 166.189
13325.0 159.752
13328.0 153.384
13331.0 147.154
13334.0 141.112
13336.6 136.035
13339.2 131.161
13341.8 126.477
13344.4 121.990
13347.0 117.684
13349.6 113.590
13352.2 109.689
13354.8 105.974
13357.4 102.426
13360.0 99.0658
13362.6 95.8714
13365.2 92.8354
13367.8 89.9499
13370.4 87.2071
13373.0 84.5997
13375.6 82.1202
13378.2 79.7528
13380.8 77.5088
13383.4 75.3725
13386.0 73.3378
13388.6 71.3989
13391.2 69.5504
13393.8 67.7869
13396.4 66.1039
13399.1 64.4905
13401.7 62.9549
13404.3 61.4867
13406.9 60.0823
13412.1 57.4504
13417.3 55.0335
13422.5 52.8049
13427.7 50.7534
13432.9 48.8533
13438.1 47.0967
13443.3 45.4630
13448.5 43.9466
13453.7 42.5336
13458.9 41.2144
13464.1 39.9784
13469.3 38.8229
13474.5 37.7386
13479.7 36.7196
13484.9 35.7587
13490.1 34.8548
13495.3 34.0017
13500.5 33.1953
13505.7 32.4308
13510.9 31.7078
13516.1 31.0206
13521.3 30.3692
13526.5 29.7488
13531.7 29.1593
13536.9 28.5977
13542.1 28.0620
13547.3 27.5497
13552.5 27.0611
13557.7 26.5938
13562.9 26.1464
13573.4 25.3062
13583.8 24.5333
13594.2 23.8190
13604.6 23.1575
13615.0 22.5433
13625.4 21.9722
13635.8 21.4389
13646.2 20.9408
13656.6 20.4736
13667.0 20.0355
13677.4 19.6230
13687.8 19.2344
13698.2 18.8677
13708.6 18.5213
13719.0 18.1931
13729.4 17.8823
13739.9 17.5869
13750.3 17.3063
13760.7 17.0390
13771.1 16.7842
13781.5 16.5412
13791.9 16.3093
13802.3 16.0873
13812.7 15.8750
13823.1 15.6715
13833.5 15.4764
13854.3 15.1090
13875.1 14.7696
13895.9 14.4547
13916.8 14.1619
13937.6 13.8887
13958.4 13.6332
13979.2 13.3937
14000.0 13.1687
14000.0 12.5582
15000.0 12.2955
17000.0 11.8395
20000.0 11.2844
25000.0 10.5841
30000.0 10.0592
35000.0 9.64487
40000.0 9.30574
50000.0 8.77546
60000.0 8.37197
70000.0 8.05498
72000.0 7.99158
85000.0 7.66280
100000 7.35501
125000 6.95218
150000 6.63792
170000 6.42959
200000 6.16723
250000 5.82142
300000 5.55224
350000 5.33499
400000 5.15535
450000 5.00394
500000 4.87484
550000 4.76362
600000 4.66703
650000 4.58334
700000 4.50986
750000 4.44507
800000 4.38771
850000 4.33652
885593 4.30405
900000 4.29091
950000 4.25017
1.00000E+06 4.21369
1.05000E+06 4.17929
1.05400E+06 4.17669
1.05400E+06 4.02884
1.05419E+06 4.02858
1.05419E+06 4.02857
1.20000E+06 3.83046
1.23293E+06 3.79750
1.23293E+06 3.79750
1.40000E+06 3.63028
1.40112E+06 3.62949
1.40113E+06 3.62949
1.54608E+06 3.52664
1.54609E+06 3.52663
1.58646E+06 3.49799
1.60000E+06 3.48838
1.73254E+06 3.42666
1.77737E+06 3.40579
1.77738E+06 3.40579
1.80000E+06 3.39525
1.89545E+06 3.37036
1.89545E+06 3.37036
1.90266E+06 3.36848
1.90935E+06 3.36673
1.90935E+06 3.36673
1.90955E+06 3.36668
1.90956E+06 3.36668
1.91513E+06 3.36523
1.91513E+06 3.36523
1.92426E+06 3.36285
1.92426E+06 3.36285
1.93471E+06 3.36012
1.93471E+06 3.36012
1.98756E+06 3.34634
1.98756E+06 3.34634
2.00000E+06 3.34310
2.00298E+06 3.34283
2.00298E+06 3.34283
2.03737E+06 3.33973
2.03737E+06 3.33973
2.04244E+06 3.33927
2.04245E+06 3.33927
2.08322E+06 3.33558
2.08322E+06 3.33558
2.10676E+06 3.33346
2.13790E+06 3.33064
2.13790E+06 3.33064
2.18456E+06 3.32643
2.18457E+06 3.32642
2.18852E+06 3.32606
2.18852E+06 3.32606
2.20000E+06 3.32503
2.34018E+06 3.33163
2.40000E+06 3.33445
2.48686E+06 3.34773
2.48686E+06 3.34773
2.57228E+06 3.36079
2.59835E+06 3.36478
2.60000E+06 3.36503
2.80000E+06 3.41067
2.84719E+06 3.42423
2.92946E+06 3.44787
2.98769E+06 3.46460
3.00000E+06 3.46814
3.09075E+06 3.49422
3.09075E+06 3.49422
3.10303E+06 3.49775
3.15182E+06 3.51177
3.20000E+06 3.52561
3.22628E+06 3.53333
3.24028E+06 3.53744
3.28877E+06 3.55168
3.34365E+06 3.56780
3.34486E+06 3.56815
3.34487E+06 3.56815
3.36170E+06 3.57310
3.36170E+06 3.57310
3.38270E+06 3.57926
3.38270E+06 3.57926
3.39325E+06 3.58236
3.39325E+06 3.58236
3.39934E+06 3.58414
3.42054E+06 3.59038
3.42054E+06 3.59038
3.46589E+06 3.60370
3.47238E+06 3.60560
3.47745E+06 3.60709
3.48151E+06 3.60828
3.50000E+06 3.61371
3.50585E+06 3.61543
3.50585E+06 3.61543
3.53253E+06 3.62326
3.53253E+06 3.62326
3.53974E+06 3.62538
3.61409E+06 3.64722
3.61409E+06 3.64722
3.61947E+06 3.64879
3.63276E+06 3.65269
3.64209E+06 3.65543
3.64209E+06 3.65543
3.68358E+06 3.66762
3.68358E+06 3.66762
3.68947E+06 3.66935
3.70000E+06 3.67244
3.72000E+06 3.67750
4.00000E+06 3.74844
4.14791E+06 3.77769
4.14791E+06 3.77769
4.50000E+06 3.84733
5.00000E+06 3.91335
6.00000E+06 3.96951
6.03437E+06 3.96903
7.00000E+06 3.95545
8.00000E+06 3.89620
8.65140E+06 3.83971
8.65140E+06 3.83971
9.00000E+06 3.80948
1.00000E+07 3.70780
1.10000E+07 3.59551
1.17044E+07 3.51640
1.17045E+07 3.51639
1.20000E+07 3.48321
1.30000E+07 3.36036
1.32022E+07 3.33298
1.40000E+07 3.22493
1.50000E+07 3.08951
1.53673E+07 3.03936
1.53673E+07 3.03936
1.60000E+07 2.95297
1.70000E+07 2.82741
1.80000E+07 2.71936
1.90000E+07 2.63170
2.00000E+07 2.56376
