Ge-72(n,tot) ENDFB-8.0
Energy(eV) XS(b)
1.00000E-05 105.346
1.03125E-05 103.754
1.06250E-05 102.234
1.09375E-05 100.779
1.12500E-05 99.3858
1.15625E-05 98.0496
1.18750E-05 96.7666
1.21875E-05 95.5335
1.25000E-05 94.3472
1.28125E-05 93.2047
1.31250E-05 92.1034
1.34375E-05 91.0409
1.37500E-05 90.0151
1.43750E-05 88.0651
1.50000E-05 86.2389
1.56250E-05 84.5240
1.62500E-05 82.9095
1.68750E-05 81.3860
1.75000E-05 79.9454
1.81250E-05 78.5804
1.87500E-05 77.2846
1.93750E-05 76.0525
2.00000E-05 74.8790
2.09375E-05 73.2188
2.18750E-05 71.6673
2.28125E-05 70.2132
2.37500E-05 68.8467
2.46875E-05 67.5595
2.56250E-05 66.3441
2.65625E-05 65.1942
2.75000E-05 64.1041
2.84375E-05 63.0689
2.93750E-05 62.0841
3.03125E-05 61.1458
3.12500E-05 60.2505
3.21875E-05 59.3951
3.31250E-05 58.5765
3.40625E-05 57.7924
3.50000E-05 57.0404
3.59375E-05 56.3183
3.68750E-05 55.6243
3.78125E-05 54.9566
3.87500E-05 54.3135
3.96875E-05 53.6937
4.06250E-05 53.0957
4.25000E-05 51.9605
4.43750E-05 50.8990
4.62500E-05 49.9037
4.81250E-05 48.9680
5.00000E-05 48.0863
5.15625E-05 47.3891
5.31250E-05 46.7235
5.46875E-05 46.0871
5.62500E-05 45.4779
5.78125E-05 44.8940
5.93750E-05 44.3337
6.09375E-05 43.7956
6.25000E-05 43.2781
6.40625E-05 42.7801
6.56250E-05 42.3004
6.71875E-05 41.8378
6.87500E-05 41.3914
7.18750E-05 40.5438
7.50000E-05 39.7508
7.81250E-05 39.0071
8.12500E-05 38.3077
8.43750E-05 37.6486
8.75000E-05 37.0260
9.06250E-05 36.4368
9.37500E-05 35.8782
9.68750E-05 35.3476
0.000100000 34.8428
0.000103125 34.3618
0.000106250 33.9029
0.000109375 33.4645
0.000112500 33.0450
0.000115625 32.6433
0.000118750 32.2581
0.000121875 31.8883
0.000125000 31.5330
0.000128125 31.1913
0.000131250 30.8623
0.000134375 30.5453
0.000137500 30.2397
0.000143750 29.6597
0.000150000 29.1179
0.000156250 28.6104
0.000162500 28.1337
0.000168750 27.6850
0.000175000 27.2618
0.000181250 26.8617
0.000187500 26.4828
0.000193750 26.1233
0.000200000 25.7818
0.000209375 25.3000
0.000218750 24.8512
0.000228125 24.4321
0.000237500 24.0395
0.000246875 23.6710
0.000256250 23.3241
0.000265625 22.9970
0.000275000 22.6879
0.000284375 22.3952
0.000293750 22.1177
0.000303125 21.8542
0.000312500 21.6034
0.000321875 21.3645
0.000331250 21.1366
0.000340625 20.9190
0.000350000 20.7108
0.000359375 20.5115
0.000368750 20.3205
0.000378125 20.1373
0.000387500 19.9613
0.000396875 19.7921
0.000406250 19.6293
0.000425000 19.3216
0.000443750 19.0353
0.000462500 18.7682
0.000481250 18.5183
0.000500000 18.2840
0.000515625 18.0996
0.000531250 17.9242
0.000546875 17.7571
0.000562500 17.5977
0.000578125 17.4456
0.000593750 17.3001
0.000609375 17.1608
0.000625000 17.0273
0.000640625 16.8993
0.000656250 16.7764
0.000671875 16.6583
0.000687500 16.5447
0.000718750 16.3299
0.000750000 16.1302
0.000781250 15.9440
0.000812500 15.7698
0.000843750 15.6065
0.000875000 15.4531
0.000906250 15.3086
0.000937500 15.1722
0.000968750 15.0433
0.00100000 14.9212
0.00103125 14.8054
0.00106250 14.6953
0.00109375 14.5905
0.00112500 14.4906
0.00115625 14.3953
0.00118750 14.3043
0.00121875 14.2172
0.00125000 14.1337
0.00128125 14.0537
0.00131250 13.9769
0.00134375 13.9032
0.00137500 13.8322
0.00143750 13.6982
0.00150000 13.5735
0.00156250 13.4573
0.00162500 13.3487
0.00168750 13.2468
0.00175000 13.1511
0.00181250 13.0609
0.00187500 12.9757
0.00193750 12.8952
0.00200000 12.8189
0.00209375 12.7116
0.00218750 12.6120
0.00228125 12.5193
0.00237500 12.4327
0.00246875 12.3516
0.00256250 12.2754
0.00265625 12.2037
0.00275000 12.1361
0.00284375 12.0721
0.00293750 12.0116
0.00303125 11.9542
0.00312500 11.8996
0.00321875 11.8476
0.00331250 11.7981
0.00340625 11.7508
0.00350000 11.7056
0.00359375 11.6624
0.00368750 11.6209
0.00378125 11.5812
0.00387500 11.5430
0.00396875 11.5063
0.00406250 11.4710
0.00425000 11.4043
0.00443750 11.3421
0.00462500 11.2841
0.00481250 11.2298
0.00500000 11.1789
0.00515625 11.1387
0.00531250 11.1005
0.00546875 11.0640
0.00562500 11.0292
0.00578125 10.9959
0.00593750 10.9641
0.00609375 10.9335
0.00625000 10.9042
0.00640625 10.8761
0.00656250 10.8490
0.00671875 10.8230
0.00687500 10.7979
0.00718750 10.7504
0.00750000 10.7061
0.00781250 10.6646
0.00812500 10.6258
0.00843750 10.5892
0.00875000 10.5548
0.00906250 10.5222
0.00937500 10.4914
0.00968750 10.4622
0.0100000 10.4345
0.0103125 10.4081
0.0106250 10.3830
0.0109375 10.3590
0.0112500 10.3361
0.0115625 10.3141
0.0118750 10.2931
0.0121875 10.2730
0.0125000 10.2536
0.0128125 10.2350
0.0131250 10.2171
0.0134375 10.1999
0.0137500 10.1833
0.0143750 10.1518
0.0150000 10.1224
0.0156250 10.0948
0.0162500 10.0690
0.0168750 10.0447
0.0175000 10.0217
0.0181250 10.0000
0.0187500 9.97945
0.0193750 9.95994
0.0200000 9.94140
0.0206625 9.92272
0.0213250 9.90495
0.0219875 9.88803
0.0226500 9.87188
0.0233125 9.85646
0.0239750 9.84171
0.0246375 9.82759
0.0253000 9.81404
0.0264578 9.79166
0.0276156 9.77075
0.0287734 9.75117
0.0299313 9.73278
0.0310891 9.71547
0.0322469 9.69913
0.0334047 9.68368
0.0345625 9.66904
0.0355274 9.65741
0.0364922 9.64626
0.0374570 9.63556
0.0384219 9.62527
0.0393867 9.61538
0.0403516 9.60586
0.0413164 9.59668
0.0422813 9.58783
0.0442109 9.57103
0.0461406 9.55533
0.0480703 9.54062
0.0500000 9.52679
0.0515625 9.51618
0.0531250 9.50605
0.0546875 9.49638
0.0562500 9.48713
0.0578125 9.47826
0.0593750 9.46975
0.0609375 9.46159
0.0625000 9.45374
0.0640625 9.44619
0.0656250 9.43891
0.0671875 9.43190
0.0687500 9.42514
0.0718750 9.41229
0.0750000 9.40028
0.0781250 9.38900
0.0812500 9.37840
0.0843750 9.36840
0.0875000 9.35895
0.0906250 9.35001
0.0937500 9.34153
0.0968750 9.33347
0.100000 9.32579
0.103125 9.31848
0.106250 9.31150
0.109375 9.30482
0.112500 9.29843
0.115625 9.29230
0.118750 9.28643
0.121875 9.28078
0.125000 9.27535
0.128125 9.27013
0.131250 9.26510
0.134375 9.26024
0.137500 9.25556
0.143750 9.24666
0.150000 9.23833
0.156250 9.23050
0.162500 9.22314
0.168750 9.21619
0.175000 9.20962
0.181250 9.20340
0.187500 9.19750
0.193750 9.19189
0.200000 9.18655
0.209375 9.17899
0.218750 9.17192
0.228125 9.16530
0.237500 9.15907
0.246875 9.15320
0.256250 9.14766
0.265625 9.14241
0.275000 9.13744
0.284375 9.13271
0.293750 9.12821
0.303125 9.12392
0.312500 9.11983
0.321875 9.11591
0.331250 9.11216
0.340625 9.10857
0.350000 9.10512
0.359375 9.10181
0.368750 9.09862
0.378125 9.09555
0.387500 9.09260
0.396875 9.08974
0.406250 9.08699
0.425000 9.08176
0.443750 9.07685
0.462500 9.07224
0.500000 9.06381
0.531250 9.05746
0.562500 9.05162
0.593750 9.04623
0.625000 9.04124
0.687500 9.03227
0.750000 9.02440
0.812500 9.01741
0.875000 9.01116
0.937500 9.00551
1.00000 9.00033
1.06250 8.99559
1.12500 8.99122
1.18750 8.98716
1.25000 8.98338
1.37500 8.97653
1.50000 8.97044
1.62500 8.96497
1.75000 8.96003
1.87500 8.95549
2.00000 8.95130
2.18750 8.94556
2.37500 8.94037
2.56250 8.93561
2.75000 8.93123
2.93750 8.92715
3.12500 8.92332
3.31250 8.91971
3.50000 8.91629
3.87500 8.90993
4.25000 8.90410
4.62500 8.89867
5.00000 8.89358
5.31250 8.88955
5.62500 8.88567
5.93750 8.88195
6.25000 8.87834
6.87500 8.87145
7.50000 8.86490
8.12500 8.85864
8.75000 8.85261
9.37500 8.84677
10.0000 8.84109
10.6250 8.83556
11.2500 8.83014
11.8750 8.82483
12.5000 8.81962
13.7500 8.80942
15.0000 8.79950
16.2500 8.78979
17.5000 8.78028
18.7500 8.77092
20.0000 8.76170
21.8750 8.74808
23.7500 8.73470
25.6250 8.72151
27.5000 8.70850
29.3750 8.69564
31.2500 8.68292
33.1250 8.67032
35.0000 8.65784
36.8750 8.64547
38.7500 8.63320
42.5000 8.60894
46.2500 8.58502
50.0000 8.56143
53.1250 8.54199
56.2500 8.52275
59.3750 8.50370
62.5000 8.48482
65.6250 8.46612
68.7500 8.44759
75.0000 8.41101
81.2500 8.37505
87.5000 8.33967
93.7500 8.30487
100.000 8.27061
106.250 8.23687
112.500 8.20364
118.750 8.17091
125.000 8.13866
131.250 8.10688
137.500 8.07555
143.750 8.04467
150.000 8.01421
162.500 7.95457
175.000 7.89654
187.500 7.84006
200.000 7.78505
206.488 7.75706
212.975 7.72946
219.463 7.70224
222.706 7.68878
225.950 7.67542
229.194 7.66218
230.917 7.65519
232.640 7.64825
234.364 7.64135
236.087 7.63451
237.810 7.62775
239.533 7.62108
240.395 7.61781
241.257 7.61459
242.118 7.61143
242.980 7.60837
243.588 7.60629
244.196 7.60429
244.804 7.60239
245.413 7.60067
246.021 7.59917
246.325 7.59854
246.629 7.59801
246.933 7.59762
247.237 7.59738
247.541 7.59736
247.845 7.59762
248.086 7.59809
248.327 7.59887
248.568 7.60005
248.809 7.60177
248.929 7.60290
249.049 7.60424
249.170 7.60585
249.290 7.60777
249.410 7.61008
249.531 7.61288
249.651 7.61630
249.772 7.62051
249.886 7.62547
250.000 7.63171
250.057 7.63548
250.114 7.63979
250.171 7.64479
250.228 7.65063
250.285 7.65755
250.342 7.66582
250.399 7.67585
250.456 7.68815
250.513 7.70338
250.541 7.71236
250.570 7.72242
250.598 7.73369
250.627 7.74634
250.655 7.76055
250.684 7.77651
250.714 7.79551
250.744 7.81699
250.774 7.84125
250.804 7.86862
250.834 7.89945
250.864 7.93411
250.894 7.97299
250.925 8.01650
250.955 8.06504
250.985 8.11905
251.015 8.17892
251.045 8.24506
251.060 8.28072
251.075 8.31785
251.090 8.35697
251.105 8.39763
251.120 8.44038
251.135 8.48470
251.165 8.57899
251.183 8.63752
251.200 8.69832
251.218 8.76174
251.235 8.82777
251.270 8.96803
251.305 9.11806
251.340 9.27826
251.374 9.44700
251.409 9.62430
251.444 9.80793
251.520 10.2252
251.596 10.6484
251.659 10.9889
251.691 11.1499
251.723 11.3016
251.758 11.4567
251.792 11.5961
251.827 11.7184
251.862 11.8207
251.900 11.9076
251.938 11.9678
251.969 11.9967
252.000 12.0060
252.041 11.9885
252.081 11.9383
252.121 11.8586
252.161 11.7508
252.202 11.6094
252.244 11.4429
252.286 11.2550
252.327 11.0502
252.365 10.8518
252.403 10.6464
252.478 10.2250
252.528 9.95298
252.577 9.68894
252.626 9.43744
252.651 9.31753
252.675 9.20245
252.696 9.10837
252.717 9.01774
252.738 8.93069
252.758 8.84727
252.779 8.76755
252.800 8.69155
252.821 8.61926
252.842 8.55066
252.862 8.48571
252.883 8.42435
252.904 8.36651
252.925 8.31209
252.946 8.26100
252.966 8.21311
252.987 8.16832
253.008 8.12649
253.029 8.08732
253.050 8.05104
253.070 8.01733
253.091 7.98604
253.112 7.95705
253.133 7.93021
253.154 7.90540
253.174 7.88248
253.195 7.86134
253.216 7.84184
253.237 7.82388
253.258 7.80733
253.299 7.77810
253.341 7.75336
253.383 7.73237
253.424 7.71464
253.466 7.69957
253.507 7.68673
253.549 7.67574
253.591 7.66629
253.632 7.65811
253.674 7.65098
253.749 7.64016
253.825 7.63144
253.901 7.62425
253.976 7.61821
254.052 7.61305
254.128 7.60857
254.203 7.60463
254.279 7.60115
254.430 7.59521
254.582 7.59034
254.733 7.58626
254.884 7.58278
255.073 7.57906
255.263 7.57589
255.452 7.57314
255.641 7.57071
255.830 7.56854
256.019 7.56658
256.208 7.56478
256.397 7.56313
256.776 7.56016
257.154 7.55751
257.532 7.55511
257.910 7.55288
258.516 7.54958
259.121 7.54653
259.726 7.54364
260.331 7.54088
260.936 7.53820
261.542 7.53559
262.752 7.53050
263.963 7.52556
265.173 7.52071
266.383 7.51593
267.594 7.51119
269.046 7.50556
270.499 7.49997
273.404 7.48888
276.309 7.47791
279.214 7.46702
282.725 7.45397
286.235 7.44101
289.745 7.42816
293.255 7.41542
300.276 7.39013
307.297 7.36517
314.317 7.34055
321.338 7.31641
328.358 7.29227
335.379 7.26869
349.420 7.22213
363.461 7.17668
377.503 7.13231
391.544 7.08898
405.101 7.04818
418.658 7.00826
445.772 6.93094
472.886 6.85677
500.000 6.78556
521.356 6.73182
532.034 6.70521
542.712 6.67947
564.068 6.62844
585.423 6.57905
606.779 6.53100
628.135 6.48442
649.491 6.43904
660.169 6.41688
670.847 6.39494
681.989 6.37243
687.560 6.36129
693.131 6.35024
698.702 6.33930
704.273 6.32846
707.059 6.32309
709.844 6.31777
712.630 6.31250
715.415 6.30730
717.272 6.30388
719.129 6.30053
720.986 6.29728
722.843 6.29415
724.700 6.29122
725.629 6.28987
726.557 6.28864
727.486 6.28757
728.414 6.28673
729.343 6.28622
730.271 6.28621
730.765 6.28651
731.258 6.28712
731.751 6.28816
732.245 6.28979
732.738 6.29228
732.985 6.29398
733.231 6.29608
733.478 6.29871
733.724 6.30203
733.971 6.30627
734.218 6.31182
734.435 6.31836
734.544 6.32246
734.653 6.32734
734.762 6.33324
734.871 6.34053
734.979 6.34973
735.088 6.36159
735.197 6.37714
735.251 6.38674
735.306 6.39784
735.360 6.41072
735.415 6.42567
735.469 6.44305
735.523 6.46326
735.578 6.48675
735.632 6.51403
735.687 6.54566
735.741 6.58225
735.795 6.62450
735.850 6.67312
735.904 6.72891
735.959 6.79270
736.006 6.85517
736.053 6.92473
736.100 7.00225
736.147 7.08796
736.194 7.18279
736.241 7.28686
736.289 7.40112
736.336 7.52551
736.383 7.66095
736.430 7.80713
736.477 7.96489
736.524 8.13362
736.572 8.31399
736.619 8.50506
736.666 8.70728
736.713 8.91929
736.760 9.14131
736.807 9.37201
736.902 9.85456
737.090 10.8656
737.206 11.4777
737.264 11.7684
737.322 12.0436
737.402 12.3893
737.442 12.5451
737.482 12.6879
737.522 12.8165
737.562 12.9301
737.602 13.0276
737.641 13.1082
737.680 13.1696
737.718 13.2142
737.759 13.2431
737.800 13.2524
737.819 13.2501
737.860 13.2309
737.901 13.1924
737.949 13.1228
737.993 13.0367
738.037 12.9301
738.081 12.8041
738.125 12.6597
738.165 12.5139
738.205 12.3552
738.285 12.0043
738.341 11.7365
738.397 11.4547
738.509 10.8637
738.685 9.91933
738.773 9.46529
738.817 9.24706
738.861 9.03596
738.905 8.83277
738.949 8.63812
738.993 8.45251
739.037 8.27633
739.081 8.10982
739.125 7.95312
739.169 7.80625
739.213 7.66945
739.257 7.54194
739.301 7.42382
739.345 7.31481
739.389 7.21455
739.433 7.12266
739.477 7.03872
739.521 6.96229
739.564 6.89306
739.616 6.81951
739.668 6.75438
739.720 6.69693
739.772 6.64642
739.824 6.60214
739.876 6.56344
739.928 6.52969
739.980 6.50031
740.032 6.47478
740.084 6.45262
740.136 6.43339
740.188 6.41671
740.240 6.40223
740.292 6.38965
740.396 6.36917
740.500 6.35348
740.604 6.34130
740.708 6.33168
740.812 6.32393
740.916 6.31756
741.020 6.31221
741.228 6.30368
741.468 6.29620
741.708 6.29035
741.948 6.28561
742.188 6.28167
742.428 6.27834
742.668 6.27547
743.148 6.27077
743.628 6.26705
744.108 6.26398
744.588 6.26137
745.068 6.25911
745.899 6.25577
746.731 6.25293
747.563 6.25040
748.395 6.24810
749.227 6.24596
750.059 6.24394
751.722 6.24015
753.386 6.23659
755.050 6.23316
756.714 6.22983
758.377 6.22657
760.425 6.22262
762.473 6.21872
765.544 6.21296
768.616 6.20725
774.758 6.19597
780.901 6.18484
787.044 6.17381
799.330 6.15201
811.616 6.13054
823.390 6.11025
835.164 6.09020
858.712 6.05090
882.260 6.01247
905.808 5.97501
952.904 5.90258
1000.00 5.83293
1031.25 5.78839
1062.50 5.74499
1093.75 5.70268
1125.00 5.66137
1156.25 5.62100
1187.50 5.58152
1218.75 5.54287
1250.00 5.50498
1281.25 5.46782
1312.50 5.43133
1375.00 5.36017
1437.50 5.29114
1500.00 5.22389
1562.50 5.15809
1625.00 5.09341
1687.50 5.02951
1718.75 4.99774
1750.00 4.96604
1781.25 4.93435
1812.50 4.90261
1843.75 4.87077
1875.00 4.83877
1906.25 4.80654
1937.50 4.77401
1953.13 4.75760
1968.75 4.74108
1984.38 4.72444
2000.00 4.70766
2011.93 4.69475
2023.86 4.68175
2035.79 4.66864
2047.72 4.65543
2059.65 4.64210
2071.58 4.62865
2077.55 4.62188
2083.51 4.61507
2089.48 4.60824
2095.44 4.60137
2101.40 4.59446
2107.37 4.58753
2113.33 4.58057
2119.30 4.57358
2125.26 4.56656
2131.23 4.55954
2137.19 4.55253
2143.16 4.54554
2149.12 4.53864
2152.11 4.53525
2155.09 4.53193
2158.07 4.52870
2161.05 4.52561
2164.04 4.52273
2167.02 4.52019
2168.51 4.51910
2170.00 4.51819
2171.49 4.51751
2172.98 4.51715
2174.48 4.51721
2175.97 4.51790
2177.46 4.51949
2178.20 4.52076
2178.95 4.52246
2179.69 4.52470
2180.44 4.52765
2181.19 4.53153
2181.93 4.53664
2182.68 4.54348
2183.05 4.54774
2183.42 4.55272
2183.80 4.55858
2184.17 4.56551
2184.54 4.57376
2184.91 4.58364
2185.29 4.59565
2185.66 4.61036
2186.03 4.62864
2186.40 4.65160
2186.59 4.66545
2186.78 4.68112
2186.96 4.69914
2187.15 4.71977
2187.34 4.74380
2187.52 4.77169
2187.71 4.80448
2187.90 4.84337
2188.08 4.89025
2188.27 4.94678
2188.36 4.98001
2188.46 5.01659
2188.55 5.05742
2188.64 5.10316
2188.74 5.15524
2188.83 5.21356
2188.92 5.27986
2189.01 5.35566
2189.11 5.44288
2189.20 5.54391
2189.29 5.66181
2189.34 5.72903
2189.39 5.80055
2189.43 5.88018
2189.48 5.96726
2189.53 6.06274
2189.57 6.16539
2189.62 6.28096
2189.67 6.40598
2189.71 6.54765
2189.76 6.70200
2189.81 6.87825
2189.85 7.07629
2189.90 7.29986
2189.95 7.54776
2189.99 7.83627
2190.04 8.15977
2190.06 8.34735
2190.09 8.54084
2190.11 8.74915
2190.13 8.97380
2190.16 9.22754
2190.18 9.49128
2190.20 9.79044
2190.23 10.1028
2190.25 10.4588
2190.27 10.8324
2190.30 11.2417
2190.32 11.6915
2190.34 12.2098
2190.37 12.7601
2190.39 13.3706
2190.41 14.0500
2190.42 14.4354
2190.44 14.8442
2190.45 15.2782
2190.46 15.7000
2190.47 16.1885
2190.48 16.6643
2190.49 17.2165
2190.51 17.7557
2190.52 18.3830
2190.53 19.0548
2190.54 19.7753
2190.55 20.4825
2190.56 21.3098
2190.58 22.1242
2190.59 23.0799
2190.60 24.0237
2190.61 25.1346
2190.62 26.3396
2190.63 27.6490
2190.65 28.9511
2190.66 30.4952
2190.67 32.0366
2190.68 33.8715
2190.69 35.7105
2190.70 37.9088
2190.72 40.3325
2190.73 43.0109
2190.74 45.7184
2190.74 47.3077
2190.75 48.9832
2190.76 52.2974
2190.77 54.2487
2190.77 56.3100
2190.78 60.3991
2190.79 62.8130
2190.80 65.3672
2190.80 68.0710
2190.81 70.9339
2190.81 73.9658
2190.82 77.1773
2190.83 80.5791
2190.83 83.5673
2190.84 87.3467
2190.84 91.3479
2190.85 95.5816
2190.85 99.2950
2190.86 103.982
2190.87 108.928
2190.87 114.140
2190.88 118.690
2190.89 126.362
2190.89 134.510
2190.90 143.109
2190.91 150.969
2190.92 169.814
2190.94 187.848
2190.95 197.176
2190.96 205.988
2190.96 214.006
2190.97 220.141
2190.98 225.892
2190.99 229.630
2190.99 231.168
2190.99 232.245
2191.00 232.986
2191.00 232.746
2191.01 232.026
2191.01 230.835
2191.02 229.188
2191.02 224.611
2191.03 219.345
2191.04 212.119
2191.05 203.879
2191.06 194.917
2191.06 186.697
2191.08 167.456
2191.09 149.875
2191.10 140.967
2191.11 133.515
2191.12 125.426
2191.12 118.739
2191.13 112.422
2191.14 106.471
2191.14 100.878
2191.15 96.3598
2191.16 91.3967
2191.16 87.3952
2191.17 83.0062
2191.18 79.4709
2191.18 75.5955
2191.19 72.4745
2191.20 69.0530
2191.20 66.2967
2191.21 63.2733
2191.22 60.8360
2191.22 58.1603
2191.23 56.0012
2191.24 53.6284
2191.24 51.4022
2191.25 49.3118
2191.26 47.6210
2191.26 45.7578
2191.27 44.2487
2191.28 42.5837
2191.28 41.2331
2191.29 39.7410
2191.29 38.5291
2191.31 36.0978
2191.32 33.9059
2191.33 31.9244
2191.35 29.9976
2191.36 28.3778
2191.37 26.9022
2191.39 25.5549
2191.40 24.3218
2191.41 23.1909
2191.43 22.1514
2191.44 21.1940
2191.45 20.2455
2191.47 19.4337
2191.48 18.6816
2191.49 17.9838
2191.50 17.3353
2191.52 16.7315
2191.53 16.1686
2191.54 15.6430
2191.56 15.1150
2191.57 14.6572
2191.58 14.2278
2191.60 13.8247
2191.61 13.4458
2191.62 13.0892
2191.65 12.4363
2191.68 11.8331
2191.70 11.3142
2191.73 10.8480
2191.75 10.4275
2191.78 10.0331
2191.81 9.68899
2191.83 9.37572
2191.86 9.08973
2191.88 8.82795
2191.91 8.58773
2191.94 8.36680
2191.96 8.16314
2191.99 7.96807
2192.02 7.79445
2192.04 7.63343
2192.07 7.48383
2192.12 7.20997
2192.17 6.97603
2192.23 6.76716
2192.28 6.58665
2192.33 6.42665
2192.38 6.28419
2192.43 6.15447
2192.49 6.04031
2192.54 5.93554
2192.59 5.84267
2192.64 5.75686
2192.70 5.68029
2192.75 5.61041
2192.80 5.54644
2192.91 5.43277
2193.01 5.33633
2193.12 5.25379
2193.22 5.18261
2193.33 5.12080
2193.43 5.06677
2193.54 5.01928
2193.64 4.97768
2193.74 4.94035
2193.85 4.90705
2193.95 4.87720
2194.06 4.85060
2194.27 4.80436
2194.48 4.76633
2194.69 4.73438
2194.90 4.70741
2195.11 4.68441
2195.32 4.66473
2195.53 4.64759
2195.74 4.63270
2195.95 4.61957
2196.15 4.60802
2196.57 4.58856
2196.99 4.57292
2197.41 4.56013
2197.83 4.54952
2198.25 4.54058
2198.67 4.53299
2199.09 4.52646
2199.51 4.52079
2200.35 4.51141
2201.18 4.50399
2202.02 4.49794
2202.86 4.49290
2203.70 4.48861
2204.54 4.48488
2205.38 4.48159
2206.21 4.47864
2207.89 4.47351
2209.57 4.46912
2211.24 4.46522
2212.92 4.46167
2214.60 4.45837
2216.27 4.45526
2217.95 4.45228
2221.30 4.44662
2224.66 4.44123
2228.01 4.43598
2231.36 4.43084
2234.72 4.42575
2238.07 4.42070
2244.78 4.41063
2251.48 4.40053
2258.19 4.39035
2264.90 4.38006
2271.60 4.36964
2278.31 4.35906
2285.02 4.34831
2291.72 4.33737
2298.43 4.32624
2305.14 4.31488
2311.84 4.30330
2318.55 4.29146
2325.26 4.27936
2331.96 4.26698
2338.67 4.25429
2345.38 4.24127
2352.08 4.22791
2358.79 4.21418
2365.49 4.20004
2372.20 4.18546
2378.91 4.17042
2385.61 4.15488
2392.32 4.13879
2399.03 4.12210
2405.73 4.10477
2412.44 4.08673
2419.15 4.06792
2425.85 4.04826
2432.56 4.02768
2439.27 4.00607
2445.97 3.98333
2452.68 3.95931
2459.39 3.93390
2466.09 3.90689
2469.45 3.89274
2472.80 3.87811
2476.15 3.86298
2479.51 3.84731
2482.86 3.83107
2486.21 3.81421
2489.57 3.79669
2492.92 3.77848
2496.27 3.75950
2499.63 3.73971
2502.98 3.71903
2506.33 3.69741
2509.69 3.67475
2513.04 3.65097
2516.39 3.62596
2519.75 3.59963
2523.10 3.57183
2526.45 3.54244
2529.81 3.51128
2533.16 3.47817
2536.51 3.44291
2538.19 3.42439
2539.87 3.40525
2541.54 3.38542
2543.22 3.36489
2544.90 3.34360
2546.57 3.32153
2548.25 3.29860
2549.93 3.27478
2551.60 3.24999
2553.28 3.22418
2554.96 3.19728
2556.63 3.16920
2558.31 3.13987
2559.99 3.10922
2561.66 3.07710
2563.34 3.04346
2565.02 3.00812
2566.69 2.97100
2568.37 2.93190
2570.05 2.89069
2571.72 2.84717
2573.40 2.80117
2575.08 2.75241
2576.75 2.70069
2577.59 2.67359
2578.43 2.64566
2579.27 2.61684
2580.10 2.58707
2580.94 2.55627
2581.78 2.52447
2582.62 2.49154
2583.46 2.45750
2584.30 2.42221
2585.14 2.38568
2585.97 2.34781
2586.81 2.30853
2587.65 2.26771
2588.49 2.22537
2589.33 2.18136
2590.16 2.13561
2591.00 2.08794
2591.84 2.03839
2592.68 1.98677
2593.52 1.93298
2594.36 1.87683
2595.19 1.81833
2596.03 1.75723
2596.87 1.69353
2597.71 1.62697
2598.55 1.55760
2598.97 1.52179
2599.39 1.48523
2599.81 1.44789
2600.22 1.40979
2600.64 1.37081
2601.06 1.33114
2601.48 1.29070
2601.90 1.24950
2602.32 1.20755
2602.74 1.16487
2603.16 1.12151
2603.58 1.07749
2604.00 1.03278
2604.42 0.987666
2604.84 0.942130
2605.25 0.896298
2605.67 0.850320
2606.09 0.804385
2606.51 0.758726
2606.93 0.713634
2607.35 0.669363
2607.77 0.626568
2608.19 0.585695
2608.61 0.547424
2609.03 0.512526
2609.45 0.482227
2609.87 0.457759
2610.08 0.448195
2610.28 0.440783
2610.49 0.435729
2610.70 0.433387
2610.91 0.434110
2611.02 0.435743
2611.12 0.438267
2611.23 0.441788
2611.33 0.446347
2611.39 0.449064
2611.44 0.452011
2611.49 0.455247
2611.54 0.458779
2611.60 0.462695
2611.62 0.464735
2611.65 0.466855
2611.67 0.469144
2611.70 0.471431
2611.73 0.473803
2611.74 0.475021
2611.75 0.476260
2611.77 0.477619
2611.78 0.478903
2611.79 0.480210
2611.81 0.481539
2611.82 0.482890
2611.83 0.484263
2611.84 0.485659
2611.86 0.487078
2611.87 0.488521
2611.88 0.489986
2611.90 0.491475
2611.91 0.492987
2611.94 0.496084
2611.96 0.499276
2611.99 0.502696
2612.01 0.506091
2612.04 0.509586
2612.07 0.513185
2612.12 0.520846
2612.17 0.528798
2612.22 0.537361
2612.28 0.546226
2612.33 0.555565
2612.38 0.565394
2612.49 0.586796
2612.59 0.610394
2612.70 0.636335
2612.80 0.664490
2612.90 0.695569
2613.01 0.729494
2613.11 0.766459
2613.22 0.806273
2613.32 0.849927
2613.43 0.897294
2613.53 0.948637
2613.64 1.00369
2613.74 1.06381
2613.85 1.12882
2613.95 1.19907
2614.06 1.27496
2614.16 1.35690
2614.27 1.44535
2614.37 1.54080
2614.48 1.64278
2614.58 1.75382
2614.69 1.87362
2614.79 2.00288
2614.90 2.14099
2615.00 2.29142
2615.11 2.45381
2615.21 2.62917
2615.31 2.81672
2615.42 3.02127
2615.52 3.24244
2615.63 3.48168
2615.73 3.73807
2615.84 4.01833
2615.94 4.32209
2616.05 4.65158
2616.15 5.00573
2616.26 5.39410
2616.31 5.60285
2616.36 5.81650
2616.42 6.04372
2616.47 6.27639
2616.52 6.51921
2616.57 6.77269
2616.62 7.04258
2616.68 7.31927
2616.73 7.61406
2616.78 7.91649
2616.83 8.23892
2616.89 8.56994
2616.94 8.91627
2616.99 9.27878
2617.04 9.66583
2617.10 10.0638
2617.15 10.4890
2617.20 10.9266
2617.25 11.3946
2617.31 11.8767
2617.36 12.3927
2617.41 12.9246
2617.46 13.4946
2617.52 14.0829
2617.57 14.7139
2617.62 15.3657
2617.67 16.0657
2617.73 16.7896
2617.78 17.5528
2617.83 18.3579
2617.88 19.2245
2617.93 20.1230
2617.99 21.0915
2618.04 22.0970
2618.09 23.1823
2618.14 24.3107
2618.20 25.5069
2618.25 26.7757
2618.30 28.1495
2618.35 29.5825
2618.41 31.1366
2618.46 32.7606
2618.51 34.5251
2618.56 36.3723
2618.62 38.3441
2618.67 40.4509
2618.72 42.7491
2618.77 45.1650
2618.83 47.8064
2618.88 50.5893
2618.93 53.6390
2618.98 56.8600
2619.03 60.3293
2619.09 64.0708
2619.14 68.1920
2619.19 72.5678
2619.24 77.4012
2619.30 82.5480
2619.35 88.2497
2619.40 94.3394
2619.45 100.973
2619.51 108.211
2619.56 116.280
2619.61 124.951
2619.66 134.648
2619.72 145.103
2619.77 156.831
2619.82 169.512
2619.85 176.332
2619.87 183.495
2619.90 191.021
2619.92 198.931
2619.95 207.575
2619.98 216.334
2620.00 225.546
2620.03 235.235
2620.06 245.829
2620.08 256.570
2620.11 267.869
2620.13 279.752
2620.16 292.742
2620.19 305.905
2620.21 319.738
2620.24 334.269
2620.27 349.524
2620.29 365.526
2620.32 382.297
2620.34 399.856
2620.39 429.913
2620.43 461.289
2620.47 494.641
2620.51 529.871
2620.55 566.792
2620.59 605.110
2620.67 684.118
2620.71 723.538
2620.75 761.814
2620.80 797.975
2620.84 830.970
2620.88 859.734
2620.92 883.267
2620.96 900.719
2621.00 911.469
2621.02 914.261
2621.04 915.192
2621.08 911.710
2621.12 901.520
2621.17 885.215
2621.21 863.601
2621.25 837.611
2621.29 808.226
2621.33 776.409
2621.41 708.086
2621.49 640.059
2621.54 607.097
2621.58 575.267
2621.62 544.774
2621.66 515.747
2621.69 493.497
2621.72 472.253
2621.76 452.016
2621.79 432.769
2621.82 414.490
2621.86 397.148
2621.89 380.708
2621.92 365.594
2621.95 350.820
2621.99 336.832
2622.02 323.590
2622.05 311.053
2622.09 299.182
2622.12 287.940
2622.15 277.291
2622.18 267.498
2622.22 257.916
2622.25 248.828
2622.28 240.206
2622.32 232.021
2622.35 224.246
2622.38 216.858
2622.45 203.348
2622.51 190.909
2622.58 179.612
2622.65 169.329
2622.71 160.082
2622.78 151.490
2622.84 143.616
2622.91 136.384
2622.97 129.824
2623.04 123.676
2623.11 117.995
2623.17 112.734
2623.24 107.926
2623.30 103.386
2623.37 99.1595
2623.43 95.2185
2623.50 91.5918
2623.57 88.1453
2623.63 84.9166
2623.70 81.8876
2623.76 79.0838
2623.83 76.4044
2623.89 73.8806
2623.96 71.5005
2624.03 69.2862
2624.09 67.1599
2624.16 65.1477
2624.22 63.2413
2624.29 61.4600
2624.35 59.7423
2624.42 58.1100
2624.55 55.1013
2624.68 52.3477
2624.81 49.8575
2624.95 47.5637
2625.08 45.4765
2625.21 43.5427
2625.34 41.7737
2625.47 40.1263
2625.60 38.6118
2625.74 37.1951
2625.87 35.8871
2626.00 34.6584
2626.13 33.5196
2626.26 32.4459
2626.39 31.4472
2626.52 30.5024
2626.66 29.6207
2626.79 28.7841
2626.92 28.0012
2627.05 27.2562
2627.18 26.5570
2627.31 25.8901
2627.44 25.2627
2627.58 24.6627
2627.71 24.0970
2627.84 23.5549
2627.97 23.0428
2628.10 22.5509
2628.23 22.0853
2628.50 21.2126
2628.76 20.4143
2629.02 19.6818
2629.29 19.0075
2629.55 18.3850
2629.81 17.8090
2630.07 17.2764
2630.34 16.7792
2630.60 16.3157
2630.86 15.8828
2631.13 15.4777
2631.39 15.0978
2631.65 14.7410
2631.91 14.4052
2632.18 14.0888
2632.44 13.7902
2632.70 13.5079
2632.97 13.2407
2633.23 12.9875
2633.49 12.7472
2633.76 12.5188
2634.02 12.3017
2634.28 12.0956
2634.54 11.8984
2634.81 11.7102
2635.07 11.5304
2635.33 11.3585
2635.86 11.0365
2636.38 10.7405
2636.91 10.4677
2637.44 10.2154
2637.96 9.98152
2638.49 9.76447
2639.01 9.56180
2639.54 9.37250
2640.07 9.19531
2640.59 9.02911
2641.12 8.87292
2641.64 8.72588
2642.17 8.58720
2642.69 8.45644
2643.22 8.33249
2643.75 8.21504
2644.27 8.10361
2644.80 7.99773
2645.32 7.89701
2645.85 7.80107
2646.38 7.70958
2646.90 7.62240
2647.43 7.53892
2647.95 7.45906
2648.48 7.38257
2649.01 7.30926
2650.06 7.17137
2651.11 7.04411
2652.16 6.92606
2653.21 6.81633
2654.26 6.71404
2655.32 6.61852
2656.37 6.52893
2657.42 6.44478
2658.47 6.36557
2659.52 6.29084
2660.58 6.22020
2661.63 6.15330
2662.68 6.08982
2663.73 6.02953
2664.78 5.97206
2665.83 5.91726
2666.89 5.86491
2667.94 5.81487
2668.99 5.76688
2670.04 5.72083
2671.09 5.67659
2672.14 5.63406
2673.20 5.59305
2674.25 5.55348
2676.35 5.47833
2678.46 5.40784
2680.56 5.34146
2682.66 5.27858
2684.77 5.21881
2686.87 5.16166
2688.97 5.10683
2691.08 5.05392
2693.18 5.00264
2695.28 4.95270
2697.39 4.90384
2699.49 4.85576
2701.59 4.80824
2705.80 4.71368
2707.91 4.66610
2710.01 4.61795
2711.06 4.59354
2712.11 4.56886
2713.16 4.54385
2714.22 4.51850
2715.27 4.49269
2716.32 4.46641
2717.37 4.43958
2718.42 4.41216
2719.47 4.38403
2720.53 4.35515
2721.58 4.32540
2722.63 4.29475
2723.68 4.26301
2724.73 4.23009
2725.79 4.19588
2726.84 4.16025
2727.89 4.12297
2728.94 4.08389
2729.47 4.06361
2729.99 4.04279
2730.52 4.02142
2731.04 3.99949
2731.57 3.97688
2732.10 3.95361
2732.62 3.92962
2733.15 3.90488
2733.67 3.87933
2734.20 3.85293
2734.73 3.82561
2735.25 3.79739
2735.78 3.76807
2736.30 3.73765
2736.83 3.70605
2737.35 3.67319
2737.88 3.63897
2738.41 3.60331
2738.93 3.56608
2739.46 3.52726
2739.98 3.48656
2740.51 3.44392
2741.04 3.39919
2741.56 3.35221
2742.09 3.30278
2742.61 3.25071
2743.14 3.19579
2743.40 3.16718
2743.66 3.13789
2743.93 3.10765
2744.19 3.07654
2744.45 3.04452
2744.72 3.01157
2744.98 2.97763
2745.24 2.94269
2745.51 2.90669
2745.77 2.86960
2746.03 2.83138
2746.29 2.79199
2746.56 2.75141
2746.82 2.70958
2747.08 2.66649
2747.35 2.62210
2747.61 2.57640
2747.87 2.52957
2748.13 2.48124
2748.40 2.43162
2748.66 2.38075
2748.92 2.32870
2749.19 2.27560
2749.45 2.22162
2749.71 2.16698
2749.98 2.11205
2750.24 2.05726
2750.50 2.00327
2750.76 1.95093
2750.90 1.92564
2751.03 1.90142
2751.16 1.87812
2751.29 1.85634
2751.42 1.83604
2751.55 1.81787
2751.69 1.80197
2751.82 1.78905
2751.95 1.77953
2752.08 1.77408
2752.21 1.77349
2752.34 1.77870
2752.47 1.79093
2752.60 1.81133
2752.74 1.84184
2752.87 1.88394
2753.00 1.94068
2753.13 2.01409
2753.20 2.05862
2753.26 2.10888
2753.33 2.16546
2753.39 2.22800
2753.46 2.29914
2753.53 2.37879
2753.56 2.42209
2753.59 2.46786
2753.62 2.51625
2753.66 2.56580
2753.67 2.59323
2753.69 2.61976
2753.71 2.64873
2753.72 2.67676
2753.74 2.70738
2753.76 2.73699
2753.77 2.76934
2753.79 2.80063
2753.81 2.83480
2753.82 2.86785
2753.84 2.90395
2753.85 2.93887
2753.87 2.97700
2753.89 3.01389
2753.90 3.05178
2753.92 3.09070
2753.95 3.17431
2753.99 3.26266
2754.02 3.35604
2754.05 3.45473
2754.08 3.55906
2754.12 3.66937
2754.15 3.78602
2754.18 3.90557
2754.25 4.17384
2754.31 4.47449
2754.38 4.81188
2754.45 5.18497
2754.51 5.61105
2754.58 6.09159
2754.61 6.35476
2754.64 6.63468
2754.68 6.93260
2754.71 7.23996
2754.74 7.57739
2754.77 7.93720
2754.81 8.32115
2754.84 8.73115
2754.87 9.16930
2754.91 9.63792
2754.94 10.1396
2754.97 10.6601
2755.00 11.2352
2755.04 11.8525
2755.07 12.5156
2755.10 13.2289
2755.14 13.9968
2755.17 14.8246
2755.20 15.7179
2755.23 16.6528
2755.27 17.6946
2755.30 18.8232
2755.33 20.0475
2755.37 21.3776
2755.38 22.1077
2755.40 22.8249
2755.42 23.6203
2755.43 24.4021
2755.45 25.2701
2755.47 26.1239
2755.48 27.0156
2755.50 27.9472
2755.51 28.9832
2755.53 30.0042
2755.55 31.1407
2755.56 32.2619
2755.58 33.5111
2755.60 34.7447
2755.61 36.1206
2755.63 37.4807
2755.65 38.9994
2755.66 40.5023
2755.68 42.1823
2755.70 43.8467
2755.71 45.7093
2755.73 47.5569
2755.74 49.5022
2755.76 51.5514
2755.78 53.8502
2755.79 56.1361
2755.81 58.7037
2755.83 61.2602
2755.84 64.1355
2755.86 67.0021
2755.88 70.2308
2755.89 73.4539
2755.91 77.0890
2755.93 80.7229
2755.94 84.8269
2755.96 88.9352
2755.98 93.5811
2755.99 98.2381
2756.01 103.192
2756.02 108.464
2756.04 114.440
2756.06 120.446
2756.07 127.262
2756.09 134.117
2756.11 141.904
2756.12 149.743
2756.14 158.111
2756.15 167.045
2756.17 177.202
2756.19 187.429
2756.20 199.050
2756.22 210.741
2756.24 224.010
2756.25 237.336
2756.27 251.508
2756.29 266.557
2756.31 286.633
2756.33 308.129
2756.35 331.026
2756.36 354.017
2756.38 379.397
2756.40 405.787
2756.44 458.940
2756.46 486.195
2756.48 512.685
2756.50 537.716
2756.52 559.464
2756.54 579.487
2756.56 595.144
2756.58 607.498
2756.60 614.913
2756.61 617.045
2756.62 617.939
2756.64 616.052
2756.66 609.467
2756.68 599.240
2756.70 584.833
2756.72 567.341
2756.74 547.458
2756.76 526.974
2756.80 481.142
2756.84 435.986
2756.86 413.512
2756.88 392.870
2756.90 372.030
2756.92 353.161
2756.93 339.863
2756.94 327.090
2756.96 314.842
2756.97 303.114
2756.99 291.899
2757.00 281.183
2757.01 270.954
2757.03 261.876
2757.04 252.537
2757.05 243.634
2757.07 235.147
2757.08 227.624
2757.10 219.890
2757.11 212.519
2757.14 199.262
2757.16 186.741
2757.19 175.734
2757.22 165.313
2757.25 156.126
2757.27 147.402
2757.30 139.686
2757.33 132.334
2757.36 125.809
2757.38 119.570
2757.41 113.816
2757.44 108.500
2757.47 103.749
2757.50 99.1755
2757.52 95.0745
2757.55 91.1136
2757.58 87.5511
2757.61 84.0998
2757.63 80.9866
2757.66 77.9619
2757.69 75.2258
2757.72 72.5604
2757.74 70.1430
2757.77 67.7821
2757.80 65.6357
2757.83 63.5345
2757.85 61.5507
2757.88 59.6758
2757.91 57.9636
2757.94 56.2801
2757.96 54.7395
2757.99 53.2218
2758.02 51.8303
2758.07 49.1957
2758.13 46.8015
2758.18 44.6187
2758.24 42.6224
2758.29 40.7915
2758.35 39.1078
2758.40 37.5553
2758.46 36.1204
2758.51 34.7911
2758.57 33.5569
2758.62 32.4086
2758.68 31.3382
2758.73 30.3209
2758.79 29.3867
2758.84 28.5111
2758.90 27.6890
2758.95 26.9162
2759.01 26.1884
2759.06 25.5021
2759.12 24.8541
2759.17 24.2414
2759.23 23.6614
2759.28 23.1117
2759.34 22.5901
2759.39 22.0946
2759.45 21.6234
2759.50 21.1749
2759.56 20.7475
2759.67 19.9438
2759.78 19.2171
2759.89 18.5514
2760.00 17.9397
2760.11 17.3761
2760.22 16.8552
2760.33 16.3726
2760.44 15.9244
2760.55 15.5036
2760.66 15.1147
2760.77 14.7512
2760.88 14.4107
2760.99 14.0884
2761.10 13.7883
2761.21 13.5058
2761.32 13.2394
2761.43 12.9856
2761.54 12.7478
2761.65 12.5227
2761.76 12.3092
2761.87 12.1065
2761.98 11.9138
2762.09 11.7305
2762.20 11.5558
2762.31 11.3878
2762.42 11.2289
2762.53 11.0770
2762.64 10.9318
2762.86 10.6596
2763.08 10.4093
2763.31 10.1775
2763.53 9.96411
2763.75 9.76617
2763.97 9.58212
2764.19 9.40981
2764.41 9.24958
2764.63 9.09892
2764.85 8.95824
2765.07 8.82545
2765.29 8.70100
2765.51 8.58362
2765.73 8.47275
2765.95 8.36739
2766.17 8.26803
2766.39 8.17375
2766.61 8.08419
2766.83 7.99863
2767.05 7.91751
2767.27 7.84018
2767.49 7.76636
2767.71 7.69552
2767.93 7.62808
2768.15 7.56322
2768.37 7.50136
2768.81 7.38481
2769.25 7.27750
2769.69 7.17792
2770.13 7.08568
2770.58 6.99961
2771.02 6.91945
2771.46 6.84429
2771.90 6.77382
2772.34 6.70761
2772.78 6.64542
2773.22 6.58663
2773.66 6.53120
2774.10 6.47862
2774.54 6.42889
2774.98 6.38157
2775.42 6.33659
2775.86 6.29377
2776.30 6.25304
2776.74 6.21408
2777.18 6.17694
2777.63 6.14133
2778.07 6.10731
2778.51 6.07462
2778.95 6.04326
2779.39 6.01313
2779.83 5.98424
2780.71 5.92961
2781.59 5.87887
2782.47 5.83155
2783.35 5.78739
2784.23 5.74603
2785.12 5.70719
2786.00 5.67059
2786.88 5.63611
2787.76 5.60352
2788.64 5.57265
2789.52 5.54334
2790.40 5.51551
2791.28 5.48902
2792.17 5.46378
2793.05 5.43964
2793.93 5.41660
2794.81 5.39454
2795.69 5.37339
2796.57 5.35308
2797.45 5.33359
2798.33 5.31484
2799.22 5.29679
2800.10 5.27938
2800.98 5.26260
2802.74 5.23076
2804.50 5.20095
2806.27 5.17301
2808.03 5.14669
2809.79 5.12188
2811.55 5.09840
2813.32 5.07615
2815.08 5.05500
2816.84 5.03488
2818.60 5.01567
2820.37 4.99732
2822.13 4.97975
2823.89 4.96292
2825.65 4.94675
2827.42 4.93120
2829.18 4.91623
2830.94 4.90181
2832.70 4.88788
2834.47 4.87443
2836.23 4.86142
2837.99 4.84882
2841.52 4.82477
2845.04 4.80209
2848.57 4.78064
2852.09 4.76030
2855.62 4.74094
2859.14 4.72248
2862.67 4.70484
2866.19 4.68793
2869.72 4.67170
2873.24 4.65609
2876.77 4.64105
2880.29 4.62654
2883.82 4.61251
2887.34 4.59893
2890.87 4.58577
2894.39 4.57300
2897.92 4.56058
2901.44 4.54851
2904.97 4.53675
2912.02 4.51410
2919.07 4.49250
2926.12 4.47182
2933.17 4.45196
2940.22 4.43284
2947.27 4.41438
2954.32 4.39651
2961.37 4.37918
2968.42 4.36234
2975.47 4.34594
2982.51 4.32994
2989.56 4.31430
2996.61 4.29900
3010.71 4.26927
3024.81 4.24056
3038.91 4.21271
3053.01 4.18556
3067.11 4.15900
3081.21 4.13292
3095.31 4.10724
3109.41 4.08187
3123.51 4.05674
3137.61 4.03179
3151.71 4.00694
3179.91 3.95737
3194.01 3.93253
3208.11 3.90759
3222.21 3.88249
3236.31 3.85719
3250.41 3.83163
3264.51 3.80575
3278.61 3.77950
3292.71 3.75280
3306.81 3.72560
3320.91 3.69782
3335.01 3.66937
3349.11 3.64015
3363.21 3.61004
3377.31 3.57894
3391.41 3.54666
3405.51 3.51304
3419.61 3.47786
3426.66 3.45959
3433.71 3.44084
3440.76 3.42153
3447.81 3.40163
3454.86 3.38109
3461.91 3.35983
3468.96 3.33778
3476.01 3.31487
3483.06 3.29099
3490.11 3.26603
3497.16 3.23986
3504.21 3.21234
3511.26 3.18328
3514.79 3.16811
3518.31 3.15247
3521.84 3.13633
3525.36 3.11966
3528.89 3.10240
3532.41 3.08453
3535.94 3.06598
3539.46 3.04671
3542.99 3.02665
3546.51 3.00574
3550.04 2.98389
3553.56 2.96102
3557.09 2.93704
3560.61 2.91184
3564.14 2.88528
3567.66 2.85724
3571.19 2.82753
3574.71 2.79599
3576.47 2.77945
3578.24 2.76238
3580.00 2.74471
3581.76 2.72645
3583.52 2.70752
3585.29 2.68790
3587.05 2.66754
3588.81 2.64639
3590.57 2.62439
3592.34 2.60150
3594.10 2.57762
3595.86 2.55272
3597.62 2.52669
3599.39 2.49946
3601.15 2.47092
3602.91 2.44099
3604.67 2.40951
3606.44 2.37640
3608.20 2.34147
3609.96 2.30460
3611.72 2.26557
3613.49 2.22420
3614.37 2.20254
3615.25 2.18023
3616.13 2.15721
3617.01 2.13345
3617.89 2.10887
3618.77 2.08349
3619.66 2.05725
3620.54 2.03010
3621.42 2.00195
3622.30 1.97282
3623.18 1.94262
3624.06 1.91128
3624.94 1.87871
3625.82 1.84492
3626.71 1.80979
3627.59 1.77324
3628.47 1.73516
3629.35 1.69552
3630.23 1.65421
3631.11 1.61112
3631.99 1.56609
3632.87 1.51912
3633.76 1.47003
3634.64 1.41872
3635.52 1.36499
3636.40 1.30885
3637.28 1.25013
3638.16 1.18871
3638.60 1.15693
3639.04 1.12444
3639.48 1.09124
3639.92 1.05740
3640.37 1.02277
3640.81 0.987519
3641.25 0.951487
3641.69 0.914860
3642.13 0.877498
3642.57 0.839521
3643.01 0.800979
3643.45 0.762029
3644.33 0.682921
3645.21 0.603215
3646.09 0.524451
3646.53 0.486211
3646.97 0.449378
3647.42 0.414339
3647.86 0.381950
3648.30 0.352945
3648.74 0.328567
3649.18 0.310119
3649.40 0.303675
3649.62 0.299467
3649.84 0.297766
3649.95 0.297969
3650.06 0.298932
3650.17 0.300707
3650.28 0.303348
3650.39 0.306912
3650.44 0.309060
3650.50 0.311462
3650.56 0.314177
3650.61 0.317119
3650.67 0.320341
3650.72 0.323853
3650.78 0.327665
3650.83 0.331786
3650.89 0.336228
3650.94 0.341000
3651.00 0.346113
3651.05 0.351580
3651.11 0.357413
3651.16 0.363622
3651.22 0.370222
3651.27 0.377225
3651.38 0.392496
3651.49 0.409715
3651.60 0.428697
3651.71 0.449723
3651.82 0.472937
3651.93 0.498494
3652.04 0.526562
3652.15 0.557321
3652.26 0.590968
3652.48 0.668164
3652.70 0.759369
3652.81 0.811520
3652.92 0.867677
3653.03 0.928634
3653.14 0.994767
3653.25 1.06716
3653.36 1.14497
3653.47 1.22929
3653.58 1.32067
3653.69 1.41969
3653.80 1.52699
3653.91 1.64326
3654.02 1.76929
3654.14 1.90721
3654.25 2.05549
3654.36 2.21635
3654.47 2.39094
3654.58 2.58053
3654.69 2.78653
3654.80 3.01050
3654.91 3.25419
3655.02 3.52206
3655.13 3.81149
3655.24 4.12723
3655.29 4.29581
3655.35 4.47202
3655.40 4.65625
3655.46 4.84895
3655.51 5.05053
3655.57 5.26150
3655.62 5.48235
3655.68 5.71362
3655.73 5.95589
3655.79 6.20978
3655.84 6.48089
3655.90 6.76026
3655.95 7.05336
3656.01 7.36099
3656.06 7.68401
3656.12 8.02334
3656.17 8.37995
3656.23 8.75491
3656.28 9.14935
3656.34 9.56448
3656.39 10.0016
3656.45 10.4622
3656.50 10.9477
3656.56 11.4597
3656.61 12.0001
3656.67 12.5707
3656.72 13.1850
3656.78 13.8231
3656.83 14.4983
3656.89 15.2131
3656.94 15.9705
3657.00 16.7734
3657.05 17.6255
3657.11 18.5302
3657.16 19.4916
3657.22 20.5142
3657.27 21.6028
3657.33 22.7627
3657.38 23.9995
3657.44 25.3198
3657.49 26.7305
3657.55 28.2392
3657.60 29.8850
3657.66 31.6186
3657.71 33.4787
3657.77 35.4770
3657.82 37.6261
3657.88 39.9404
3657.93 42.4356
3657.99 45.1294
3658.04 48.0414
3658.10 51.1937
3658.15 54.6109
3658.21 58.3207
3658.26 62.3539
3658.32 66.7456
3658.37 71.5349
3658.43 76.7659
3658.49 82.5974
3658.54 88.8781
3658.60 95.7710
3658.65 103.348
3658.71 111.688
3658.76 120.883
3658.79 125.925
3658.82 131.034
3658.84 136.605
3658.87 142.254
3658.90 148.416
3658.93 154.668
3658.95 161.490
3658.98 168.414
3659.01 175.972
3659.04 183.643
3659.06 192.016
3659.09 200.514
3659.12 209.787
3659.15 219.194
3659.17 229.454
3659.20 239.853
3659.23 251.182
3659.26 262.650
3659.28 275.123
3659.31 287.724
3659.35 309.488
3659.40 332.242
3659.44 356.444
3659.48 382.026
3659.53 408.855
3659.57 436.723
3659.66 494.272
3659.70 523.704
3659.74 551.660
3659.79 578.108
3659.83 602.286
3659.87 623.420
3659.91 640.781
3659.96 653.746
3660.00 661.861
3660.02 664.048
3660.04 664.889
3660.09 662.685
3660.13 655.603
3660.17 644.067
3660.22 628.655
3660.26 610.041
3660.30 588.934
3660.35 566.030
3660.43 516.762
3660.52 467.567
3660.56 443.697
3660.60 420.631
3660.65 398.518
3660.69 377.455
3660.75 351.679
3660.80 328.209
3660.86 306.156
3660.91 286.233
3660.97 267.611
3661.02 250.842
3661.08 235.195
3661.13 221.112
3661.19 207.967
3661.25 196.122
3661.30 185.047
3661.36 175.047
3661.41 165.674
3661.47 157.189
3661.52 149.215
3661.58 141.975
3661.63 135.150
3661.69 128.936
3661.75 123.061
3661.80 117.696
3661.86 112.608
3661.91 107.949
3661.97 103.518
3662.02 99.4484
3662.08 95.5684
3662.13 91.9953
3662.19 88.5797
3662.24 85.4263
3662.30 82.4046
3662.36 79.6082
3662.41 76.9689
3662.47 74.4752
3662.52 72.0748
3662.58 69.8437
3662.63 67.6917
3662.69 65.6875
3662.74 63.7505
3662.80 61.9432
3662.91 58.5577
3663.02 55.4860
3663.13 52.6899
3663.24 50.1368
3663.35 47.7988
3663.46 45.6520
3663.58 43.6755
3663.69 41.8514
3663.80 40.1639
3663.91 38.5994
3664.02 37.1459
3664.13 35.7927
3664.24 34.5415
3664.35 33.3614
3664.46 32.2568
3664.57 31.2212
3664.68 30.2487
3664.80 29.3340
3664.91 28.4726
3665.02 27.6601
3665.13 26.8928
3665.24 26.1672
3665.35 25.4803
3665.46 24.8292
3665.57 24.2113
3665.68 23.6244
3665.79 23.0662
3665.91 22.5349
3666.02 22.0331
3666.24 21.0889
3666.46 20.2271
3666.68 19.4378
3666.90 18.7128
3667.13 18.0448
3667.35 17.4277
3667.57 16.8562
3667.79 16.3279
3668.01 15.8340
3668.23 15.3735
3668.46 14.9431
3668.68 14.5403
3668.90 14.1624
3669.12 13.8075
3669.34 13.4734
3669.57 13.1599
3669.79 12.8627
3670.01 12.5817
3670.23 12.3157
3670.45 12.0636
3670.68 11.8244
3670.90 11.5971
3671.12 11.3809
3671.34 11.1760
3671.56 10.9797
3671.78 10.7925
3672.01 10.6137
3672.23 10.4427
3672.67 10.1225
3673.12 9.82896
3673.56 9.55786
3674.00 9.30731
3674.45 9.07513
3674.89 8.85987
3675.33 8.65891
3675.78 8.47133
3676.22 8.29586
3676.67 8.13173
3677.11 7.97724
3677.55 7.83189
3678.00 7.69490
3678.44 7.56588
3678.88 7.44362
3679.33 7.32786
3679.77 7.21811
3680.22 7.11415
3680.66 7.01510
3681.10 6.92083
3681.55 6.83100
3681.99 6.74551
3682.43 6.66369
3682.88 6.58548
3683.32 6.51064
3683.77 6.43914
3684.65 6.30453
3685.54 6.18056
3686.43 6.06578
3687.32 5.95942
3688.20 5.86050
3689.09 5.76824
3689.98 5.68191
3690.86 5.60112
3691.75 5.52518
3692.64 5.45383
3693.53 5.38650
3694.41 5.32300
3695.30 5.26287
3696.19 5.20598
3697.08 5.15194
3697.96 5.10066
3698.85 5.05181
3699.74 5.00533
3700.63 4.96094
3701.51 4.91859
3702.40 4.87810
3703.29 4.83935
3704.18 4.80217
3705.06 4.76655
3705.95 4.73232
3706.84 4.69946
3708.61 4.63739
3710.39 4.57977
3712.16 4.52612
3713.94 4.47601
3715.71 4.42908
3717.49 4.38505
3719.26 4.34357
3721.04 4.30445
3722.81 4.26746
3724.59 4.23242
3726.36 4.19916
3728.14 4.16753
3729.91 4.13741
3731.69 4.10868
3733.46 4.08121
3735.24 4.05492
3737.01 4.02972
3738.79 4.00554
3740.56 3.98230
3742.34 3.95994
3744.11 3.93840
3745.89 3.91764
3749.44 3.87819
3752.99 3.84126
3756.54 3.80656
3760.08 3.77384
3763.63 3.74287
3767.18 3.71347
3770.73 3.68547
3774.28 3.65876
3777.83 3.63318
3781.38 3.60865
3784.93 3.58505
3788.48 3.56232
3792.03 3.54036
3795.58 3.51912
3799.13 3.49853
3802.68 3.47855
3809.78 3.44018
3816.88 3.40369
3823.98 3.36879
3831.08 3.33526
3838.18 3.30289
3845.28 3.27153
3852.38 3.24103
3859.48 3.21128
3866.58 3.18215
3873.68 3.15358
3887.88 3.09776
3902.08 3.04327
3916.27 2.98970
3930.47 2.93668
3944.67 2.88393
3958.87 2.83120
3973.07 2.77828
3987.27 2.72496
4001.47 2.67109
4015.67 2.61649
4029.87 2.56103
4044.07 2.50454
4058.26 2.44690
4072.46 2.38796
4086.66 2.32758
4100.86 2.26562
4115.06 2.20194
4129.26 2.13639
4143.46 2.06882
4157.66 1.99906
4171.86 1.92696
4186.06 1.85234
4200.26 1.77502
4214.45 1.69481
4228.65 1.61152
4242.85 1.52494
4249.95 1.48036
4257.05 1.43490
4264.15 1.38851
4271.25 1.34119
4278.35 1.29290
4285.45 1.24363
4292.55 1.19337
4299.65 1.14210
4306.75 1.08981
4313.85 1.03651
4320.95 0.982182
4328.05 0.926865
4335.15 0.870567
4342.25 0.813347
4349.35 0.755253
4356.45 0.696380
4363.55 0.636850
4370.64 0.576833
4377.74 0.516529
4384.84 0.456237
4391.94 0.396315
4399.04 0.337266
4402.59 0.308253
4406.14 0.279710
4409.69 0.251748
4413.24 0.224500
4416.79 0.198098
4420.34 0.172717
4422.12 0.160468
4423.89 0.148549
4425.67 0.136989
4427.44 0.125823
4429.22 0.115073
4430.99 0.104781
4432.77 0.0949844
4434.54 0.0857252
4436.32 0.0770473
4438.09 0.0689986
4439.87 0.0616304
4441.64 0.0550019
4443.41 0.0491653
4445.19 0.0441893
4446.96 0.0401438
4448.74 0.0371043
4449.63 0.0359866
4450.51 0.0351527
4451.40 0.0346120
4452.29 0.0343775
4453.18 0.0344609
4454.06 0.0348748
4454.95 0.0356323
4455.84 0.0367472
4456.73 0.0382358
4457.61 0.0401099
4458.50 0.0423892
4459.39 0.0450850
4460.28 0.0482205
4461.16 0.0518063
4462.94 0.0604192
4463.83 0.0654870
4464.71 0.0710823
4465.60 0.0772397
4466.49 0.0839685
4467.38 0.0913080
4468.26 0.0992668
4469.15 0.107879
4470.04 0.117173
4470.93 0.127188
4471.81 0.137932
4472.70 0.149462
4473.59 0.161784
4474.48 0.174961
4475.36 0.189000
4476.25 0.203969
4477.14 0.219877
4478.03 0.236800
4478.91 0.254745
4479.80 0.273798
4480.69 0.293965
4481.58 0.315342
4482.46 0.337935
4483.35 0.361824
4484.24 0.387068
4485.12 0.413760
4486.01 0.441905
4486.90 0.471637
4487.79 0.502961
4488.67 0.536024
4489.56 0.570834
4490.45 0.607554
4491.34 0.646191
4492.22 0.686929
4493.11 0.729775
4494.00 0.774933
4494.89 0.822414
4495.77 0.872442
4496.66 0.925033
4497.55 0.980373
4498.44 1.03860
4499.32 1.09995
4500.21 1.16442
4501.10 1.23234
4501.99 1.30373
4502.87 1.37894
4503.76 1.45801
4504.65 1.54132
4505.54 1.62893
4506.42 1.72127
4507.31 1.81840
4508.20 1.92080
4509.09 2.02855
4509.97 2.14221
4510.86 2.26185
4511.75 2.38797
4512.63 2.52094
4513.52 2.66136
4514.41 2.80934
4515.30 2.96570
4516.18 3.13060
4517.07 3.30496
4517.96 3.48898
4518.85 3.68372
4519.73 3.88943
4520.62 4.10732
4521.51 4.33770
4522.40 4.58195
4523.28 4.84048
4524.17 5.11487
4525.06 5.40562
4525.95 5.71423
4526.83 6.04201
4527.72 6.39076
4528.61 6.76127
4529.50 7.15605
4530.38 7.57607
4531.27 8.02429
4532.16 8.50192
4533.05 9.01248
4533.93 9.55748
4534.82 10.1411
4535.71 10.7652
4536.60 11.4349
4537.48 12.1526
4538.37 12.9243
4539.26 13.7531
4540.15 14.6453
4541.03 15.6070
4541.92 16.6459
4542.81 17.7675
4543.70 18.9825
4544.58 20.2979
4545.47 21.7272
4546.36 23.2792
4547.25 24.9712
4548.13 26.8148
4549.02 28.8316
4549.91 31.0372
4550.80 33.4593
4551.68 36.1187
4552.57 39.0513
4553.46 42.2851
4553.90 44.0303
4554.34 45.8629
4554.79 47.7972
4555.23 49.8308
4555.68 51.9799
4556.12 54.2473
4556.56 56.6412
4557.01 59.1643
4557.45 61.8375
4557.89 64.6652
4558.34 67.6583
4558.78 70.8214
4559.23 74.1814
4559.67 77.7451
4560.11 81.5275
4560.56 85.5352
4561.00 89.8036
4561.44 94.3428
4561.89 99.1728
4562.33 104.304
4562.78 109.781
4563.22 115.620
4563.66 121.848
4564.11 128.476
4564.55 135.567
4564.99 143.137
4565.44 151.223
4565.88 159.838
4566.33 169.061
4566.77 178.910
4567.21 189.426
4567.66 200.620
4568.10 212.582
4568.54 225.295
4568.99 238.847
4569.43 253.204
4569.97 271.716
4570.50 291.488
4571.04 312.498
4571.57 334.637
4572.11 357.868
4572.64 381.916
4573.72 431.484
4574.25 456.197
4574.79 480.157
4575.32 502.746
4575.86 523.264
4576.39 541.116
4576.93 555.609
4577.47 566.265
4578.00 572.661
4578.54 574.623
4579.07 572.136
4579.61 565.416
4580.15 554.847
4580.68 540.913
4581.22 524.263
4581.75 505.498
4582.29 485.227
4583.36 442.309
4584.44 399.198
4584.97 378.299
4585.51 358.172
4586.04 338.907
4586.58 320.581
4587.30 297.603
4588.01 276.397
4588.73 256.919
4589.45 239.108
4590.16 222.810
4590.88 207.954
4591.60 194.379
4592.31 182.007
4593.03 170.693
4593.75 160.367
4594.46 150.905
4595.18 142.248
4595.90 134.293
4596.61 126.993
4597.33 120.265
4598.05 114.070
4598.76 108.343
4599.48 103.053
4600.20 98.1457
4600.91 93.5989
4601.63 89.3676
4602.34 85.4348
4603.06 81.7639
4603.78 78.3418
4604.49 75.1382
4605.21 72.1434
4605.93 69.3321
4606.64 66.6969
4607.36 64.2168
4608.08 61.8862
4608.79 59.6873
4609.51 57.6161
4610.23 55.6574
4610.94 53.8084
4611.66 52.0560
4612.38 50.3982
4613.09 48.8239
4613.81 47.3315
4614.53 45.9116
4615.24 44.5632
4616.67 42.0551
4618.11 39.7749
4619.54 37.6953
4620.97 35.7929
4622.41 34.0475
4623.84 32.4418
4625.27 30.9608
4626.71 29.5915
4628.14 28.3225
4629.57 27.1439
4631.00 26.0468
4632.44 25.0237
4633.87 24.0676
4635.30 23.1726
4636.74 22.3333
4638.17 21.5449
4639.60 20.8031
4641.04 20.1041
4642.47 19.4445
4643.90 18.8212
4645.33 18.2312
4646.77 17.6723
4648.20 17.1419
4649.63 16.6381
4651.07 16.1590
4652.50 15.7028
4655.37 14.8531
4658.23 14.0778
4661.10 13.3678
4663.96 12.7151
4666.83 12.1130
4669.70 11.5558
4672.56 11.0384
4675.43 10.5567
4678.29 10.1069
4681.16 9.68579
4684.03 9.29050
4686.89 8.91854
4689.76 8.56774
4692.62 8.23613
4695.49 7.92199
4698.36 7.62378
4701.22 7.34014
4704.09 7.06982
4706.95 6.81172
4709.82 6.56485
4712.69 6.32831
4715.55 6.10129
4718.42 5.88305
4724.15 5.47031
4729.88 5.08543
4735.61 4.72453
4741.35 4.38435
4747.08 4.06218
4752.81 3.75571
4758.54 3.46299
4764.27 3.18243
4770.01 2.91265
4775.74 2.65253
4781.47 2.40131
4787.20 2.15829
4792.93 1.92307
4798.67 1.69551
4804.40 1.47572
4810.13 1.26413
4813.00 1.16163
4815.86 1.06152
4818.73 0.963950
4821.59 0.869134
4824.46 0.777313
4827.33 0.688774
4830.19 0.603854
4833.06 0.522947
4834.49 0.484138
4835.92 0.446510
4837.36 0.410132
4838.79 0.375078
4840.22 0.341428
4841.66 0.309269
4843.09 0.278692
4844.52 0.249799
4845.96 0.222697
4847.39 0.197502
4848.82 0.174339
4850.25 0.153342
4851.69 0.134657
4853.12 0.118440
4854.55 0.104860
4855.27 0.0991117
4855.99 0.0940992
4856.70 0.0898337
4857.42 0.0863532
4858.14 0.0836750
4858.85 0.0818345
4859.57 0.0808559
4860.29 0.0807721
4861.00 0.0816146
4861.72 0.0834137
4862.44 0.0862085
4863.15 0.0900268
4863.87 0.0949162
4864.58 0.100901
4865.30 0.108039
4866.02 0.116351
4866.73 0.125904
4867.45 0.136716
4868.17 0.148864
4868.88 0.162363
4869.60 0.177303
4870.32 0.193695
4871.03 0.211639
4871.75 0.231143
4872.47 0.252323
4873.18 0.275181
4873.90 0.299847
4874.62 0.326321
4875.33 0.354748
4876.05 0.385122
4876.77 0.417607
4877.48 0.452193
4878.20 0.489060
4878.91 0.528196
4879.63 0.569802
4880.35 0.613858
4881.06 0.660588
4881.78 0.709968
4882.50 0.762247
4883.21 0.817395
4883.93 0.875686
4884.65 0.937085
4885.36 1.00190
4886.08 1.07008
4886.80 1.14197
4887.51 1.21752
4888.23 1.29710
4888.95 1.38065
4889.66 1.46860
4890.38 1.56087
4891.10 1.65792
4891.81 1.75968
4892.53 1.86666
4893.24 1.97877
4893.96 2.09658
4894.68 2.21999
4895.39 2.34962
4896.11 2.48539
4896.83 2.62796
4897.54 2.77724
4898.26 2.93397
4898.98 3.09805
4899.69 3.27031
4900.41 3.45064
4901.13 3.63995
4901.84 3.83812
4902.56 4.04617
4903.28 4.26397
4903.99 4.49264
4904.71 4.73207
4905.43 4.98349
4906.14 5.24678
4906.86 5.52331
4907.57 5.81297
4908.29 6.11728
4909.01 6.43612
4909.72 6.77120
4910.44 7.12241
4911.16 7.49164
4911.87 7.87879
4912.59 8.28598
4913.31 8.71314
4914.02 9.16262
4914.74 9.63438
4915.46 10.1311
4916.17 10.6526
4916.89 11.2021
4917.61 11.7795
4918.32 12.3881
4919.04 13.0280
4919.76 13.7030
4920.47 14.4133
4921.19 15.1631
4921.90 15.9527
4922.62 16.7869
4923.34 17.6661
4924.05 18.5957
4924.77 19.5763
4925.49 20.6141
4926.20 21.7099
4926.92 22.8707
4927.64 24.0976
4928.35 25.3986
4929.07 26.7751
4929.79 28.2364
4930.50 29.7842
4931.22 31.4291
4931.94 33.1735
4932.65 35.0295
4933.37 37.0000
4934.09 39.0993
4934.80 41.3309
4935.52 43.7113
4936.23 46.2450
4936.95 48.9512
4937.67 51.8354
4938.38 54.9200
4939.10 58.2118
4939.82 61.7370
4940.53 65.5040
4941.25 69.5432
4941.97 73.8649
4942.68 78.5045
4943.40 83.4744
4944.12 88.8159
4944.83 94.5435
4945.55 100.705
4946.27 107.318
4946.98 114.436
4947.70 122.078
4948.42 130.307
4949.13 139.143
4949.85 148.653
4950.56 158.858
4951.28 169.831
4952.00 181.585
4952.71 194.196
4953.43 207.667
4954.28 224.819
4955.13 243.258
4955.98 263.012
4956.82 284.050
4957.67 306.291
4958.52 329.593
4960.22 378.428
4961.06 403.292
4961.91 427.783
4962.76 451.362
4963.61 473.398
4964.46 493.235
4965.30 510.241
4966.15 523.853
4967.00 533.636
4967.85 539.324
4968.70 540.820
4969.55 538.235
4970.40 531.863
4971.24 522.110
4972.09 509.495
4972.94 494.577
4973.79 477.939
4975.49 441.462
4977.19 403.617
4978.03 384.958
4978.88 366.774
4979.73 349.211
4980.58 332.389
4981.19 320.825
4981.79 309.675
4982.40 298.945
4983.01 288.638
4983.62 278.749
4984.22 269.272
4984.83 260.200
4985.44 251.533
4986.04 243.233
4986.65 235.299
4987.26 227.719
4987.86 220.476
4988.47 213.558
4989.08 206.950
4989.68 200.636
4990.29 194.614
4991.50 183.340
4992.72 173.035
4993.93 163.605
4995.15 154.969
4996.36 147.035
4997.57 139.741
4998.79 133.024
5000.00 126.833
5000.98 122.189
5001.95 117.827
5002.93 113.723
5003.91 109.860
5004.89 106.218
5005.86 102.781
5006.84 99.5353
5007.82 96.4658
5008.79 93.5605
5009.77 90.8078
5010.75 88.1972
5011.72 85.7191
5012.70 83.3645
5013.68 81.1254
5014.66 78.9942
5015.63 76.9659
5017.59 73.1832
5019.54 69.7339
5021.49 66.5791
5023.45 63.6854
5025.40 61.0240
5027.36 58.5700
5029.31 56.3015
5031.26 54.2008
5033.22 52.2491
5035.17 50.4330
5037.12 48.7397
5039.08 47.1579
5041.03 45.6775
5042.99 44.2897
5044.94 42.9864
5046.89 41.7613
5048.85 40.6067
5050.80 39.5175
5052.76 38.4886
5054.71 37.5159
5056.66 36.5941
5058.62 35.7201
5060.57 34.8903
5062.52 34.1020
5064.48 33.3516
5066.43 32.6369
5068.39 31.9555
5070.34 31.3052
5074.25 30.0900
5078.15 28.9777
5082.06 27.9555
5085.97 27.0137
5089.88 26.1432
5093.78 25.3366
5097.69 24.5872
5101.60 23.8892
5105.51 23.2378
5109.42 22.6286
5113.32 22.0576
5117.23 21.5215
5121.14 21.0172
5125.05 20.5420
5128.95 20.0935
5132.86 19.6695
5136.77 19.2682
5140.68 18.8878
5144.58 18.5267
5148.49 18.1834
5152.40 17.8568
5156.31 17.5457
5160.22 17.2490
5164.12 16.9656
5168.03 16.6948
5171.94 16.4358
5179.75 15.9500
5187.57 15.5030
5195.38 15.0902
5203.20 14.7081
5211.01 14.3531
5218.83 14.0226
5226.65 13.7140
5234.46 13.4253
5242.28 13.1546
5250.09 12.9003
5257.91 12.6607
5265.72 12.4348
5273.54 12.2214
5281.35 12.0194
5289.17 11.8280
5296.98 11.6463
5304.80 11.4735
5312.61 11.3091
5320.43 11.1524
5328.24 11.0029
5336.06 10.8601
5343.87 10.7235
5351.69 10.5927
5359.51 10.4674
5367.32 10.3472
5375.14 10.2318
5390.77 10.0143
5406.40 9.81268
5422.03 9.62534
5437.66 9.45074
5453.29 9.28755
5468.92 9.13468
5484.55 8.99110
5500.18 8.85598
5515.81 8.72855
5531.44 8.60813
5547.07 8.49414
5562.70 8.38605
5578.33 8.28338
5593.96 8.18572
5609.59 8.09266
5625.22 8.00389
5640.86 7.91909
5656.49 7.83797
5672.12 7.76028
5687.75 7.68579
5703.38 7.61429
5719.01 7.54560
5734.64 7.47951
5750.27 7.41589
5781.53 7.29542
5812.79 7.18314
5844.05 7.07814
5875.31 6.97964
5906.58 6.88696
5937.84 6.79953
5969.10 6.71684
6000.36 6.63843
6031.62 6.56391
6062.88 6.49293
6094.14 6.42519
6125.40 6.36040
6156.67 6.29831
6187.93 6.23872
6219.19 6.18140
6250.45 6.12618
6281.71 6.07290
6312.97 6.02141
6344.23 5.97156
6375.49 5.92324
6406.75 5.87632
6438.02 5.83071
6500.54 5.74300
6563.06 5.65940
6625.58 5.57932
6688.10 5.50220
6750.63 5.42759
6813.15 5.35505
6875.67 5.28419
6938.19 5.21466
7000.72 5.14610
7063.24 5.07821
7125.76 5.01067
7188.28 4.94316
7250.81 4.87538
7313.33 4.80701
7375.85 4.73772
7438.37 4.66716
7500.89 4.59494
7563.42 4.52066
7625.94 4.44387
7657.20 4.40436
7688.46 4.36403
7719.72 4.32280
7750.98 4.28058
7782.25 4.23729
7813.51 4.19283
7844.77 4.14710
7876.03 4.09998
7907.29 4.05136
7938.55 4.00111
7969.81 3.94906
8001.07 3.89506
8032.34 3.83894
8063.60 3.78049
8094.86 3.71949
8126.12 3.65570
8157.38 3.58884
8188.64 3.51860
8219.90 3.44463
8251.16 3.36653
8266.79 3.32580
8282.43 3.28386
8298.06 3.24065
8313.69 3.19610
8329.32 3.15013
8344.95 3.10267
8360.58 3.05362
8376.21 3.00289
8391.84 2.95038
8407.47 2.89599
8423.10 2.83960
8438.73 2.78108
8454.36 2.72030
8469.99 2.65712
8485.62 2.59138
8501.25 2.52291
8516.88 2.45154
8532.51 2.37707
8548.15 2.29930
8563.78 2.21801
8579.41 2.13296
8595.04 2.04391
8610.67 1.95059
8618.48 1.90225
8626.30 1.85275
8634.11 1.80204
8641.93 1.75010
8649.74 1.69690
8657.56 1.64240
8665.37 1.58656
8673.19 1.52937
8681.00 1.47080
8688.82 1.41083
8696.64 1.34943
8704.45 1.28661
8712.27 1.22236
8720.08 1.15670
8727.90 1.08964
8735.71 1.02125
8743.53 0.951577
8751.34 0.880729
8759.16 0.808827
8766.97 0.736069
8774.79 0.662673
8782.60 0.588970
8790.42 0.515345
8798.23 0.442339
8806.05 0.370617
8813.86 0.301045
8817.77 0.267399
8821.68 0.234733
8825.59 0.203237
8829.50 0.173136
8833.40 0.144662
8835.36 0.131124
8837.31 0.118110
8839.26 0.105647
8841.22 0.0937858
8843.17 0.0825747
8845.13 0.0720689
8847.08 0.0623115
8849.03 0.0533660
8850.99 0.0452940
8852.94 0.0381619
8854.90 0.0320406
8855.87 0.0293825
8856.85 0.0270061
8857.83 0.0249216
8858.80 0.0231399
8859.78 0.0216720
8860.27 0.0210599
8860.76 0.0205305
8861.25 0.0200844
8861.73 0.0197250
8862.22 0.0194523
8862.71 0.0192691
8862.96 0.0192111
8863.20 0.0191762
8863.44 0.0191643
8863.69 0.0191757
8863.93 0.0192107
8864.18 0.0192692
8864.42 0.0193516
8864.66 0.0194581
8864.91 0.0195894
8865.15 0.0197448
8865.64 0.0201301
8866.13 0.0206171
8866.62 0.0212059
8867.11 0.0219006
8867.60 0.0227004
8868.08 0.0236084
8868.57 0.0246267
8869.55 0.0270047
8870.53 0.0298493
8871.50 0.0331775
8872.48 0.0370071
8873.46 0.0413568
8874.43 0.0462455
8876.39 0.0577145
8878.34 0.0715945
8880.29 0.0880624
8882.25 0.107315
8884.20 0.129565
8886.16 0.155041
8888.11 0.183994
8889.09 0.199857
8890.06 0.216692
8891.04 0.234536
8892.02 0.253407
8892.99 0.273386
8893.97 0.294495
8894.95 0.316778
8895.93 0.340281
8896.90 0.365052
8897.88 0.391141
8898.86 0.418598
8899.83 0.447449
8900.81 0.477809
8901.79 0.509708
8902.76 0.543208
8903.74 0.578373
8904.72 0.615271
8905.69 0.653971
8906.67 0.694548
8907.65 0.737034
8908.62 0.781596
8909.60 0.828276
8910.58 0.877161
8911.56 0.928345
8912.53 0.981924
8913.51 1.03800
8914.49 1.09667
8915.46 1.15806
8916.44 1.22228
8917.42 1.28945
8918.39 1.35970
8919.37 1.43316
8920.35 1.50998
8921.33 1.59030
8922.30 1.67429
8923.28 1.76200
8924.26 1.85379
8925.23 1.94976
8926.21 2.05010
8927.19 2.15500
8928.16 2.26469
8929.14 2.37937
8930.12 2.49928
8931.09 2.62455
8932.07 2.75568
8933.05 2.89282
8934.02 3.03628
8935.00 3.18634
8935.98 3.34333
8936.96 3.50760
8937.93 3.67951
8938.91 3.85925
8939.89 4.04759
8940.86 4.24477
8941.84 4.45126
8942.82 4.66753
8943.79 4.89409
8944.77 5.13148
8945.75 5.38028
8946.72 5.64108
8947.70 5.91454
8948.68 6.20134
8949.66 6.50221
8950.63 6.81793
8951.61 7.14932
8952.59 7.49726
8953.56 7.86270
8954.54 8.24622
8955.52 8.64968
8956.49 9.07383
8957.47 9.51989
8958.45 9.98915
8959.42 10.4830
8960.40 11.0029
8961.38 11.5505
8962.35 12.1269
8963.33 12.7350
8964.31 13.3763
8965.29 14.0528
8966.26 14.7667
8967.24 15.5206
8968.22 16.3170
8969.19 17.1586
8970.17 18.0476
8971.15 18.9890
8972.12 19.9853
8973.10 21.0404
8974.08 22.1582
8975.05 23.3430
8976.03 24.5997
8977.01 25.9331
8977.99 27.3487
8978.96 28.8524
8979.94 30.4506
8980.92 32.1500
8981.89 33.9579
8982.87 35.8824
8983.85 37.9319
8984.82 40.1156
8985.80 42.4409
8986.78 44.9232
8987.75 47.5716
8988.73 50.3982
8989.71 53.4161
8990.69 56.6391
8991.66 60.0819
8992.64 63.7600
8993.62 67.6858
8994.59 71.8843
8995.57 76.3693
8996.55 81.1590
8997.52 86.2720
8998.50 91.7267
8999.48 97.5411
9000.45 103.732
9001.43 110.309
9002.72 119.594
9004.00 129.603
9005.29 140.342
9006.57 151.788
9007.86 163.919
9009.14 176.642
9011.72 203.402
9013.00 217.065
9014.29 230.580
9015.57 243.637
9016.86 255.884
9018.14 266.981
9019.43 276.561
9020.72 284.329
9022.00 290.027
9023.29 293.510
9024.57 294.714
9025.86 293.692
9027.15 290.592
9028.43 285.630
9029.72 279.090
9031.00 271.267
9032.29 262.465
9034.86 243.038
9037.44 222.743
9038.72 212.698
9040.01 202.897
9041.29 193.414
9042.58 184.306
9043.87 175.556
9045.17 167.243
9046.46 159.372
9047.76 151.948
9049.05 144.948
9050.34 138.365
9051.64 132.179
9052.93 126.376
9054.22 120.925
9055.52 115.811
9056.81 111.011
9058.11 106.509
9059.40 102.278
9060.69 98.3067
9061.99 94.5704
9063.28 91.0585
9064.57 87.7501
9065.87 84.6336
9067.16 81.6955
9068.45 78.9255
9069.75 76.3077
9071.04 73.8356
9072.34 71.4954
9073.63 69.2816
9074.92 67.1824
9076.22 65.1919
9077.51 63.3027
9078.80 61.5097
9080.10 59.8039
9081.39 58.1822
9082.68 56.6370
9083.98 55.1658
9086.57 52.4220
9089.15 49.9207
9091.74 47.6323
9094.33 45.5346
9096.92 43.6052
9099.50 41.8276
9102.09 40.1853
9104.68 38.6646
9107.26 37.2529
9109.85 35.9408
9112.44 34.7183
9115.03 33.5771
9117.61 32.5095
9120.20 31.5099
9122.79 30.5719
9125.37 29.6904
9127.96 28.8604
9130.55 28.0784
9133.14 27.3401
9135.72 26.6425
9138.31 25.9821
9140.90 25.3566
9143.49 24.7632
9146.07 24.1997
9148.66 23.6637
9151.25 23.1538
9153.84 22.6680
9156.42 22.2047
9159.01 21.7622
9161.60 21.3397
9166.77 20.5489
9171.95 19.8232
9177.12 19.1553
9182.30 18.5387
9187.47 17.9680
9192.64 17.4383
9197.82 16.9455
9202.99 16.4859
9208.17 16.0564
9213.34 15.6541
9218.52 15.2765
9223.69 14.9216
9228.87 14.5873
9234.04 14.2719
9239.22 13.9739
9244.39 13.6918
9249.56 13.4245
9254.74 13.1706
9259.91 12.9294
9265.09 12.6997
9270.26 12.4809
9275.44 12.2720
9280.61 12.0725
9285.79 11.8817
9290.96 11.6990
9296.14 11.5239
9301.31 11.3558
9311.66 11.0392
9322.01 10.7460
9332.36 10.4733
9342.71 10.2189
9353.06 9.98074
9363.40 9.75694
9373.75 9.54595
9384.10 9.34636
9394.45 9.15696
9404.80 8.97660
9415.15 8.80426
9425.50 8.63901
9435.85 8.47997
9446.20 8.32633
9456.55 8.17730
9466.90 8.03211
9477.25 7.89003
9487.59 7.75030
9497.94 7.61212
9508.29 7.47466
9518.64 7.33701
9523.82 7.26779
9528.99 7.19815
9534.17 7.12791
9539.34 7.05693
9544.51 6.98501
9549.69 6.91197
9554.86 6.83759
9560.04 6.76164
9565.21 6.68383
9570.39 6.60390
9575.56 6.52145
9580.74 6.43615
9585.91 6.34749
9591.09 6.25501
9593.67 6.20712
9596.26 6.15806
9598.85 6.10771
9601.43 6.05597
9604.02 6.00271
9606.61 5.94785
9609.20 5.89125
9611.78 5.83276
9614.37 5.77220
9616.96 5.70944
9619.55 5.64427
9622.13 5.57647
9624.72 5.50578
9627.31 5.43200
9629.90 5.35477
9632.48 5.27383
9635.07 5.18873
9637.66 5.09914
9640.24 5.00455
9641.54 4.95519
9642.83 4.90441
9644.13 4.85206
9645.42 4.79809
9646.71 4.74241
9648.01 4.68497
9649.30 4.62557
9650.59 4.56420
9651.89 4.50065
9653.18 4.43488
9654.47 4.36665
9655.77 4.29587
9657.06 4.22238
9658.36 4.14606
9659.65 4.06661
9660.94 3.98396
9662.24 3.89776
9663.53 3.80791
9664.82 3.71403
9666.12 3.61590
9667.41 3.51324
9668.70 3.40581
9670.00 3.29313
9671.29 3.17500
9672.59 3.05087
9673.23 2.98646
9673.88 2.92052
9674.53 2.85281
9675.17 2.78336
9675.82 2.71212
9676.47 2.63906
9677.11 2.56410
9677.76 2.48721
9678.41 2.40833
9679.05 2.32756
9679.70 2.24461
9680.35 2.15956
9680.99 2.07240
9681.64 1.98326
9682.29 1.89187
9682.93 1.79839
9683.58 1.70287
9684.23 1.60555
9684.87 1.50626
9685.52 1.40531
9686.17 1.30294
9686.82 1.19949
9688.11 0.991123
9689.40 0.785604
9690.05 0.686328
9690.70 0.591417
9691.34 0.502925
9691.99 0.423632
9692.31 0.388320
9692.64 0.356762
9692.96 0.329368
9693.28 0.306997
9693.61 0.290310
9693.77 0.284410
9693.93 0.280326
9694.09 0.278143
9694.25 0.278035
9694.42 0.280158
9694.50 0.282112
9694.58 0.284654
9694.66 0.287872
9694.74 0.291762
9694.82 0.296349
9694.90 0.301660
9694.98 0.307721
9695.06 0.314561
9695.14 0.322209
9695.22 0.330586
9695.39 0.350180
9695.55 0.373524
9695.71 0.400906
9695.87 0.432431
9696.03 0.468828
9696.19 0.510284
9696.36 0.557195
9696.52 0.609650
9696.68 0.668768
9696.84 0.734750
9697.00 0.808152
9697.16 0.889049
9697.33 0.979101
9697.49 1.07855
9697.65 1.18817
9697.81 1.30804
9697.97 1.44059
9698.14 1.58612
9698.30 1.74577
9698.46 1.91962
9698.62 2.11119
9698.78 2.32094
9698.94 2.55051
9699.11 2.80008
9699.27 3.07474
9699.43 3.37327
9699.59 3.70181
9699.75 4.05898
9699.91 4.45219
9700.08 4.88267
9700.24 5.35412
9700.40 5.86736
9700.48 6.14383
9700.56 6.43335
9700.64 6.73658
9700.72 7.05422
9700.80 7.38701
9700.88 7.73575
9700.97 8.10126
9701.05 8.47959
9701.13 8.88112
9701.21 9.30222
9701.29 9.74396
9701.37 10.2075
9701.45 10.6939
9701.53 11.2045
9701.61 11.7406
9701.69 12.2966
9701.77 12.8879
9701.85 13.5092
9701.94 14.1622
9702.02 14.8402
9702.10 15.5620
9702.18 16.3214
9702.26 17.1205
9702.34 17.9511
9702.42 18.8364
9702.50 19.7690
9702.58 20.7516
9702.66 21.7874
9702.74 22.8795
9702.82 24.0313
9702.91 25.2465
9702.99 26.5128
9703.07 27.8659
9703.15 29.2949
9703.23 30.8044
9703.31 32.3994
9703.39 34.0853
9703.47 35.8678
9703.55 37.7527
9703.63 39.7213
9703.71 41.8294
9703.79 44.0602
9703.88 46.4211
9703.96 48.9202
9704.04 51.5657
9704.12 54.3663
9704.20 57.3311
9704.28 60.4296
9704.36 63.7488
9704.44 67.2611
9704.52 70.9766
9704.60 74.8557
9704.68 79.0052
9704.76 83.3881
9704.85 88.0139
9704.93 92.8298
9705.06 101.199
9705.19 110.264
9705.32 120.037
9705.44 130.433
9705.57 141.586
9705.70 153.361
9705.83 165.664
9705.96 178.258
9706.09 191.154
9706.22 204.021
9706.35 216.580
9706.48 228.424
9706.61 239.406
9706.74 249.029
9706.87 257.141
9707.00 263.376
9707.13 267.662
9707.26 269.868
9707.39 270.014
9707.52 268.232
9707.65 264.678
9707.78 259.595
9707.91 253.251
9708.04 245.978
9708.17 237.925
9708.30 229.386
9708.56 211.725
9708.69 202.853
9708.82 194.199
9708.95 185.714
9709.08 177.587
9709.22 168.964
9709.36 160.834
9709.50 153.149
9709.64 145.909
9709.79 139.105
9709.93 132.724
9710.07 126.747
9710.21 121.152
9710.35 115.917
9710.50 111.021
9710.64 106.439
9710.78 102.151
9710.92 98.1352
9711.06 94.3729
9711.21 90.8451
9711.35 87.5348
9711.49 84.4047
9711.63 81.4836
9711.78 78.7352
9711.92 76.1470
9712.06 73.7072
9712.20 71.4052
9712.34 69.2311
9712.49 67.1758
9712.63 65.2311
9712.77 63.3892
9712.91 61.6432
9713.05 59.9865
9713.20 58.4131
9713.34 56.9175
9713.48 55.4948
9713.62 54.1401
9713.76 52.8404
9713.91 51.6097
9714.05 50.4351
9714.19 49.3131
9714.47 47.2147
9714.76 45.2919
9715.04 43.5250
9715.33 41.8973
9715.61 40.3938
9715.89 39.0020
9716.18 37.7062
9716.46 36.5056
9716.75 35.3870
9717.03 34.3426
9717.32 33.3657
9717.60 32.4504
9717.88 31.5913
9718.17 30.7837
9718.45 30.0207
9718.74 29.3038
9719.02 28.6268
9719.30 27.9867
9719.59 27.3806
9719.87 26.8060
9720.16 26.2607
9720.44 25.7426
9720.73 25.2480
9721.01 24.7787
9721.29 24.3314
9721.58 23.9046
9721.86 23.4969
9722.15 23.1072
9722.71 22.3773
9723.28 21.7058
9723.85 21.0882
9724.42 20.5176
9724.99 19.9888
9725.55 19.4977
9726.12 19.0404
9726.69 18.6136
9727.26 18.2145
9727.83 17.8398
9728.40 17.4886
9728.96 17.1583
9729.53 16.8471
9730.10 16.5529
9730.67 16.2753
9731.24 16.0126
9731.80 15.7635
9732.37 15.5267
9732.94 15.3020
9733.51 15.0883
9734.08 14.8846
9734.65 14.6900
9735.21 14.5046
9735.78 14.3274
9736.35 14.1579
9736.92 13.9953
9737.49 13.8397
9738.62 13.5472
9739.76 13.2770
9740.90 13.0269
9742.03 12.7945
9743.17 12.5783
9744.31 12.3765
9745.44 12.1876
9746.58 12.0104
9747.71 11.8440
9748.85 11.6872
9749.99 11.5394
9751.12 11.3997
9752.26 11.2675
9753.40 11.1421
9754.53 11.0232
9755.67 10.9100
9756.81 10.8024
9757.94 10.6997
9759.08 10.6018
9760.22 10.5081
9761.35 10.4186
9762.49 10.3329
9763.62 10.2507
9764.76 10.1718
9765.90 10.0961
9768.17 9.95321
9770.44 9.82070
9772.72 9.69742
9774.99 9.58241
9777.26 9.47479
9779.54 9.37385
9781.81 9.27897
9784.08 9.18951
9786.35 9.10502
9788.63 9.02506
9790.90 8.94924
9793.17 8.87723
9795.45 8.80871
9797.72 8.74342
9799.99 8.68112
9802.26 8.62156
9804.54 8.56454
9806.81 8.50990
9809.08 8.45747
9811.36 8.40709
9813.63 8.35865
9815.90 8.31200
9818.17 8.26705
9822.72 8.18178
9827.27 8.10211
9831.81 8.02741
9836.36 7.95718
9840.90 7.89091
9845.45 7.82825
9849.99 7.76882
9854.54 7.71235
9859.08 7.65854
9863.63 7.60718
9868.18 7.55806
9872.72 7.51101
9877.27 7.46585
9881.81 7.42244
9886.36 7.38065
9890.90 7.34036
9895.45 7.30147
9900.00 7.26388
9909.09 7.19226
9918.18 7.12490
9927.27 7.06130
9936.36 7.00100
9945.45 6.94368
9954.54 6.88901
9963.64 6.83673
9972.73 6.78660
9981.82 6.73844
9990.91 6.69206
10000.0 6.64732
10009.5 6.60210
10019.0 6.55838
10028.5 6.51603
10038.0 6.47499
10057.1 6.39621
10076.1 6.32147
10095.1 6.25013
10114.1 6.18180
10133.1 6.11601
10152.1 6.05252
10171.1 5.99095
10190.2 5.93113
10209.2 5.87277
10228.2 5.81574
10247.2 5.75978
10266.2 5.70481
10285.2 5.65064
10304.2 5.59713
10323.3 5.54412
10342.3 5.49154
10361.3 5.43922
10380.3 5.38709
10399.3 5.33498
10418.3 5.28284
10437.3 5.23053
10456.3 5.17792
10475.4 5.12488
10494.4 5.07134
10513.4 5.01713
10532.4 4.96215
10551.4 4.90623
10570.4 4.84927
10589.4 4.79108
10608.5 4.73150
10627.5 4.67031
10646.5 4.60737
10665.5 4.54239
10684.5 4.47520
10703.5 4.40544
10722.5 4.33290
10741.6 4.25715
10760.6 4.17787
10779.6 4.09454
10789.1 4.05122
10798.6 4.00674
10808.1 3.96095
10817.6 3.91379
10827.1 3.86519
10836.6 3.81510
10846.1 3.76332
10855.7 3.70978
10865.2 3.65437
10874.7 3.59701
10884.2 3.53744
10893.7 3.47564
10903.2 3.41129
10912.7 3.34435
10922.2 3.27448
10931.7 3.20152
10941.2 3.12522
10950.7 3.04540
10960.2 2.96161
10969.7 2.87358
10979.2 2.78098
10984.0 2.73288
10988.7 2.68349
10993.5 2.63264
10998.3 2.58049
11003.0 2.52676
11007.8 2.47161
11012.5 2.41474
11017.3 2.35632
11022.0 2.29616
11026.8 2.23419
11031.5 2.17020
11036.3 2.10437
11041.0 2.03651
11045.8 1.96652
11050.5 1.89417
11055.3 1.81969
11060.0 1.74285
11064.8 1.66359
11069.6 1.58166
11074.3 1.49737
11079.1 1.41032
11083.8 1.32088
11088.6 1.22869
11093.3 1.13422
11098.1 1.03740
11102.8 0.938454
11107.6 0.837497
11112.3 0.735435
11121.8 0.530171
11124.2 0.479418
11126.6 0.429295
11129.0 0.380057
11131.4 0.332200
11133.7 0.285673
11136.1 0.241278
11138.5 0.199131
11140.9 0.160160
11142.0 0.141931
11143.2 0.124722
11144.4 0.108642
11145.6 0.0938051
11146.8 0.0803382
11148.0 0.0683791
11149.2 0.0580787
11149.8 0.0536372
11150.4 0.0496652
11151.0 0.0461305
11151.6 0.0431748
11152.2 0.0407235
11152.5 0.0397159
11152.7 0.0388844
11153.0 0.0381752
11153.3 0.0376231
11153.6 0.0372319
11153.8 0.0370978
11153.9 0.0370103
11154.1 0.0369572
11154.2 0.0369468
11154.4 0.0369795
11154.5 0.0370559
11154.7 0.0371764
11154.8 0.0373417
11155.0 0.0375521
11155.1 0.0377898
11155.3 0.0380893
11155.4 0.0384355
11155.6 0.0388292
11155.7 0.0392707
11155.9 0.0397608
11156.0 0.0403000
11156.3 0.0414837
11156.6 0.0429082
11156.9 0.0445408
11157.2 0.0463866
11157.5 0.0483782
11157.8 0.0506581
11158.1 0.0531666
11158.7 0.0587884
11159.3 0.0653590
11159.9 0.0729240
11160.5 0.0816862
11161.1 0.0914042
11161.7 0.102462
11162.3 0.114547
11163.4 0.142819
11164.6 0.176734
11165.8 0.216864
11167.0 0.263840
11167.6 0.290340
11168.2 0.318364
11168.8 0.348433
11169.4 0.380652
11170.0 0.415732
11170.6 0.452622
11171.2 0.492697
11171.8 0.534751
11172.4 0.580351
11173.0 0.628121
11173.5 0.678950
11174.1 0.732997
11174.7 0.791436
11175.3 0.852501
11175.9 0.918461
11176.5 0.987320
11177.1 1.06164
11177.7 1.13916
11178.3 1.22135
11178.9 1.30844
11179.5 1.40232
11180.1 1.50017
11180.7 1.60561
11181.3 1.71546
11181.9 1.83381
11182.5 1.95710
11183.1 2.08991
11183.6 2.22825
11184.2 2.37728
11184.8 2.53251
11185.4 2.69976
11186.0 2.87400
11186.6 3.06175
11187.2 3.25741
11187.8 3.46468
11188.4 3.68429
11189.0 3.92110
11189.6 4.16805
11190.2 4.43446
11190.8 4.71241
11191.4 5.01241
11192.0 5.32560
11192.6 5.65804
11193.1 6.01103
11193.7 6.39252
11194.3 6.79134
11194.9 7.22269
11195.5 7.67399
11196.1 8.16252
11196.7 8.67411
11197.3 9.21887
11197.9 9.79925
11198.5 10.4287
11199.1 11.0892
11199.7 11.8062
11200.3 12.5594
11200.9 13.3781
11201.5 14.2390
11202.1 15.1759
11202.7 16.1623
11203.3 17.2370
11203.8 18.3700
11204.4 19.6059
11205.0 20.9105
11205.6 22.3355
11206.2 23.8415
11206.8 25.4601
11207.4 27.2009
11208.0 29.1070
11208.6 31.1264
11209.2 33.3400
11209.8 35.6876
11210.4 38.2636
11211.0 40.9977
11211.6 43.9479
11212.2 47.1319
11212.8 50.6291
11213.3 54.3433
11213.9 58.4218
11214.5 62.7507
11215.1 67.4996
11215.7 72.5322
11216.3 77.9462
11216.9 83.7612
11217.6 91.2043
11218.3 99.1382
11219.0 107.803
11219.7 116.946
11220.4 126.805
11221.1 137.045
11221.8 147.719
11222.5 158.705
11223.2 170.001
11223.8 181.078
11224.5 192.006
11225.2 202.197
11225.9 211.649
11226.6 219.805
11227.3 226.552
11228.0 231.683
11228.7 235.096
11229.4 236.637
11230.1 236.379
11230.8 234.434
11231.5 230.919
11232.2 226.146
11232.9 220.310
11233.6 213.650
11234.9 198.630
11236.3 182.736
11237.0 174.767
11237.7 167.070
11238.4 159.599
11239.1 152.403
11239.9 144.929
11240.6 137.932
11241.3 131.231
11242.1 125.005
11242.8 119.077
11243.6 113.590
11244.3 108.449
11245.1 103.633
11245.8 99.0663
11246.5 94.8500
11247.3 90.9026
11248.0 87.2057
11248.8 83.6964
11249.5 80.4516
11250.3 77.4074
11251.0 74.5491
11251.7 71.8280
11252.5 69.3041
11253.2 66.8971
11254.0 64.6604
11254.7 62.5234
11255.5 60.5339
11256.2 58.6541
11256.9 56.8764
11257.7 55.1716
11258.4 53.5786
11259.2 52.0679
11259.9 50.6341
11260.7 49.2541
11261.4 47.9599
11262.1 46.7285
11262.9 45.5557
11263.6 44.4232
11264.4 43.3576
11265.9 41.3557
11267.4 39.5272
11268.8 37.8628
11270.3 36.3232
11271.8 34.9143
11273.3 33.6044
11274.8 32.4000
11276.3 31.2749
11277.8 30.2292
11279.2 29.2551
11280.7 28.3520
11282.2 27.5016
11283.7 26.7103
11285.2 25.9626
11286.7 25.2646
11288.2 24.6029
11289.6 23.9793
11291.1 23.3905
11292.6 22.8376
11294.1 22.3107
11295.6 21.8146
11297.1 21.3406
11298.6 20.8932
11300.0 20.4649
11301.5 20.0571
11303.0 19.6684
11304.5 19.3001
11306.0 18.9460
11307.5 18.6097
11310.4 17.9778
11313.4 17.3956
11316.4 16.8611
11319.4 16.3672
11322.3 15.9095
11325.3 15.4829
11328.3 15.0871
11331.3 14.7176
11334.2 14.3719
11337.2 14.0468
11340.2 13.7425
11343.1 13.4562
11346.1 13.1863
11349.1 12.9307
11352.1 12.6897
11355.0 12.4615
11358.0 12.2451
11361.0 12.0388
11364.0 11.8433
11366.9 11.6571
11369.9 11.4796
11372.9 11.3096
11375.8 11.1477
11378.8 10.9928
11381.8 10.8445
11384.8 10.7018
11387.7 10.5654
11393.7 10.3084
11399.6 10.0701
11405.6 9.84915
11411.5 9.64298
11417.5 9.45068
11423.4 9.27049
11429.3 9.10123
11435.3 8.94156
11441.2 8.79110
11447.2 8.64853
11453.1 8.51358
11459.1 8.38517
11465.0 8.26314
11471.0 8.14657
11476.9 8.03538
11482.8 7.92879
11488.8 7.82677
11494.7 7.72864
11500.7 7.63442
11506.6 7.54350
11512.6 7.45594
11518.5 7.37135
11524.4 7.28950
11536.3 7.13313
11548.2 6.98557
11560.1 6.84560
11572.0 6.71217
11583.9 6.58435
11595.8 6.46135
11607.7 6.34242
11619.6 6.22703
11631.4 6.11438
11643.3 6.00402
11655.2 5.89546
11667.1 5.78820
11679.0 5.68179
11690.9 5.57579
11702.8 5.46977
11714.7 5.36337
11726.6 5.25599
11738.4 5.14727
11750.3 5.03675
11762.2 4.92393
11774.1 4.80831
11786.0 4.68933
11797.9 4.56640
11809.8 4.43896
11815.7 4.37319
11821.7 4.30609
11827.6 4.23735
11833.6 4.16709
11839.5 4.09495
11845.4 4.02105
11851.4 3.94503
11857.3 3.86699
11863.3 3.78652
11869.2 3.70374
11875.2 3.61821
11881.1 3.53004
11887.1 3.43874
11893.0 3.34441
11898.9 3.24670
11904.9 3.14538
11910.8 3.04002
11916.8 2.93074
11922.7 2.81690
11928.7 2.69861
11934.6 2.57519
11940.6 2.44676
11943.5 2.38029
11946.5 2.31262
11949.5 2.24351
11952.4 2.17294
11955.4 2.10062
11958.4 2.02701
11961.4 1.95186
11964.3 1.87514
11967.3 1.79659
11970.3 1.71672
11973.3 1.63529
11976.2 1.55231
11979.2 1.46755
11982.2 1.38162
11985.1 1.29432
11988.1 1.20577
11991.1 1.11613
11994.1 1.02557
11997.0 0.934361
12000.0 0.842817
12000.0 13.4040
12500.0 13.2092
15000.0 12.3812
17000.0 11.8499
20000.0 11.2012
25000.0 10.3997
30000.0 9.79766
35000.0 9.33233
40000.0 8.95153
50000.0 8.36802
60000.0 7.93304
70000.0 7.60038
72000.0 7.53384
80000.0 7.31475
100000 6.88665
120669 6.56901
125000 6.50245
150000 6.21101
159405 6.12547
170000 6.02910
200000 5.80688
223086 5.68230
250000 5.53707
288997 5.38432
300000 5.34122
319418 5.28601
350000 5.19907
356937 5.18404
379245 5.13570
400000 5.09072
423254 5.05645
471522 4.98533
498900 4.94499
500000 4.94337
514415 4.93043
564609 4.88539
586411 4.86583
600000 4.85364
700000 4.79582
701096 4.79519
701096 4.78055
701097 4.78055
800000 4.54929
845696 4.45682
845697 4.45682
900000 4.34694
1.00000E+06 4.17114
1.20000E+06 3.88604
1.40000E+06 3.67492
1.48453E+06 3.61169
1.48453E+06 3.61168
1.60000E+06 3.52532
1.75254E+06 3.45086
1.80000E+06 3.42770
2.00000E+06 3.37384
2.05746E+06 3.36870
2.07774E+06 3.36689
2.09386E+06 3.36545
2.20000E+06 3.35596
2.40000E+06 3.36650
2.42970E+06 3.37119
2.42971E+06 3.37119
2.43599E+06 3.37218
2.43599E+06 3.37218
2.49845E+06 3.38204
2.49846E+06 3.38204
2.54013E+06 3.38862
2.54013E+06 3.38862
2.55007E+06 3.39020
2.60000E+06 3.39808
2.60807E+06 3.39992
2.60807E+06 3.39992
2.61973E+06 3.40259
2.61973E+06 3.40259
2.79293E+06 3.44219
2.80000E+06 3.44380
2.81098E+06 3.44681
2.91593E+06 3.47549
2.93763E+06 3.48143
2.98123E+06 3.49335
2.98123E+06 3.49335
2.98478E+06 3.49432
2.98478E+06 3.49432
2.99178E+06 3.49624
3.00000E+06 3.49849
3.07655E+06 3.51942
3.07655E+06 3.51942
3.07817E+06 3.51986
3.07817E+06 3.51986
3.12350E+06 3.53226
3.13759E+06 3.53610
3.13760E+06 3.53610
3.17288E+06 3.54576
3.17288E+06 3.54576
3.17491E+06 3.54630
3.17491E+06 3.54630
3.18302E+06 3.54853
3.18302E+06 3.54853
3.20000E+06 3.55317
3.22663E+06 3.56045
3.26212E+06 3.57016
3.26820E+06 3.57181
3.26820E+06 3.57181
3.27327E+06 3.57321
3.27327E+06 3.57321
3.27875E+06 3.57470
3.29558E+06 3.57931
3.37163E+06 3.60009
3.37163E+06 3.60009
3.38350E+06 3.60334
3.39272E+06 3.60586
3.39272E+06 3.60586
3.42588E+06 3.61492
3.42588E+06 3.61492
3.42994E+06 3.61604
3.46279E+06 3.62502
3.46279E+06 3.62502
3.47344E+06 3.62794
3.49423E+06 3.63362
3.50000E+06 3.63519
3.51451E+06 3.63916
3.53783E+06 3.64554
3.53783E+06 3.64554
3.54868E+06 3.64850
3.54868E+06 3.64850
3.59685E+06 3.66168
3.65252E+06 3.67690
3.66012E+06 3.67897
3.66012E+06 3.67897
3.70000E+06 3.68988
4.00000E+06 3.75831
4.50000E+06 3.84736
5.00000E+06 3.90877
5.07664E+06 3.91341
5.07664E+06 3.91341
6.00000E+06 3.96939
7.00000E+06 3.97120
8.00000E+06 3.93284
8.80805E+06 3.87978
9.00000E+06 3.86718
9.87426E+06 3.79344
9.87427E+06 3.79344
1.00000E+07 3.78284
1.09028E+07 3.69394
1.10000E+07 3.68437
1.20000E+07 3.57244
1.30000E+07 3.44566
1.40000E+07 3.30326
1.50000E+07 3.16086
1.52096E+07 3.13101
1.54179E+07 3.10135
1.60000E+07 3.01846
1.70000E+07 2.89090
1.80000E+07 2.78253
1.84227E+07 2.74542
1.90000E+07 2.69472
2.00000E+07 2.62532
