Se-77(n,g) ENDFB-8.0
Energy(eV) XS(b)
1.00000E-05 2115.63
1.03125E-05 2083.33
1.06250E-05 2052.46
1.09375E-05 2022.93
1.12500E-05 1994.64
1.15625E-05 1967.50
1.18750E-05 1941.44
1.21875E-05 1916.38
1.25000E-05 1892.28
1.28125E-05 1869.06
1.31250E-05 1846.67
1.34375E-05 1825.08
1.37500E-05 1804.22
1.43750E-05 1764.56
1.50000E-05 1727.41
1.56250E-05 1692.50
1.62500E-05 1659.64
1.68750E-05 1628.61
1.75000E-05 1599.27
1.81250E-05 1571.45
1.87500E-05 1545.04
1.93750E-05 1519.91
2.00000E-05 1495.98
2.09375E-05 1462.10
2.18750E-05 1430.43
2.28125E-05 1400.73
2.37500E-05 1372.80
2.46875E-05 1346.48
2.56250E-05 1321.62
2.65625E-05 1298.09
2.75000E-05 1275.77
2.84375E-05 1254.57
2.93750E-05 1234.39
3.03125E-05 1215.15
3.12500E-05 1196.78
3.21875E-05 1179.22
3.31250E-05 1162.42
3.40625E-05 1146.31
3.50000E-05 1130.85
3.59375E-05 1116.00
3.68750E-05 1101.73
3.78125E-05 1087.98
3.87500E-05 1074.74
3.96875E-05 1061.97
4.06250E-05 1049.65
4.25000E-05 1026.23
4.43750E-05 1004.32
4.62500E-05 983.747
4.81250E-05 964.392
5.00000E-05 946.137
5.15625E-05 931.691
5.31250E-05 917.887
5.46875E-05 904.680
5.62500E-05 892.026
5.78125E-05 879.889
5.93750E-05 868.234
6.09375E-05 857.031
6.25000E-05 846.250
6.40625E-05 835.866
6.56250E-05 825.855
6.71875E-05 816.196
6.87500E-05 806.867
7.18750E-05 789.132
7.50000E-05 772.516
7.81250E-05 756.908
8.12500E-05 742.210
8.43750E-05 728.335
8.75000E-05 715.211
9.06250E-05 702.771
9.37500E-05 690.959
9.68750E-05 679.723
0.000100000 669.018
0.000103125 658.803
0.000106250 649.043
0.000109375 639.703
0.000112500 630.756
0.000115625 622.174
0.000118750 613.932
0.000121875 606.010
0.000125000 598.387
0.000128125 591.044
0.000131250 583.966
0.000134375 577.135
0.000137500 570.539
0.000143750 557.998
0.000150000 546.249
0.000156250 535.213
0.000162500 524.819
0.000168750 515.008
0.000175000 505.728
0.000181250 496.932
0.000187500 488.579
0.000193750 480.634
0.000200000 473.065
0.000209375 462.352
0.000218750 452.336
0.000228125 442.943
0.000237500 434.113
0.000246875 425.790
0.000256250 417.929
0.000265625 410.487
0.000275000 403.429
0.000284375 396.723
0.000293750 390.341
0.000303125 384.257
0.000312500 378.449
0.000321875 372.897
0.000331250 367.582
0.000340625 362.488
0.000350000 357.600
0.000359375 352.905
0.000368750 348.390
0.000378125 344.044
0.000387500 339.856
0.000396875 335.818
0.000406250 331.920
0.000425000 324.516
0.000443750 317.585
0.000462500 311.081
0.000481250 304.960
0.000500000 299.187
0.000515625 294.619
0.000531250 290.254
0.000546875 286.077
0.000562500 282.076
0.000578125 278.238
0.000593750 274.552
0.000609375 271.009
0.000625000 267.600
0.000640625 264.316
0.000656250 261.150
0.000671875 258.095
0.000687500 255.145
0.000718750 249.537
0.000750000 244.282
0.000781250 239.346
0.000812500 234.698
0.000843750 230.310
0.000875000 226.160
0.000906250 222.226
0.000937500 218.491
0.000968750 214.937
0.00100000 211.552
0.00103125 208.322
0.00106250 205.235
0.00109375 202.281
0.00112500 199.452
0.00115625 196.738
0.00118750 194.131
0.00121875 191.626
0.00125000 189.215
0.00128125 186.893
0.00131250 184.655
0.00134375 182.494
0.00137500 180.408
0.00143750 176.442
0.00150000 172.727
0.00156250 169.236
0.00162500 165.949
0.00168750 162.847
0.00175000 159.912
0.00181250 157.130
0.00187500 154.488
0.00193750 151.975
0.00200000 149.581
0.00209375 146.193
0.00218750 143.026
0.00228125 140.055
0.00237500 137.262
0.00246875 134.630
0.00256250 132.144
0.00265625 129.790
0.00275000 127.558
0.00284375 125.437
0.00293750 123.418
0.00303125 121.494
0.00312500 119.657
0.00321875 117.901
0.00331250 116.220
0.00340625 114.609
0.00350000 113.063
0.00359375 111.578
0.00368750 110.150
0.00378125 108.775
0.00387500 107.450
0.00396875 106.173
0.00406250 104.940
0.00425000 102.598
0.00443750 100.406
0.00462500 98.3489
0.00481250 96.4129
0.00500000 94.5869
0.00515625 93.1419
0.00531250 91.7612
0.00546875 90.4400
0.00562500 89.1742
0.00578125 87.9602
0.00593750 86.7943
0.00609375 85.6736
0.00625000 84.5952
0.00640625 83.5564
0.00656250 82.5550
0.00671875 81.5887
0.00687500 80.6555
0.00718750 78.8812
0.00750000 77.2190
0.00781250 75.6575
0.00812500 74.1869
0.00843750 72.7988
0.00875000 71.4856
0.00906250 70.2410
0.00937500 69.0592
0.00968750 67.9349
0.0100000 66.8638
0.0103125 65.8417
0.0106250 64.8651
0.0109375 63.9306
0.0112500 63.0353
0.0115625 62.1766
0.0118750 61.3520
0.0121875 60.5592
0.0125000 59.7965
0.0128125 59.0617
0.0131250 58.3534
0.0134375 57.6699
0.0137500 57.0098
0.0143750 55.7548
0.0150000 54.5790
0.0156250 53.4744
0.0162500 52.4341
0.0168750 51.4521
0.0175000 50.5231
0.0181250 49.6425
0.0187500 48.8063
0.0193750 48.0109
0.0200000 47.2530
0.0206625 46.4874
0.0213250 45.7578
0.0219875 45.0614
0.0226500 44.3957
0.0233125 43.7586
0.0239750 43.1482
0.0246375 42.5625
0.0253000 41.9999
0.0264578 41.0680
0.0276156 40.1953
0.0287734 39.3758
0.0299313 38.6044
0.0310891 37.8764
0.0322469 37.1880
0.0334047 36.5356
0.0345625 35.9162
0.0355274 35.4233
0.0364922 34.9500
0.0374570 34.4951
0.0384219 34.0574
0.0393867 33.6358
0.0403516 33.2293
0.0413164 32.8372
0.0422813 32.4585
0.0442109 31.7386
0.0461406 31.0642
0.0480703 30.4309
0.0500000 29.8345
0.0515625 29.3763
0.0531250 28.9384
0.0546875 28.5194
0.0562500 28.1180
0.0578125 27.7329
0.0593750 27.3632
0.0609375 27.0077
0.0625000 26.6657
0.0640625 26.3363
0.0656250 26.0187
0.0671875 25.7122
0.0687500 25.4163
0.0718750 24.8535
0.0750000 24.3260
0.0781250 23.8303
0.0812500 23.3634
0.0843750 22.9225
0.0875000 22.5053
0.0906250 22.1099
0.0937500 21.7343
0.0968750 21.3770
0.100000 21.0365
0.103125 20.7116
0.106250 20.4011
0.109375 20.1039
0.112500 19.8191
0.115625 19.5460
0.118750 19.2837
0.121875 19.0315
0.125000 18.7888
0.128125 18.5550
0.131250 18.3297
0.134375 18.1123
0.137500 17.9023
0.143750 17.5029
0.150000 17.1284
0.156250 16.7764
0.162500 16.4447
0.168750 16.1315
0.175000 15.8352
0.181250 15.5542
0.187500 15.2874
0.193750 15.0336
0.200000 14.7918
0.209375 14.4494
0.218750 14.1289
0.228125 13.8282
0.237500 13.5452
0.246875 13.2785
0.256250 13.0263
0.265625 12.7876
0.275000 12.5610
0.284375 12.3456
0.293750 12.1406
0.303125 11.9450
0.312500 11.7582
0.321875 11.5796
0.331250 11.4085
0.340625 11.2445
0.350000 11.0870
0.359375 10.9356
0.368750 10.7900
0.378125 10.6499
0.387500 10.5148
0.396875 10.3845
0.406250 10.2588
0.425000 10.0197
0.443750 9.79549
0.462500 9.58476
0.500000 9.19957
0.531250 8.90979
0.562500 8.64353
0.593750 8.39818
0.625000 8.17117
0.687500 7.76366
0.750000 7.40725
0.812500 7.09196
0.875000 6.81111
0.937500 6.55810
1.00000 6.32784
1.06250 6.11769
1.12500 5.92485
1.18750 5.74702
1.25000 5.58231
1.37500 5.28627
1.50000 5.02690
1.62500 4.79709
1.75000 4.59201
1.87500 4.40703
2.00000 4.23837
2.09375 4.12151
2.25781 3.93449
2.42188 3.76608
2.58594 3.61333
2.75000 3.47426
2.93750 3.32919
3.12500 3.19657
3.31250 3.07494
3.50000 2.96285
3.68750 2.85912
3.87500 2.76274
4.06250 2.67288
4.25000 2.58884
4.62500 2.43590
5.00000 2.30016
5.31250 2.19797
5.62500 2.10411
5.93750 2.01765
6.25000 1.93768
6.56250 1.86345
6.87500 1.79434
7.18750 1.72979
7.50000 1.66935
7.81250 1.61262
8.12500 1.55926
8.75000 1.46158
9.37500 1.37416
10.0000 1.29532
10.6250 1.22394
11.2500 1.15899
11.8750 1.09966
12.5000 1.04524
13.1250 0.995151
13.7500 0.948913
14.3750 0.906107
15.0000 0.866374
15.6250 0.829407
16.2500 0.794938
16.8750 0.762733
17.5000 0.732587
18.1250 0.704318
18.7500 0.677767
19.3750 0.652790
20.0000 0.629284
20.9375 0.596479
21.8750 0.566315
22.8125 0.538528
23.7500 0.512869
24.6875 0.489122
25.6250 0.467098
26.5625 0.446634
27.5000 0.427583
28.4375 0.409818
29.3750 0.393226
30.3125 0.377706
31.2500 0.363168
32.1875 0.349531
33.1250 0.336724
34.0625 0.324682
35.0000 0.313366
36.8750 0.292623
38.7500 0.274110
40.6250 0.257546
42.5000 0.242677
44.3750 0.229292
46.2500 0.217212
48.1250 0.206284
50.0000 0.196376
51.5625 0.188819
53.1250 0.181843
54.6875 0.175395
56.2500 0.169430
57.8125 0.163911
59.3750 0.158802
60.9375 0.154073
62.5000 0.149697
64.0625 0.145651
65.6250 0.141920
68.7500 0.135301
71.8750 0.129714
75.0000 0.125082
78.1250 0.121356
81.2500 0.118521
82.8125 0.117450
84.3750 0.116633
85.9375 0.116085
87.5000 0.115834
89.0625 0.115923
90.6250 0.116411
92.1875 0.117385
93.7500 0.118973
95.3125 0.121346
96.0938 0.122910
96.8750 0.124813
97.6563 0.127104
98.4375 0.129870
99.2188 0.133223
100.000 0.137308
100.728 0.141922
101.092 0.144590
101.456 0.147572
101.911 0.151780
102.366 0.156612
102.821 0.162195
103.276 0.168683
103.732 0.176284
103.959 0.180580
104.187 0.185259
104.414 0.190366
104.642 0.195952
104.869 0.202069
105.097 0.208782
105.347 0.216979
105.597 0.226180
105.847 0.236540
106.098 0.248244
106.348 0.261543
106.598 0.276736
106.723 0.285161
106.849 0.294201
106.974 0.303925
107.099 0.314405
107.281 0.331177
107.463 0.349993
107.645 0.371205
107.736 0.382840
107.827 0.395245
107.952 0.413705
108.077 0.433960
108.202 0.456292
108.327 0.480951
108.453 0.508315
108.578 0.538740
108.703 0.572730
108.828 0.610865
108.919 0.641607
109.021 0.679669
109.124 0.721924
109.226 0.769013
109.328 0.821649
109.380 0.850373
109.431 0.880861
109.482 0.913258
109.533 0.947731
109.584 0.984462
109.636 1.02366
109.687 1.06554
109.738 1.11028
109.806 1.17516
109.874 1.24646
109.943 1.32532
110.011 1.41257
110.074 1.50125
110.136 1.59934
110.199 1.70825
110.261 1.82942
110.293 1.89538
110.324 1.96523
110.355 2.03928
110.386 2.11789
110.418 2.20142
110.449 2.29030
110.480 2.38500
110.512 2.48569
110.540 2.58366
110.568 2.68744
110.597 2.79830
110.625 2.91604
110.654 3.04212
110.682 3.17637
110.711 3.31997
110.739 3.47378
110.768 3.63933
110.796 3.81650
110.824 4.00766
110.853 4.21272
110.881 4.43449
110.910 4.67287
110.938 4.93022
110.967 5.20824
110.998 5.54081
111.029 5.90335
111.060 6.29862
111.092 6.72952
111.123 7.19901
111.154 7.71006
111.186 8.26559
111.217 8.86638
111.248 9.51876
111.279 10.2230
111.311 10.9806
111.342 11.7897
111.373 12.6555
111.405 13.5743
111.436 14.5439
111.467 15.5570
111.524 17.5064
111.581 19.5466
111.653 22.1538
111.689 23.4248
111.725 24.6387
111.761 25.7779
111.797 26.8118
111.833 27.7225
111.868 28.4834
111.901 29.0354
111.934 29.4363
111.967 29.6775
112.000 29.7535
112.036 29.6475
112.071 29.3480
112.107 28.8628
112.143 28.2063
112.178 27.3912
112.214 26.4416
112.250 25.3740
112.285 24.2178
112.347 22.0739
112.408 19.8451
112.461 17.9540
112.513 16.1326
112.566 14.4136
112.592 13.6041
112.618 12.8299
112.644 12.0897
112.671 11.3901
112.697 10.7284
112.723 10.1045
112.749 9.51560
112.776 8.96527
112.802 8.45000
112.828 7.96839
112.853 7.53713
112.878 7.13544
112.903 6.75861
112.928 6.40810
112.953 6.07962
112.978 5.77428
113.003 5.48928
113.028 5.22324
113.053 4.97387
113.078 4.74189
113.103 4.52508
113.128 4.32232
113.153 4.13183
113.178 3.95415
113.203 3.78760
113.228 3.63134
113.255 3.47722
113.281 3.33334
113.307 3.19835
113.333 3.07156
113.360 2.95191
113.386 2.83974
113.412 2.73404
113.438 2.63434
113.465 2.53986
113.491 2.45091
113.543 2.28706
113.596 2.13984
113.648 2.00708
113.705 1.87632
113.762 1.75884
113.810 1.66963
113.858 1.58748
113.906 1.51165
113.953 1.44167
114.001 1.37666
114.049 1.31630
114.096 1.26014
114.144 1.20781
114.192 1.15896
114.239 1.11328
114.287 1.07051
114.335 1.03049
114.382 0.992821
114.430 0.957406
114.478 0.924065
114.525 0.892705
114.621 0.835032
114.716 0.783511
114.821 0.732850
114.926 0.687648
115.031 0.647148
115.136 0.610718
115.241 0.577834
115.345 0.548052
115.450 0.520995
115.555 0.496365
115.631 0.479784
115.708 0.464233
115.860 0.435892
116.013 0.410757
116.166 0.388360
116.318 0.368333
116.423 0.355758
116.528 0.344059
116.633 0.333159
116.738 0.322986
116.947 0.304577
117.157 0.288407
117.367 0.274128
117.577 0.261462
117.787 0.250182
117.996 0.240108
118.149 0.233439
118.454 0.221518
118.759 0.211194
119.064 0.202204
119.370 0.194348
119.675 0.187445
119.980 0.181356
120.285 0.175960
120.590 0.171163
121.048 0.164918
121.506 0.159653
122.001 0.154818
122.497 0.150693
122.993 0.147185
123.489 0.144196
123.985 0.141643
124.481 0.139460
125.473 0.136004
126.464 0.133503
127.456 0.131798
128.448 0.130591
129.439 0.129866
130.660 0.129511
132.338 0.129814
134.017 0.130849
135.695 0.132531
137.373 0.134827
139.052 0.137714
140.730 0.141291
142.408 0.145720
143.247 0.148369
144.087 0.151363
144.697 0.153883
145.307 0.156811
145.917 0.160278
146.528 0.164493
146.852 0.167175
147.176 0.170305
147.500 0.174016
147.825 0.178506
148.149 0.184071
148.311 0.187394
148.473 0.191189
148.635 0.195571
148.797 0.200690
148.959 0.206742
149.122 0.213991
149.246 0.220573
149.370 0.228304
149.494 0.237498
149.556 0.242773
149.617 0.248578
149.679 0.255015
149.741 0.262174
149.803 0.270177
149.865 0.279174
149.927 0.289352
149.989 0.300946
150.051 0.314259
150.113 0.329656
150.171 0.346227
150.199 0.355496
150.228 0.365532
150.256 0.376428
150.285 0.388286
150.314 0.401227
150.342 0.415386
150.371 0.430917
150.399 0.447997
150.428 0.466823
150.457 0.487622
150.485 0.510644
150.514 0.536171
150.542 0.564515
150.571 0.596023
150.590 0.619011
150.609 0.643697
150.628 0.670206
150.647 0.698518
150.666 0.729065
150.686 0.761845
150.705 0.797004
150.724 0.834486
150.743 0.874833
150.762 0.918004
150.781 0.964148
150.800 1.01314
150.819 1.06564
150.838 1.12123
150.857 1.18061
150.876 1.24327
150.902 1.33609
150.929 1.43574
150.955 1.54268
150.981 1.65691
151.007 1.77883
151.034 1.90731
151.060 2.04243
151.086 2.18373
151.129 2.42667
151.172 2.68067
151.258 3.20164
151.310 3.51146
151.336 3.65845
151.362 3.79808
151.398 3.97344
151.434 4.12747
151.469 4.25722
151.505 4.35871
151.529 4.40967
151.553 4.44627
151.576 4.46836
151.600 4.47552
151.619 4.47033
151.639 4.45531
151.658 4.43056
151.677 4.39630
151.697 4.35278
151.716 4.30036
151.754 4.17047
151.787 4.03631
151.820 3.88378
151.853 3.71505
151.885 3.53442
151.951 3.14793
152.017 2.75045
152.055 2.51940
152.094 2.29670
152.133 2.08422
152.172 1.88535
152.204 1.72819
152.237 1.58211
152.270 1.44737
152.286 1.38426
152.303 1.32397
152.319 1.26646
152.336 1.21169
152.352 1.15959
152.368 1.11011
152.385 1.06317
152.401 1.01869
152.418 0.976593
152.434 0.936786
152.456 0.885954
152.479 0.838993
152.501 0.795663
152.524 0.755899
152.546 0.719109
152.568 0.685396
152.591 0.654238
152.613 0.625704
152.635 0.599337
152.658 0.575186
152.680 0.552856
152.702 0.532383
152.725 0.513430
152.747 0.496025
152.769 0.479882
152.792 0.465024
152.831 0.441745
152.869 0.421356
152.908 0.403328
152.947 0.387397
152.986 0.373181
153.024 0.360504
153.063 0.349091
153.102 0.338825
153.141 0.329507
153.179 0.321062
153.218 0.313342
153.257 0.306299
153.334 0.293877
153.412 0.283314
153.501 0.272964
153.591 0.264213
153.680 0.256743
153.769 0.250319
153.859 0.244755
153.948 0.239921
154.038 0.235695
154.127 0.231985
154.306 0.225823
154.485 0.220984
154.664 0.217150
154.843 0.214104
155.033 0.211540
155.224 0.209541
155.510 0.207350
155.797 0.205889
156.083 0.204983
156.369 0.204515
156.846 0.204482
157.323 0.205166
158.277 0.207844
159.231 0.211779
160.184 0.216622
161.138 0.222260
162.092 0.228525
163.046 0.235399
164.000 0.242833
165.717 0.257986
166.576 0.266530
167.434 0.275853
168.293 0.286087
169.151 0.297459
170.010 0.310346
170.868 0.325318
171.250 0.332930
171.631 0.341424
172.013 0.351039
172.395 0.362147
172.776 0.375342
172.967 0.383030
173.158 0.391690
173.348 0.401586
173.539 0.413055
173.730 0.426578
173.921 0.442853
174.046 0.455531
174.171 0.470272
174.296 0.487657
174.422 0.508494
174.484 0.520554
174.547 0.533955
174.609 0.548937
174.672 0.565802
174.735 0.584931
174.797 0.606817
174.860 0.632099
174.922 0.661612
174.955 0.679124
174.988 0.698290
175.021 0.719337
175.054 0.742525
175.086 0.768156
175.119 0.796577
175.152 0.828185
175.185 0.863319
175.217 0.902709
175.250 0.946831
175.283 0.996336
175.316 1.05194
175.349 1.11444
175.381 1.18469
175.414 1.26360
175.447 1.35187
175.480 1.45102
175.496 1.50491
175.513 1.56183
175.529 1.62193
175.545 1.68531
175.562 1.75210
175.578 1.82242
175.611 1.97404
175.644 2.14093
175.677 2.32368
175.709 2.52267
175.738 2.70815
175.766 2.90502
175.794 3.11358
175.823 3.33325
175.851 3.56407
175.879 3.80334
175.936 4.30404
176.067 5.50130
176.100 5.78794
176.133 6.06086
176.165 6.31558
176.198 6.54707
176.237 6.78591
176.275 6.98170
176.314 7.12928
176.353 7.22469
176.376 7.25632
176.400 7.26679
176.439 7.23870
176.477 7.15555
176.516 7.01967
176.554 6.83479
176.586 6.64914
176.618 6.43688
176.650 6.20164
176.682 5.94813
176.744 5.40468
176.807 4.83315
176.893 4.05977
176.936 3.69130
176.979 3.34347
177.010 3.10237
177.042 2.87582
177.073 2.66308
177.105 2.46584
177.136 2.28292
177.167 2.11530
177.199 1.96195
177.230 1.82233
177.256 1.71739
177.282 1.62117
177.307 1.53278
177.333 1.45176
177.359 1.37733
177.385 1.30959
177.410 1.24775
177.436 1.19136
177.462 1.13978
177.488 1.09297
177.513 1.05033
177.539 1.01148
177.565 0.976072
177.590 0.943773
177.616 0.914289
177.642 0.887346
177.666 0.863984
177.690 0.842481
177.739 0.804371
177.788 0.771814
177.836 0.743830
177.885 0.719626
177.933 0.698561
177.982 0.680121
178.030 0.663921
178.079 0.649557
178.128 0.636791
178.225 0.615217
178.322 0.597790
178.419 0.583597
178.511 0.572550
178.602 0.563335
178.693 0.555608
178.785 0.549135
178.968 0.539159
179.151 0.532245
179.334 0.527625
179.516 0.524763
179.699 0.523269
179.882 0.522856
180.271 0.524698
180.659 0.529305
181.048 0.535950
181.437 0.544192
182.214 0.564398
182.991 0.588351
183.769 0.615722
184.546 0.646390
185.323 0.680428
186.100 0.718046
186.969 0.764742
187.838 0.816911
188.707 0.875313
189.141 0.907138
189.575 0.940883
190.010 0.976715
190.444 1.01478
190.879 1.05529
191.313 1.09839
191.747 1.14425
192.182 1.19304
192.616 1.24540
193.050 1.30155
193.553 1.37172
194.056 1.44797
194.559 1.53104
195.062 1.62175
195.565 1.72109
196.068 1.83014
196.571 1.95028
197.074 2.08300
197.440 2.18848
197.805 2.30241
198.171 2.42570
198.537 2.55937
198.903 2.70471
199.269 2.86307
199.634 3.03602
200.000 3.22534
200.375 3.43897
200.750 3.67494
201.125 3.93651
201.501 4.22747
201.688 4.38537
201.876 4.55231
202.063 4.72897
202.251 4.91601
202.438 5.11458
202.626 5.32555
202.814 5.55028
203.001 5.78971
203.230 6.10453
203.460 6.44589
203.689 6.81716
203.918 7.22154
204.147 7.66350
204.377 8.14739
204.606 8.67890
204.835 9.26450
205.064 9.91204
205.179 10.2615
205.293 10.6299
205.408 11.0189
205.523 11.4294
205.637 11.8632
205.752 12.3224
205.867 12.8092
205.981 13.3249
206.096 13.8725
206.210 14.4546
206.325 15.0740
206.440 15.7339
206.554 16.4379
206.669 17.1901
206.804 18.1476
206.940 19.1869
207.075 20.3179
207.211 21.5506
207.346 22.8997
207.482 24.3779
207.617 26.0044
207.753 27.7965
207.867 29.4623
207.982 31.2789
208.096 33.2664
208.211 35.4466
208.326 37.8445
208.440 40.4892
208.555 43.4146
208.612 44.9947
208.669 46.6604
208.727 48.4208
208.784 50.2764
208.841 52.2372
208.899 54.3109
208.956 56.5099
209.013 58.8356
209.071 61.3015
209.128 63.9184
209.185 66.7029
209.243 69.6579
209.300 72.8018
209.357 76.1495
209.415 79.7171
209.472 83.5219
209.529 87.5828
209.587 91.9200
209.660 97.8799
209.732 104.362
209.805 111.426
209.878 119.126
209.951 127.531
210.024 136.675
210.097 146.627
210.170 157.439
210.227 166.589
210.285 176.301
210.342 186.605
210.399 197.504
210.457 208.995
210.514 221.060
210.571 233.672
210.628 246.786
210.721 268.827
210.813 291.644
210.998 337.495
211.090 359.168
211.183 378.950
211.229 387.873
211.275 396.015
211.321 403.280
211.368 409.568
211.426 416.013
211.484 420.664
211.542 423.439
211.600 424.279
211.648 423.504
211.696 421.424
211.743 418.058
211.791 413.469
211.839 407.701
211.887 400.856
211.934 393.013
211.982 384.274
212.077 364.518
212.173 342.510
212.268 319.152
212.364 295.302
212.462 270.987
212.560 247.492
212.658 225.261
212.756 204.600
212.805 194.882
212.854 185.617
212.903 176.770
212.952 168.373
213.001 160.387
213.050 152.832
213.099 145.680
213.148 138.916
213.201 132.107
213.253 125.701
213.305 119.678
213.358 114.015
213.410 108.693
213.462 103.690
213.515 98.9861
213.567 94.5713
213.619 90.4101
213.671 86.4938
213.724 82.8062
213.776 79.3385
213.828 76.0630
213.880 72.9733
213.933 70.0568
213.985 67.3072
214.037 64.7030
214.090 62.2396
214.142 59.9079
214.194 57.7032
214.299 53.6226
214.403 49.9486
214.508 46.6251
214.612 43.6161
214.717 40.8794
214.821 38.3888
214.935 35.9153
215.049 33.6708
215.164 31.6250
215.278 29.7589
215.392 28.0495
215.506 26.4826
215.620 25.0407
215.734 23.7129
215.838 22.5843
215.943 21.5342
216.047 20.5537
216.152 19.6387
216.257 18.7819
216.361 17.9801
216.466 17.2273
216.570 16.5209
216.675 15.8561
216.779 15.2308
216.884 14.6410
216.988 14.0850
217.093 13.5593
217.197 13.0628
217.407 12.1472
217.616 11.3236
217.825 10.5809
218.034 9.90846
218.243 9.29779
218.452 8.74132
218.661 8.23333
218.870 7.76816
219.080 7.34117
219.241 7.03479
219.403 6.74721
219.564 6.47696
219.726 6.22283
219.887 5.98324
220.049 5.75717
220.211 5.54354
220.372 5.34155
220.695 4.96875
221.018 4.63349
221.342 4.33083
221.665 4.05689
221.874 3.89312
222.083 3.73911
222.292 3.59404
222.501 3.45724
222.710 3.32809
222.919 3.20603
223.338 2.98119
223.756 2.77914
224.174 2.59697
224.592 2.43214
225.011 2.28252
225.429 2.14627
225.847 2.02191
226.265 1.90807
226.683 1.80359
227.102 1.70750
227.520 1.61891
227.938 1.53714
228.356 1.46162
228.775 1.39156
229.193 1.32631
229.611 1.26550
230.029 1.20880
230.447 1.15587
230.866 1.10636
231.284 1.06001
231.702 1.01654
232.120 0.975715
232.538 0.937345
232.957 0.901227
233.375 0.867191
233.793 0.835080
234.211 0.804754
235.048 0.748952
235.884 0.698877
236.721 0.653791
237.557 0.613053
238.393 0.576128
239.230 0.542558
240.066 0.511960
240.903 0.483998
241.739 0.458381
242.423 0.438990
243.108 0.420882
243.792 0.403972
244.477 0.388255
245.161 0.373411
245.845 0.359465
246.530 0.346329
247.214 0.334020
247.898 0.322386
248.583 0.311468
249.951 0.291415
251.320 0.273534
252.689 0.257554
253.525 0.248633
254.362 0.240281
255.198 0.232456
256.034 0.225146
257.707 0.211887
259.380 0.200295
261.053 0.190174
262.726 0.181414
264.399 0.173914
266.072 0.167614
267.592 0.162930
269.113 0.159263
270.634 0.156678
271.394 0.155840
272.155 0.155321
273.143 0.155204
274.132 0.155788
275.120 0.157129
276.109 0.159538
276.603 0.161197
277.097 0.163208
277.592 0.165619
278.086 0.168488
278.580 0.171884
279.074 0.175893
279.569 0.180611
280.063 0.186148
280.481 0.191614
280.899 0.197942
281.317 0.205281
281.736 0.213813
282.154 0.223778
282.363 0.229388
282.572 0.235476
282.781 0.242094
282.990 0.249300
283.199 0.257162
283.409 0.265753
283.656 0.276971
283.903 0.289500
284.150 0.303559
284.397 0.319411
284.644 0.337380
284.891 0.357832
285.015 0.369139
285.138 0.381242
285.262 0.394240
285.386 0.408199
285.576 0.431813
285.766 0.458386
285.956 0.488428
286.051 0.504952
286.146 0.522571
286.241 0.541428
286.336 0.561596
286.431 0.583250
286.526 0.606489
286.621 0.631530
286.716 0.658507
286.811 0.687694
286.906 0.719275
287.011 0.757188
287.116 0.798816
287.220 0.844672
287.325 0.895309
287.429 0.951542
287.534 1.01412
287.638 1.08421
287.691 1.12244
287.743 1.16295
287.795 1.20609
287.847 1.25204
287.900 1.30103
287.952 1.35327
288.004 1.40927
288.057 1.46931
288.109 1.53381
288.161 1.60311
288.213 1.67803
288.266 1.75910
288.318 1.84704
288.370 1.94256
288.422 2.04704
288.475 2.16130
288.527 2.28725
288.579 2.42614
288.631 2.58064
288.684 2.75305
288.710 2.84712
288.736 2.94653
288.762 3.05254
288.788 3.16489
288.815 3.28506
288.841 3.41281
288.867 3.54986
288.893 3.69600
288.919 3.85324
288.945 4.02138
288.971 4.20210
288.997 4.39658
289.024 4.60699
289.050 4.83313
289.076 5.07833
289.102 5.34240
289.128 5.62923
289.154 5.93861
289.180 6.27374
289.207 6.63689
289.233 7.03208
289.259 7.45891
289.285 7.92341
289.311 8.42495
289.337 8.97042
289.363 9.55881
289.390 10.1954
289.416 10.8835
289.435 11.4216
289.454 11.9875
289.473 12.5851
289.492 13.2158
289.511 13.8808
289.530 14.5815
289.549 15.3190
289.568 16.0947
289.587 16.9095
289.606 17.7647
289.625 18.6610
289.644 19.5996
289.663 20.5811
289.682 21.6061
289.720 23.7890
289.746 25.3979
289.772 27.0852
289.798 28.8629
289.824 30.7160
289.851 32.6564
289.877 34.6658
289.929 38.8964
289.981 43.3786
290.033 48.0435
290.086 52.8141
290.138 57.5990
290.195 62.7089
290.252 67.5680
290.304 71.6773
290.357 75.3281
290.405 78.2122
290.453 80.5402
290.478 81.4924
290.502 82.2795
290.527 82.8961
290.551 83.3377
290.576 83.6012
290.600 83.6848
290.628 83.5625
290.655 83.2123
290.683 82.6373
290.710 81.8461
290.744 80.5941
290.778 79.0441
290.811 77.2165
290.845 75.1412
290.878 72.8462
290.911 70.3534
290.945 67.6919
290.978 64.8918
291.045 58.9966
291.112 52.9135
291.160 48.4823
291.209 44.1357
291.258 39.9369
291.306 35.9452
291.339 33.3325
291.373 30.8424
291.406 28.4819
291.440 26.2624
291.473 24.1730
291.506 22.2211
291.540 20.4058
291.573 18.7291
291.606 17.1771
291.640 15.7501
291.673 14.4423
291.707 13.2473
291.723 12.6900
291.740 12.1583
291.757 11.6514
291.773 11.1684
291.790 10.7083
291.807 10.2703
291.824 9.85354
291.840 9.45706
291.872 8.75308
291.904 8.11424
291.936 7.53494
291.968 7.01141
292.000 6.53537
292.031 6.10515
292.063 5.71371
292.095 5.35956
292.127 5.03679
292.159 4.74412
292.191 4.47669
292.223 4.23347
292.254 4.01047
292.286 3.80689
292.318 3.61950
292.350 3.44773
292.383 3.28176
292.417 3.12905
292.450 2.98819
292.484 2.85794
292.517 2.73723
292.550 2.62508
292.584 2.52066
292.617 2.42322
292.651 2.33212
292.684 2.24676
292.717 2.16664
292.751 2.09130
292.818 1.95339
292.884 1.83046
292.936 1.74410
292.987 1.66442
293.039 1.59070
293.091 1.52234
293.142 1.45879
293.194 1.39959
293.245 1.34433
293.297 1.29276
293.349 1.24435
293.400 1.19893
293.452 1.15624
293.503 1.11607
293.607 1.04249
293.710 0.976867
293.776 0.938028
293.843 0.901771
293.910 0.867866
293.977 0.836156
294.044 0.806366
294.110 0.778382
294.177 0.752060
294.244 0.727304
294.377 0.681848
294.511 0.641268
294.645 0.604834
294.778 0.572043
294.881 0.548873
294.984 0.527399
295.088 0.507457
295.191 0.488905
295.294 0.471614
295.397 0.455472
295.500 0.440377
295.604 0.426253
295.810 0.400537
296.016 0.377807
296.223 0.357601
296.429 0.339580
296.563 0.328927
296.696 0.318999
296.963 0.301042
297.230 0.285287
297.497 0.271400
297.764 0.259096
298.031 0.248161
298.298 0.238403
298.565 0.229671
298.833 0.221822
299.100 0.214741
299.367 0.208337
299.634 0.202536
299.901 0.197270
300.168 0.192485
300.435 0.188132
300.702 0.184168
301.236 0.177252
301.770 0.171492
302.305 0.166692
302.839 0.162715
303.373 0.159449
303.907 0.156766
304.441 0.154584
304.975 0.152860
305.509 0.151551
306.044 0.150617
306.578 0.150026
307.112 0.149754
308.180 0.150087
309.248 0.151508
310.317 0.153960
311.385 0.157431
312.453 0.161949
313.522 0.167572
314.590 0.174398
315.658 0.182562
316.581 0.190828
317.503 0.200374
318.426 0.211387
318.887 0.217513
319.349 0.224097
319.810 0.231178
320.271 0.238795
320.733 0.246996
321.194 0.255828
321.655 0.265328
322.116 0.275569
322.578 0.286671
323.039 0.298725
323.573 0.313979
324.107 0.330783
324.642 0.349349
325.176 0.369911
325.710 0.392764
326.244 0.418240
326.778 0.446749
327.045 0.462293
327.312 0.478780
327.774 0.509740
328.235 0.544221
328.696 0.582779
328.927 0.603793
329.157 0.626075
329.388 0.649746
329.619 0.674897
329.849 0.701669
330.080 0.730175
330.311 0.760595
330.541 0.793091
330.772 0.827904
331.003 0.865236
331.270 0.911975
331.537 0.962881
331.804 1.01845
332.071 1.07924
332.338 1.14598
332.605 1.21943
332.872 1.30054
333.139 1.39037
333.406 1.49030
333.540 1.54454
333.673 1.60187
333.807 1.66262
333.941 1.72696
334.074 1.79525
334.208 1.86780
334.341 1.94506
334.475 2.02729
334.608 2.11507
334.742 2.20877
334.875 2.30909
335.009 2.41650
335.142 2.53178
335.276 2.65573
335.422 2.80196
335.567 2.96096
335.713 3.13428
335.859 3.32359
336.004 3.53124
336.150 3.75953
336.296 4.01134
336.441 4.28982
336.575 4.57238
336.708 4.88434
336.842 5.23052
336.975 5.61560
337.042 5.82489
337.109 6.04643
337.176 6.28122
337.243 6.52995
337.309 6.79461
337.376 7.07574
337.443 7.37570
337.510 7.69527
337.619 8.26729
337.674 8.57866
337.728 8.90799
337.783 9.25802
337.837 9.62923
337.892 10.0242
337.947 10.4449
338.001 10.8949
338.056 11.3750
338.111 11.8892
338.165 12.4411
338.220 13.0355
338.274 13.6751
338.329 14.3660
338.384 15.1143
338.457 16.2151
338.493 16.8138
338.529 17.4490
338.566 18.1238
338.602 18.8420
338.639 19.6074
338.675 20.4247
338.707 21.1874
338.739 21.9976
338.771 22.8593
338.802 23.7743
338.834 24.7532
338.866 25.7990
338.898 26.9178
338.930 28.1125
338.962 29.3982
338.994 30.7795
339.026 32.2655
339.057 33.8608
339.089 35.5864
339.121 37.4432
339.153 39.4557
339.169 40.5191
339.185 41.6250
339.202 42.8345
339.218 44.0953
339.235 45.4098
339.252 46.7803
339.268 48.2095
339.285 49.6999
339.302 51.2543
339.318 52.8654
339.335 54.5556
339.352 56.3182
339.368 58.1563
339.385 60.0730
339.402 62.0712
339.419 64.1543
339.435 66.3254
339.452 68.5740
339.469 70.9305
339.485 73.3849
339.502 75.9406
339.519 78.6010
339.535 81.3693
339.552 84.2489
339.569 87.2431
339.585 90.3551
339.602 93.5882
339.619 96.9454
339.636 100.430
339.652 104.044
339.669 107.791
339.686 111.674
339.702 115.694
339.719 119.830
339.752 128.577
339.786 137.906
339.819 147.826
339.853 158.339
339.886 169.444
339.919 181.130
339.953 193.383
339.986 206.138
340.026 221.920
340.065 238.301
340.104 255.275
340.144 272.651
340.211 302.772
340.277 333.056
340.344 362.772
340.411 390.929
340.447 405.205
340.483 418.579
340.519 430.980
340.555 442.203
340.608 456.262
340.660 467.276
340.713 474.967
340.765 479.136
340.800 479.901
340.835 479.042
340.864 477.149
340.892 474.213
340.920 470.235
340.949 465.274
340.977 459.332
341.006 452.496
341.063 436.288
341.101 423.644
341.139 409.839
341.177 394.970
341.216 379.290
341.290 346.938
341.365 313.315
341.436 281.136
341.507 249.780
341.578 219.975
341.613 205.849
341.649 192.298
341.686 178.720
341.723 165.884
341.761 153.772
341.798 142.394
341.835 131.721
341.872 121.801
341.909 112.588
341.947 104.060
341.987 95.4800
342.028 87.6640
342.048 84.0203
342.069 80.5452
342.089 77.2327
342.109 74.0768
342.130 71.0573
342.150 68.1976
342.170 65.4767
342.190 62.8886
342.211 60.4277
342.231 58.0880
342.272 53.7505
342.309 50.1369
342.346 46.8547
342.383 43.8569
342.421 41.1320
342.458 38.6401
342.495 36.3711
342.532 34.2968
342.570 32.3979
342.607 30.6524
342.644 29.0538
342.681 27.5792
342.719 26.2238
342.756 24.9688
342.793 23.8108
342.830 22.7370
342.867 21.7395
342.905 20.8086
342.942 19.9429
342.979 19.1320
343.016 18.3751
343.054 17.6636
343.091 16.9973
343.128 16.3705
343.165 15.7799
343.203 15.2214
343.240 14.6951
343.314 13.7245
343.389 12.8517
343.463 12.0645
343.517 11.5378
343.572 11.0462
343.626 10.5866
343.680 10.1570
343.734 9.75323
343.788 9.37457
343.842 9.01761
343.897 8.68191
343.951 8.36459
344.005 8.06539
344.113 7.51395
344.221 7.01852
344.330 6.57158
344.404 6.28899
344.479 6.02462
344.553 5.77690
344.628 5.54474
344.702 5.32628
344.777 5.12071
344.851 4.92703
344.926 4.74456
345.000 4.57200
345.075 4.40884
345.223 4.10828
345.372 3.83774
345.521 3.59363
345.670 3.37231
345.819 3.17126
345.968 2.98796
346.117 2.82035
346.266 2.66661
346.415 2.52541
346.564 2.39533
346.713 2.27523
346.862 2.16401
347.011 2.06095
347.160 1.96513
347.309 1.87598
347.458 1.79280
347.606 1.71517
347.755 1.64250
347.904 1.57448
348.053 1.51064
348.202 1.45072
348.351 1.39433
348.500 1.34126
348.649 1.29121
348.798 1.24400
348.947 1.19939
349.096 1.15720
349.394 1.07937
349.692 1.00934
349.990 0.946084
350.287 0.888786
350.585 0.836685
350.883 0.789185
351.181 0.745764
351.479 0.705985
351.723 0.675851
351.966 0.647719
352.210 0.621408
352.454 0.596756
352.698 0.573607
352.941 0.551847
353.185 0.531360
353.429 0.512053
353.672 0.493835
353.916 0.476645
354.404 0.445043
354.891 0.416728
355.378 0.391273
355.676 0.376966
355.974 0.363522
356.272 0.350876
356.570 0.338972
357.166 0.317186
357.761 0.297809
358.357 0.280546
358.953 0.265171
359.549 0.251496
360.144 0.239392
360.605 0.231052
361.065 0.223574
361.526 0.216959
361.986 0.211234
362.446 0.206457
362.907 0.202734
363.367 0.200233
363.597 0.199522
363.827 0.199239
364.044 0.199422
364.261 0.200112
364.477 0.201395
364.694 0.203380
364.911 0.206213
365.127 0.210082
365.344 0.215247
365.452 0.218423
365.561 0.222068
365.710 0.227977
365.858 0.235122
366.007 0.243807
366.082 0.248842
366.156 0.254411
366.231 0.260601
366.305 0.267491
366.380 0.275186
366.454 0.283800
366.529 0.293512
366.603 0.304491
366.678 0.317011
366.752 0.331350
366.833 0.349593
366.874 0.359910
366.915 0.371167
366.955 0.383519
366.996 0.397046
367.036 0.411942
367.077 0.428395
367.118 0.446671
367.158 0.466933
367.199 0.489511
367.240 0.514736
367.280 0.542981
367.321 0.574674
367.361 0.610292
367.402 0.650371
367.431 0.681831
367.460 0.716066
367.488 0.753323
367.517 0.793718
367.546 0.837809
367.575 0.885753
367.603 0.937856
367.632 0.994232
367.661 1.05560
367.690 1.12210
367.719 1.19409
367.747 1.27162
367.776 1.35558
367.805 1.44604
367.834 1.54333
367.862 1.64739
367.900 1.79371
367.937 1.95262
367.974 2.12546
368.011 2.31164
368.049 2.51237
368.086 2.72662
368.123 2.95475
368.160 3.19638
368.191 3.40416
368.221 3.62016
368.282 4.07363
368.343 4.55140
368.404 5.04548
368.478 5.65757
368.553 6.25811
368.627 6.82276
368.665 7.08429
368.702 7.32791
368.738 7.54388
368.774 7.73786
368.810 7.90757
368.846 8.05097
368.884 8.17350
368.923 8.26202
368.962 8.31525
369.000 8.33242
369.039 8.31338
369.077 8.25832
369.116 8.16802
369.154 8.04380
369.208 7.81987
369.261 7.54066
369.314 7.21406
369.367 6.84772
369.416 6.48418
369.465 6.10225
369.562 5.30722
369.660 4.51320
369.709 4.13039
369.757 3.76250
369.793 3.50566
369.828 3.25954
369.864 3.02494
369.899 2.80305
369.935 2.59300
369.970 2.39620
370.006 2.21155
370.041 2.03999
370.065 1.92894
370.090 1.82364
370.114 1.72395
370.139 1.62974
370.163 1.54083
370.187 1.45706
370.212 1.37823
370.236 1.30444
370.261 1.23489
370.285 1.16968
370.309 1.10860
370.334 1.05168
370.358 0.998236
370.382 0.948309
370.407 0.901699
370.431 0.858381
370.452 0.823134
370.473 0.790112
370.494 0.758886
370.515 0.729643
370.557 0.676109
370.600 0.628712
370.642 0.586722
370.684 0.549484
370.726 0.516407
370.768 0.486967
370.810 0.460700
370.852 0.437201
370.894 0.416114
370.936 0.397128
370.978 0.379975
371.021 0.364425
371.063 0.350276
371.105 0.337387
371.171 0.319129
371.238 0.303096
371.304 0.288905
371.371 0.276255
371.437 0.264905
371.504 0.254663
371.570 0.245373
371.637 0.236918
371.703 0.229168
371.770 0.222048
371.902 0.209425
372.035 0.198562
372.168 0.189131
372.328 0.179323
372.487 0.170860
372.647 0.163476
372.807 0.156987
372.966 0.151231
373.126 0.146097
373.285 0.141485
373.445 0.137317
373.675 0.131950
373.906 0.127225
374.136 0.123027
374.367 0.119266
374.597 0.115871
374.827 0.112789
375.058 0.109971
375.288 0.107385
375.749 0.102786
376.210 0.0987993
376.671 0.0952826
377.132 0.0921381
377.699 0.0886843
378.267 0.0856040
378.834 0.0828265
379.401 0.0802993
379.968 0.0779839
380.536 0.0758564
381.670 0.0720298
382.805 0.0686593
383.939 0.0656677
385.074 0.0629851
386.208 0.0605612
387.272 0.0584889
388.336 0.0565850
389.399 0.0548291
390.463 0.0532050
391.527 0.0516987
392.590 0.0502988
393.654 0.0489972
394.717 0.0478007
396.845 0.0456026
398.972 0.0436815
401.099 0.0420030
403.227 0.0405402
405.070 0.0394335
406.914 0.0384657
408.758 0.0376274
410.601 0.0369163
412.445 0.0363382
414.288 0.0359045
416.132 0.0356287
417.976 0.0355067
419.961 0.0356316
420.954 0.0358069
421.947 0.0360728
422.939 0.0364452
423.932 0.0369447
424.925 0.0375978
425.917 0.0384307
426.698 0.0392462
427.478 0.0402443
428.258 0.0414592
429.038 0.0429420
429.818 0.0447622
430.208 0.0458271
430.598 0.0470143
430.988 0.0483414
431.378 0.0498292
431.768 0.0515018
432.158 0.0533870
432.583 0.0557267
433.008 0.0584212
433.434 0.0615523
433.859 0.0652147
434.285 0.0695299
434.498 0.0719790
434.710 0.0746541
434.923 0.0775851
435.136 0.0808020
435.348 0.0843441
435.561 0.0882561
435.809 0.0933594
436.058 0.0991396
436.306 0.105724
436.554 0.113271
436.802 0.121984
436.926 0.126856
437.050 0.132120
437.174 0.137821
437.299 0.144009
437.423 0.150740
437.547 0.158076
437.715 0.169160
437.884 0.181737
438.052 0.196102
438.136 0.204065
438.220 0.212619
438.305 0.221827
438.389 0.231758
438.473 0.242494
438.557 0.254127
438.641 0.266766
438.726 0.280535
438.810 0.295581
438.894 0.312077
438.991 0.333263
439.089 0.357060
439.186 0.383956
439.235 0.398771
439.284 0.414575
439.333 0.431542
439.381 0.449725
439.430 0.469341
439.479 0.490474
439.528 0.513403
439.576 0.538258
439.625 0.565403
439.674 0.595033
439.712 0.619942
439.749 0.646780
439.787 0.675767
439.825 0.707065
439.862 0.741120
439.900 0.778173
439.938 0.818583
439.975 0.862636
440.013 0.911022
440.051 0.964147
440.088 1.02259
440.126 1.08680
440.164 1.15786
440.201 1.23616
440.239 1.32300
440.277 1.41887
440.301 1.48652
440.325 1.55881
440.350 1.63605
440.374 1.71823
440.399 1.80637
440.423 1.90051
440.447 2.00104
440.472 2.10788
440.496 2.22231
440.520 2.34433
440.545 2.47436
440.569 2.61225
440.594 2.75956
440.618 2.91552
440.642 3.08185
440.667 3.25762
440.691 3.44470
440.715 3.64282
440.740 3.85237
440.764 4.07376
440.789 4.30733
440.813 4.55345
440.837 4.81241
440.862 5.08335
440.886 5.36873
440.910 5.66764
440.935 5.98022
440.959 6.30519
440.984 6.64522
441.008 6.99896
441.057 7.74539
441.110 8.62022
441.163 9.55282
441.216 10.5367
441.269 11.5614
441.464 15.4932
441.513 16.4592
441.562 17.3893
441.611 18.2709
441.659 19.0899
441.708 19.8337
441.757 20.4875
441.793 20.9051
441.829 21.2621
441.865 21.5560
441.901 21.7838
441.950 21.9860
442.000 22.0525
442.041 22.0056
442.081 21.8691
442.121 21.6442
442.162 21.3349
442.219 20.7590
442.276 20.0360
442.330 19.2473
442.383 18.3657
442.429 17.5411
442.475 16.6733
442.567 14.8507
442.673 12.6940
442.726 11.6354
442.779 10.6098
442.828 9.71123
442.876 8.85573
442.910 8.28272
442.944 7.73549
442.978 7.21334
443.011 6.71695
443.040 6.31190
443.069 5.92623
443.098 5.55988
443.127 5.21272
443.154 4.91092
443.181 4.62475
443.207 4.35388
443.234 4.09792
443.260 3.85643
443.287 3.62894
443.314 3.41495
443.340 3.21393
443.367 3.02533
443.393 2.84860
443.420 2.68318
443.447 2.52850
443.473 2.38400
443.500 2.24912
443.526 2.12332
443.553 2.00648
443.579 1.89720
443.606 1.79544
443.633 1.70072
443.659 1.61257
443.686 1.53054
443.712 1.45422
443.739 1.38319
443.766 1.31709
443.792 1.25555
443.819 1.19823
443.845 1.14483
443.872 1.09504
443.899 1.04860
443.925 1.00524
443.952 0.964732
443.978 0.926986
444.003 0.894623
444.027 0.864124
444.075 0.808305
444.123 0.758352
444.172 0.713662
444.220 0.673354
444.268 0.637004
444.317 0.603956
444.365 0.573918
444.414 0.546400
444.462 0.521205
444.510 0.497962
444.559 0.476541
444.607 0.456658
444.655 0.438229
444.704 0.421067
444.752 0.405047
444.815 0.385719
444.878 0.367966
444.940 0.351558
445.003 0.336398
445.066 0.322312
445.129 0.309235
445.192 0.297029
445.255 0.285650
445.380 0.265013
445.506 0.246832
445.632 0.230720
445.757 0.216364
445.864 0.205394
445.970 0.195373
446.077 0.186190
446.183 0.177761
446.289 0.169990
446.396 0.162814
446.502 0.156175
446.608 0.150024
446.821 0.138980
447.034 0.129385
447.247 0.120990
447.459 0.113604
447.633 0.108198
447.807 0.103294
447.982 0.0988278
448.156 0.0947517
448.330 0.0910168
448.504 0.0875892
448.852 0.0815209
449.200 0.0763349
449.548 0.0718708
449.896 0.0680034
450.244 0.0646330
450.554 0.0619888
450.863 0.0596296
451.172 0.0575171
451.482 0.0556205
451.791 0.0539133
452.101 0.0523734
452.720 0.0497123
453.338 0.0475062
453.957 0.0456724
454.576 0.0441457
455.195 0.0428744
455.736 0.0419397
456.278 0.0411485
456.819 0.0404838
457.361 0.0399322
457.902 0.0394828
458.444 0.0391268
459.527 0.0386699
460.146 0.0385506
460.997 0.0385466
461.847 0.0387252
462.698 0.0390899
463.549 0.0396507
464.400 0.0404250
465.251 0.0414390
466.102 0.0427289
466.953 0.0443449
467.726 0.0461538
468.500 0.0483565
468.887 0.0496325
469.274 0.0510418
469.660 0.0525991
470.047 0.0543228
470.666 0.0574928
470.975 0.0593006
471.285 0.0612795
471.710 0.0643169
472.136 0.0677779
472.561 0.0717406
472.987 0.0763016
473.412 0.0815864
473.625 0.0845466
473.838 0.0877493
474.050 0.0912231
474.263 0.0949948
474.476 0.0991005
474.688 0.103580
474.940 0.109421
475.191 0.115941
475.443 0.123252
475.694 0.131491
475.945 0.140823
476.197 0.151452
476.323 0.157329
476.448 0.163630
476.574 0.170395
476.700 0.177673
476.893 0.189996
477.086 0.203889
477.183 0.211511
477.280 0.219635
477.377 0.228310
477.473 0.237585
477.570 0.247519
477.667 0.258178
477.763 0.269636
477.860 0.281976
477.957 0.295296
478.053 0.309703
478.150 0.325326
478.247 0.342308
478.353 0.362770
478.460 0.385348
478.566 0.410361
478.672 0.438165
478.779 0.469277
478.832 0.486239
478.885 0.504215
478.938 0.523366
478.991 0.543766
479.045 0.565539
479.098 0.588778
479.151 0.613728
479.204 0.640531
479.257 0.669398
479.311 0.700576
479.364 0.734353
479.417 0.771066
479.470 0.811116
479.523 0.854886
479.576 0.903100
479.630 0.956346
479.683 1.01541
479.736 1.08112
479.789 1.15482
479.816 1.19503
479.842 1.23773
479.869 1.28312
479.896 1.33143
479.922 1.38289
479.949 1.43755
479.975 1.49612
480.002 1.55868
480.028 1.62558
480.055 1.69716
480.082 1.77381
480.108 1.85594
480.135 1.94398
480.161 2.03840
480.188 2.13969
480.215 2.24839
480.241 2.36505
480.268 2.49026
480.294 2.62466
480.321 2.76888
480.348 2.92362
480.374 3.08894
480.401 3.26684
480.427 3.45746
480.454 3.66161
480.481 3.88010
480.507 4.11374
480.534 4.36338
480.560 4.62986
480.587 4.91293
480.613 5.21556
480.640 5.53755
480.667 5.87971
480.693 6.24282
480.720 6.62763
480.746 7.03485
480.773 7.46512
480.800 7.91728
480.838 8.62077
480.877 9.37657
480.916 10.1855
480.954 11.0453
480.993 11.9603
481.032 12.9273
481.070 13.9443
481.109 15.0061
481.162 16.5408
481.215 18.1474
481.269 19.8115
481.322 21.5123
481.375 23.2355
481.428 24.9551
481.481 26.6459
481.534 28.2781
481.597 30.1023
481.660 31.7623
481.718 33.1166
481.774 34.2208
481.829 35.1086
481.878 35.6953
481.927 36.0902
481.964 36.2574
482.000 36.3113
482.034 36.2609
482.067 36.1156
482.101 35.8766
482.134 35.5460
482.146 35.4034
482.174 35.0410
482.201 34.6220
482.256 33.6239
482.313 32.3886
482.369 30.9761
482.417 29.6609
482.465 28.2617
482.560 25.2834
482.656 22.1954
482.752 19.1403
482.812 17.2665
482.873 15.4785
482.934 13.7954
482.965 12.9988
482.995 12.2331
483.043 11.0911
483.091 10.0320
483.115 9.53284
483.139 9.05395
483.162 8.59516
483.186 8.15625
483.210 7.73696
483.234 7.33695
483.258 6.95584
483.282 6.59318
483.306 6.24851
483.330 5.92132
483.354 5.61106
483.378 5.31718
483.402 5.03796
483.425 4.77514
483.449 4.52690
483.473 4.29265
483.497 4.07177
483.521 3.86365
483.545 3.66769
483.569 3.48329
483.593 3.30986
483.617 3.14684
483.641 2.99367
483.664 2.84980
483.688 2.71471
483.712 2.58789
483.736 2.46885
483.760 2.35713
483.781 2.26594
483.801 2.18003
483.822 2.09830
483.843 2.02128
483.884 1.87891
483.925 1.75112
483.967 1.63626
484.008 1.53288
484.049 1.43965
484.090 1.35541
484.132 1.27911
484.173 1.20984
484.214 1.14678
484.256 1.08922
484.297 1.03653
484.338 0.988165
484.380 0.943646
484.421 0.902648
484.469 0.858788
484.516 0.818631
484.564 0.781660
484.612 0.747515
484.660 0.715821
484.708 0.686444
484.756 0.659083
484.803 0.633539
484.851 0.609590
484.899 0.587182
484.947 0.566133
484.995 0.546323
485.090 0.510019
485.186 0.477569
485.251 0.457357
485.316 0.438526
485.381 0.420947
485.447 0.404505
485.512 0.389099
485.577 0.374641
485.642 0.361052
485.707 0.348260
485.838 0.324821
485.968 0.303889
486.099 0.285110
486.229 0.268191
486.325 0.256814
486.420 0.246236
486.516 0.236361
486.612 0.227147
486.707 0.218517
486.803 0.210439
486.994 0.195735
487.185 0.182710
487.377 0.171129
487.568 0.160773
487.759 0.151485
487.933 0.143839
488.107 0.136864
488.281 0.130481
488.455 0.124628
488.629 0.119241
488.802 0.114274
488.976 0.109683
489.150 0.105436
489.498 0.0978293
489.846 0.0912416
490.193 0.0854967
490.541 0.0804605
490.889 0.0760195
491.237 0.0720859
491.585 0.0685865
491.932 0.0654629
492.350 0.0621401
492.767 0.0592154
493.149 0.0568308
493.532 0.0546895
493.914 0.0527604
494.297 0.0510195
494.680 0.0494458
495.062 0.0480216
495.827 0.0455595
496.592 0.0435294
497.357 0.0418553
498.122 0.0404798
498.887 0.0393606
499.444 0.0386892
500.000 0.0381275
501.051 0.0373455
502.101 0.0369175
503.152 0.0368240
503.874 0.0369638
504.596 0.0373022
505.319 0.0378620
506.041 0.0386817
506.763 0.0398198
507.485 0.0413604
507.847 0.0423188
508.208 0.0434282
508.569 0.0447142
508.930 0.0462072
509.357 0.0482902
509.783 0.0507954
510.210 0.0538370
510.637 0.0575754
510.850 0.0597711
511.064 0.0622285
511.277 0.0649886
511.491 0.0681011
511.704 0.0716268
511.917 0.0756406
512.131 0.0802356
512.344 0.0855295
512.558 0.0916731
512.771 0.0988629
512.984 0.107358
513.198 0.117506
513.305 0.123343
513.411 0.129784
513.518 0.136922
513.625 0.144864
513.731 0.153746
513.838 0.163734
513.945 0.175037
514.051 0.187922
514.166 0.203974
514.281 0.222862
514.339 0.233626
514.396 0.245413
514.454 0.258424
514.511 0.272803
514.569 0.288829
514.626 0.306722
514.683 0.326877
514.741 0.349620
514.798 0.375509
514.856 0.405023
514.913 0.438944
514.971 0.477953
515.010 0.507862
515.049 0.540906
515.088 0.577455
515.127 0.617912
515.166 0.662717
515.205 0.712352
515.244 0.767334
515.283 0.828057
515.322 0.895426
515.361 0.969923
515.400 1.05221
515.439 1.14297
515.478 1.24291
515.517 1.35276
515.556 1.47325
515.594 1.60473
515.617 1.68659
515.640 1.77263
515.662 1.86298
515.685 1.95733
515.707 2.05664
515.730 2.16061
515.753 2.26933
515.775 2.38238
515.820 2.62429
515.865 2.88574
515.911 3.16810
515.956 3.47006
515.991 3.71737
516.025 3.97625
516.060 4.24624
516.095 4.52593
516.165 5.11534
516.235 5.73510
516.415 7.40677
516.505 8.22196
516.551 8.60950
516.596 8.97642
516.633 9.25953
516.670 9.52318
516.707 9.76584
516.743 9.98534
516.800 10.2729
516.857 10.4948
516.893 10.5987
516.928 10.6734
516.964 10.7183
517.000 10.7329
517.060 10.6896
517.120 10.5631
517.179 10.3569
517.227 10.1353
517.276 9.86839
517.343 9.42604
517.411 8.91638
517.457 8.53432
517.504 8.13231
517.597 7.28938
517.690 6.42442
517.783 5.57394
517.854 4.94342
517.890 4.64143
517.926 4.34941
517.962 4.06823
517.998 3.79859
518.034 3.54102
518.070 3.29590
518.116 2.99730
518.163 2.72019
518.186 2.58939
518.209 2.46443
518.233 2.34470
518.256 2.23010
518.279 2.12010
518.302 2.01553
518.326 1.91538
518.349 1.82040
518.372 1.72962
518.395 1.64370
518.418 1.56210
518.442 1.48467
518.462 1.42084
518.482 1.35994
518.502 1.30186
518.522 1.24677
518.562 1.14380
518.602 1.05078
518.642 0.966450
518.683 0.890504
518.723 0.822003
518.763 0.760273
518.803 0.704545
518.843 0.654500
518.883 0.609333
518.923 0.568757
518.964 0.532101
519.004 0.499121
519.044 0.469334
519.084 0.442392
519.143 0.407163
519.202 0.376629
519.261 0.349944
519.320 0.326581
519.380 0.305943
519.439 0.287672
519.498 0.271350
519.557 0.256739
519.616 0.243546
519.675 0.231615
519.735 0.220738
519.794 0.210814
519.912 0.193308
520.030 0.178372
520.140 0.166339
520.250 0.155767
520.360 0.146398
520.470 0.138058
520.580 0.130583
520.689 0.123864
520.799 0.117787
520.909 0.112280
521.129 0.102687
521.348 0.0946428
521.568 0.0878234
521.788 0.0819894
522.007 0.0769519
522.227 0.0725724
522.447 0.0687405
522.667 0.0653688
522.886 0.0623869
523.106 0.0597375
523.326 0.0573739
523.545 0.0552572
523.985 0.0516402
524.424 0.0486807
524.864 0.0462268
525.303 0.0441705
525.911 0.0418402
526.520 0.0399808
527.128 0.0384854
527.736 0.0372767
528.345 0.0362978
528.953 0.0355075
529.562 0.0348762
530.170 0.0343831
530.981 0.0339009
531.792 0.0335862
532.603 0.0334263
533.415 0.0334110
534.496 0.0336071
535.578 0.0340559
536.659 0.0347804
537.741 0.0358157
538.484 0.0367495
539.228 0.0379137
539.972 0.0393530
540.715 0.0411331
541.459 0.0433488
541.831 0.0446596
542.202 0.0461325
542.574 0.0477938
542.946 0.0496730
543.318 0.0518068
543.689 0.0542423
544.061 0.0570437
544.433 0.0602891
544.805 0.0640760
545.177 0.0685282
545.548 0.0738081
545.734 0.0768236
545.920 0.0801329
546.106 0.0837754
546.292 0.0877971
546.478 0.0922530
546.664 0.0972086
546.883 0.103818
547.103 0.111399
547.323 0.120158
547.543 0.130358
547.762 0.142347
547.872 0.149153
547.982 0.156583
548.092 0.164732
548.202 0.173685
548.311 0.183564
548.421 0.194509
548.556 0.209703
548.692 0.227169
548.827 0.247427
548.894 0.258813
548.962 0.271180
549.030 0.284656
549.097 0.299399
549.165 0.315595
549.232 0.333470
549.300 0.353302
549.368 0.375428
549.435 0.400265
549.503 0.428325
549.549 0.449822
549.596 0.473386
549.642 0.499300
549.689 0.527827
549.735 0.559464
549.782 0.594583
549.828 0.633678
549.875 0.677211
549.921 0.726004
549.968 0.780688
550.014 0.842072
550.061 0.910898
550.107 0.988463
550.130 1.03072
550.153 1.07553
550.177 1.12327
550.200 1.17368
550.223 1.22712
550.246 1.28378
550.272 1.34969
550.297 1.41962
550.322 1.49436
550.348 1.57357
550.373 1.65814
550.398 1.74766
550.424 1.84312
550.449 1.94402
550.475 2.05144
550.500 2.16480
550.525 2.28526
550.551 2.41214
550.576 2.54671
550.601 2.68815
550.627 2.83782
550.652 2.99478
550.675 3.14647
550.698 3.30446
550.722 3.47025
550.745 3.64255
550.791 4.00998
550.838 4.40645
550.884 4.83391
550.931 5.29134
550.977 5.77808
551.024 6.29178
551.083 6.98496
551.142 7.71442
551.201 8.47593
551.260 9.25860
551.446 11.7483
551.539 12.9211
551.586 13.4659
551.632 13.9732
551.700 14.6336
551.767 15.1846
551.810 15.4688
551.853 15.6991
551.895 15.8738
551.938 15.9900
552.000 16.0526
552.041 16.0245
552.081 15.9425
552.121 15.8072
552.162 15.6207
552.205 15.3698
552.247 15.0675
552.290 14.7168
552.332 14.3217
552.378 13.8513
552.424 13.3418
552.470 12.7983
552.516 12.2274
552.607 11.0288
552.699 9.79784
552.782 8.68520
552.865 7.61453
552.907 7.10024
552.949 6.60527
552.990 6.12920
553.032 5.67581
553.078 5.20292
553.124 4.75854
553.169 4.34323
553.215 3.95708
553.261 3.59981
553.284 3.43183
553.307 3.27081
553.330 3.11663
553.353 2.96916
553.375 2.82825
553.398 2.69375
553.428 2.53125
553.457 2.37902
553.486 2.23564
553.515 2.10168
553.544 1.97582
553.573 1.85853
553.602 1.74857
553.632 1.64630
553.661 1.55062
553.690 1.46178
553.719 1.37878
553.748 1.30182
553.777 1.23001
553.806 1.16349
553.836 1.10145
553.865 1.04402
553.911 0.961761
553.956 0.888490
554.002 0.823193
554.048 0.764952
554.094 0.712939
554.140 0.666413
554.185 0.624714
554.231 0.587256
554.277 0.553522
554.323 0.523060
554.369 0.495472
554.414 0.470409
554.460 0.447571
554.506 0.426693
554.552 0.407548
554.598 0.389938
554.673 0.363973
554.748 0.341042
554.823 0.320646
554.897 0.302409
554.972 0.285964
555.047 0.271097
555.122 0.257557
555.197 0.245207
555.272 0.233872
555.347 0.223460
555.497 0.204958
555.647 0.189050
555.797 0.175252
555.922 0.165089
556.047 0.155969
556.172 0.147744
556.297 0.140298
556.422 0.133528
556.546 0.127363
556.671 0.121726
556.796 0.116558
557.046 0.107425
557.296 0.0996345
557.546 0.0929295
557.796 0.0871150
558.012 0.0826761
558.229 0.0787147
558.445 0.0751634
558.662 0.0719676
558.878 0.0690804
559.095 0.0664660
559.528 0.0619265
559.961 0.0581389
560.394 0.0549478
560.827 0.0522299
561.260 0.0498958
561.726 0.0477341
562.193 0.0458757
562.659 0.0442692
563.125 0.0428731
563.592 0.0416537
564.058 0.0405851
564.991 0.0388227
565.657 0.0378039
566.323 0.0369359
566.990 0.0361969
567.656 0.0355686
568.988 0.0345787
570.321 0.0338639
571.653 0.0333554
572.986 0.0330078
574.318 0.0327980
575.651 0.0326706
577.117 0.0326324
578.582 0.0326759
581.514 0.0329684
584.445 0.0334839
587.377 0.0341878
590.308 0.0350561
593.240 0.0360853
596.171 0.0372736
599.102 0.0386249
602.034 0.0401548
604.965 0.0418739
607.897 0.0438053
610.828 0.0459773
613.760 0.0484158
616.691 0.0511678
619.623 0.0542790
622.554 0.0578054
624.953 0.0610578
627.351 0.0646918
629.750 0.0687670
630.949 0.0709851
632.148 0.0733547
633.347 0.0758608
634.546 0.0785433
635.746 0.0813939
636.945 0.0844360
638.144 0.0876616
639.343 0.0911452
640.543 0.0948865
641.742 0.0989071
643.208 0.104243
644.673 0.110098
646.139 0.116544
647.605 0.123662
649.071 0.131552
650.536 0.140327
652.002 0.150127
652.735 0.155462
653.468 0.161118
654.534 0.169975
655.600 0.179660
656.732 0.190981
657.865 0.203510
658.997 0.217426
660.130 0.232944
660.696 0.241379
661.263 0.250303
661.829 0.259743
662.395 0.269757
662.962 0.280422
663.528 0.291793
664.094 0.303920
664.660 0.316865
665.393 0.334955
666.126 0.354727
666.859 0.376397
667.592 0.400212
668.325 0.426474
669.058 0.455528
669.791 0.487783
670.523 0.523725
671.223 0.562020
671.573 0.582816
671.923 0.604819
672.272 0.628138
672.622 0.652873
672.972 0.679141
673.322 0.707064
673.671 0.736800
674.021 0.768501
674.371 0.802342
674.721 0.838500
675.071 0.877206
675.420 0.918685
675.770 0.963216
676.120 1.01112
676.486 1.06536
676.853 1.12420
677.219 1.18819
677.586 1.25789
677.952 1.33404
678.319 1.41740
678.685 1.50893
679.051 1.60975
679.418 1.72118
679.784 1.84470
680.151 1.98214
680.334 2.05675
680.517 2.13569
680.700 2.21935
680.884 2.30801
681.067 2.40212
681.250 2.50215
681.433 2.60859
681.616 2.72199
681.800 2.84298
681.983 2.97222
682.216 3.14992
682.449 3.34407
682.682 3.55677
682.916 3.79047
683.149 4.04805
683.382 4.33288
683.499 4.48672
683.615 4.64890
683.732 4.82005
683.848 5.00065
684.032 5.30601
684.215 5.63994
684.398 6.00625
684.581 6.40920
684.764 6.85377
684.856 7.09344
684.948 7.34576
685.039 7.61163
685.131 7.89200
685.222 8.18793
685.314 8.50055
685.406 8.83147
685.497 9.18133
685.589 9.55194
685.680 9.94493
685.772 10.3620
685.864 10.8052
685.955 11.2765
686.047 11.7782
686.138 12.3129
686.230 12.8833
686.322 13.4924
686.413 14.1435
686.505 14.8402
686.596 15.5862
686.688 16.3859
686.780 17.2438
686.871 18.1658
686.963 19.1552
687.055 20.2185
687.146 21.3617
687.238 22.5908
687.329 23.9121
687.421 25.3323
687.513 26.8576
687.604 28.4962
687.696 30.2503
687.787 32.1269
687.879 34.1302
687.971 36.2632
688.062 38.5275
688.154 40.9222
688.245 43.4442
688.348 46.4216
688.451 49.5384
688.554 52.7752
688.657 56.1061
689.069 69.6198
689.185 73.2170
689.301 76.5611
689.418 79.5726
689.534 82.1638
689.651 84.2642
689.767 85.8068
689.884 86.7454
690.000 87.0501
690.085 86.8671
690.154 86.4685
690.222 85.8516
690.291 85.0228
690.360 83.9914
690.429 82.7685
690.498 81.3671
690.635 78.0879
690.773 74.2803
690.911 70.0891
691.048 65.6514
691.186 61.0987
691.417 53.4953
691.533 49.8329
691.649 46.3221
691.765 42.9850
691.880 39.8459
691.996 36.9123
692.112 34.1877
692.227 31.6722
692.343 29.3570
692.458 27.2330
692.574 25.2889
692.690 23.5123
692.805 21.8904
692.921 20.4102
693.036 19.0605
693.152 17.8270
693.268 16.6999
693.383 15.6689
693.499 14.7255
693.614 13.8595
693.730 13.0642
693.845 12.3326
693.961 11.6592
694.071 11.0640
694.182 10.5125
694.292 10.0001
694.402 9.52339
694.513 9.07884
694.623 8.66446
694.733 8.27730
694.844 7.91508
694.954 7.57546
695.064 7.25721
695.175 6.95834
695.285 6.67733
695.395 6.41259
695.506 6.16335
695.616 5.92823
695.726 5.70620
695.842 5.48653
695.957 5.27922
696.073 5.08337
696.188 4.89831
696.420 4.55687
696.651 4.24992
696.882 3.97278
697.113 3.72194
697.344 3.49401
697.575 3.28647
697.849 3.06413
698.122 2.86365
698.395 2.68229
698.668 2.51770
698.941 2.36789
699.215 2.23112
699.488 2.10591
699.761 1.99102
699.992 1.90095
700.223 1.81691
700.454 1.73830
700.685 1.66474
700.917 1.59575
701.148 1.53102
701.379 1.47015
701.610 1.41289
701.841 1.35893
702.072 1.30805
702.304 1.25998
702.535 1.21457
702.997 1.13087
703.459 1.05564
703.922 0.987759
704.384 0.926331
704.846 0.870551
705.309 0.819750
705.771 0.773354
706.233 0.730870
706.695 0.691873
707.158 0.656001
707.557 0.627295
707.956 0.600507
708.356 0.575463
708.755 0.552001
709.154 0.529968
709.553 0.509256
709.953 0.489770
710.352 0.471426
710.751 0.454129
711.151 0.437808
711.949 0.407815
712.748 0.380943
713.546 0.356775
714.008 0.343877
714.471 0.331711
715.395 0.309359
716.320 0.289342
717.245 0.271348
718.169 0.255115
719.094 0.240425
720.018 0.227091
720.943 0.214952
721.616 0.206795
722.288 0.199152
722.960 0.191982
723.633 0.185248
724.305 0.178923
724.978 0.172987
726.323 0.162097
727.668 0.152348
729.012 0.143623
730.357 0.135788
731.702 0.128732
732.627 0.124283
733.552 0.120130
734.476 0.116249
735.401 0.112618
737.250 0.106030
739.099 0.100233
740.949 0.0951161
742.798 0.0905888
744.647 0.0865748
746.496 0.0830111
747.925 0.0805317
749.354 0.0782682
750.783 0.0762021
752.212 0.0743183
755.070 0.0710683
756.499 0.0696392
757.928 0.0683499
760.786 0.0661283
763.644 0.0643446
766.502 0.0629520
769.360 0.0619149
771.377 0.0613852
773.394 0.0610112
775.412 0.0607817
777.429 0.0606996
781.128 0.0609357
782.977 0.0612284
784.826 0.0616521
788.525 0.0628734
790.374 0.0636854
792.223 0.0646431
794.072 0.0657398
795.922 0.0669979
797.771 0.0684352
799.620 0.0700454
801.469 0.0718532
803.319 0.0738936
805.168 0.0761659
807.017 0.0786782
808.866 0.0814971
810.716 0.0846649
812.565 0.0882113
814.414 0.0921883
816.263 0.0966590
818.113 0.101699
819.962 0.107402
821.811 0.113881
823.324 0.119856
824.837 0.126537
826.350 0.134038
827.863 0.142495
828.620 0.147133
829.376 0.152076
830.133 0.157346
830.889 0.162961
831.646 0.168957
832.402 0.175401
833.159 0.182334
833.915 0.189794
834.840 0.199706
835.764 0.210596
836.689 0.222600
837.614 0.235876
838.538 0.250613
839.463 0.267033
840.388 0.285405
840.850 0.295423
841.312 0.306055
842.111 0.326025
842.909 0.348293
843.708 0.373236
844.107 0.386846
844.506 0.401295
844.906 0.416660
845.305 0.433016
845.704 0.450443
846.103 0.469028
846.503 0.488888
846.902 0.510149
847.301 0.532963
847.701 0.557487
848.163 0.588262
848.625 0.621876
849.087 0.658683
849.550 0.699098
850.012 0.743611
850.474 0.792799
850.937 0.847345
851.399 0.908063
851.630 0.941040
851.861 0.975941
852.093 1.01292
852.324 1.05212
852.555 1.09378
852.786 1.13805
853.017 1.18522
853.248 1.23548
853.479 1.28916
853.711 1.34654
853.942 1.40800
854.173 1.47390
854.404 1.54472
854.635 1.62092
854.866 1.70313
855.097 1.79194
855.329 1.88818
855.560 1.99266
855.791 2.10637
856.022 2.23039
856.253 2.36613
856.369 2.43884
856.484 2.51499
856.600 2.59494
856.716 2.67888
856.831 2.76708
856.947 2.85976
857.073 2.96653
857.199 3.07957
857.325 3.19939
857.451 3.32646
857.577 3.46159
857.703 3.60538
857.766 3.68082
857.829 3.75860
857.892 3.83895
857.955 3.92198
858.071 4.08173
858.129 4.16540
858.187 4.25175
858.244 4.34090
858.302 4.43297
858.360 4.52809
858.418 4.62640
858.476 4.72806
858.533 4.83321
858.591 4.94203
858.649 5.05469
858.707 5.17137
858.765 5.29228
858.822 5.41762
858.880 5.54740
858.938 5.68231
858.996 5.82237
859.053 5.96788
859.111 6.11911
859.169 6.27638
859.227 6.44004
859.285 6.61045
859.342 6.78767
859.400 6.97275
859.458 7.16582
859.516 7.36739
859.574 7.57798
859.631 7.79816
859.689 8.02854
859.747 8.26981
859.805 8.52223
859.860 8.77527
859.915 9.04038
859.970 9.31837
860.025 9.60961
860.081 9.91613
860.136 10.2379
860.191 10.5772
860.246 10.9342
860.301 11.3115
860.356 11.7101
860.412 12.1317
860.467 12.5773
860.522 13.0508
860.577 13.5526
860.632 14.0872
860.687 14.6554
860.745 15.2922
860.803 15.9745
860.861 16.7068
860.918 17.4943
860.976 18.3423
861.034 19.2571
861.092 20.2454
861.150 21.3130
861.207 22.4718
861.265 23.7293
861.294 24.3981
861.323 25.0954
861.352 25.8226
861.381 26.5812
861.410 27.3727
861.439 28.1987
861.467 29.0607
861.496 29.9606
861.525 30.9001
861.554 31.8811
861.583 32.9053
861.612 33.9711
861.641 35.0877
861.670 36.2536
861.699 37.4710
861.727 38.7419
861.756 40.0686
861.785 41.4534
861.814 42.8984
861.843 44.4060
861.872 45.9784
861.901 47.6181
861.930 49.3273
861.959 51.1083
861.988 52.9636
862.016 54.8952
862.045 56.9055
862.074 58.9893
862.132 63.4221
862.190 68.2027
862.248 73.3453
862.305 78.8618
862.363 84.7615
862.421 91.0501
862.479 97.7294
862.537 104.797
862.592 111.901
862.647 119.326
862.702 127.083
862.757 135.122
862.812 143.443
862.867 151.983
862.978 169.620
863.209 207.319
863.325 225.401
863.440 242.094
863.526 253.198
863.611 262.911
863.697 271.018
863.783 277.297
863.837 280.267
863.891 282.402
863.946 283.687
864.000 284.104
864.031 283.951
864.082 283.097
864.132 281.500
864.183 279.175
864.233 276.150
864.284 272.440
864.334 268.086
864.385 263.124
864.435 257.609
864.508 248.672
864.582 238.814
864.655 228.175
864.728 216.956
864.870 194.259
865.011 171.154
865.114 154.661
865.217 138.795
865.319 123.806
865.371 116.699
865.422 109.887
865.493 100.978
865.564 92.6437
865.634 84.8924
865.705 77.7315
865.776 71.1298
865.846 65.0793
865.882 62.2496
865.917 59.5561
865.952 56.9871
865.988 54.5386
866.023 52.2003
866.058 49.9812
866.094 47.8647
866.129 45.8584
866.164 43.9468
866.200 42.1364
866.235 40.4174
866.270 38.7858
866.306 37.2332
866.341 35.7644
866.376 34.3710
866.412 33.0492
866.447 31.7919
866.482 30.6027
866.553 28.4038
866.617 26.5917
866.681 24.9453
866.746 23.4431
866.810 22.0748
866.874 20.8228
866.938 19.6787
867.003 18.6298
867.067 17.6661
867.131 16.7777
867.195 15.9596
867.260 15.2023
867.324 14.5020
867.388 13.8511
867.452 13.2468
867.516 12.6837
867.581 12.1581
867.651 11.6185
867.722 11.1163
867.793 10.6479
867.863 10.2108
867.934 9.80097
868.005 9.41719
868.075 9.05618
868.146 8.71703
868.217 8.39705
868.287 8.09518
868.429 7.54068
868.570 7.04347
868.711 6.59566
868.795 6.35127
868.878 6.12096
869.045 5.69762
869.212 5.31788
869.379 4.97619
869.547 4.66719
869.714 4.38707
869.881 4.13212
870.048 3.89936
870.189 3.71772
870.330 3.54893
870.472 3.39168
870.613 3.24492
870.754 3.10764
870.896 2.97920
871.037 2.85877
871.178 2.74569
871.320 2.63930
871.461 2.53922
871.602 2.44488
871.743 2.35586
871.885 2.27170
872.026 2.19217
872.309 2.04551
872.591 1.91350
872.874 1.79431
873.157 1.68627
873.439 1.58809
873.722 1.49854
874.005 1.41669
874.287 1.34165
874.570 1.27272
874.814 1.21756
875.058 1.16613
875.302 1.11807
875.546 1.07308
875.791 1.03090
876.035 0.991308
876.279 0.954084
876.523 0.919049
876.767 0.886035
877.011 0.854894
877.499 0.797692
877.987 0.746487
878.476 0.700475
878.758 0.675935
879.041 0.652794
879.606 0.610314
880.172 0.572305
880.737 0.538167
881.302 0.507399
881.868 0.479579
882.433 0.454348
882.998 0.431401
883.435 0.415067
883.872 0.399842
884.309 0.385635
884.745 0.372363
885.182 0.359942
885.619 0.348299
886.493 0.327074
887.366 0.308278
888.240 0.291597
889.114 0.276744
889.987 0.263483
890.553 0.255652
891.118 0.248357
892.249 0.235202
893.379 0.223727
894.510 0.213694
895.640 0.204909
896.771 0.197211
897.902 0.190469
899.032 0.184601
900.677 0.177354
902.321 0.171403
903.966 0.166608
905.610 0.162822
907.255 0.159929
908.899 0.157835
910.544 0.156467
912.188 0.155768
914.450 0.155821
916.711 0.156978
918.972 0.159197
921.233 0.162464
923.495 0.166791
925.756 0.172224
928.017 0.178830
930.278 0.186715
931.923 0.193331
933.567 0.200765
935.212 0.209102
936.856 0.218443
938.501 0.228916
940.145 0.240671
941.790 0.253900
943.434 0.268838
944.668 0.281302
945.901 0.294997
947.135 0.310231
948.368 0.327196
949.601 0.346176
950.835 0.367551
951.451 0.379288
952.068 0.391822
952.685 0.405242
953.302 0.419652
954.072 0.439245
954.843 0.460863
955.614 0.484850
956.385 0.511627
957.156 0.541818
957.541 0.558452
957.927 0.576265
958.312 0.595405
958.698 0.616022
959.083 0.638311
959.469 0.662503
959.931 0.694443
960.394 0.730096
960.856 0.770202
961.319 0.815692
961.550 0.840826
961.781 0.867778
962.012 0.896788
962.244 0.928083
962.475 0.961987
962.706 0.998819
962.937 1.03902
963.169 1.08303
963.426 1.13717
963.683 1.19771
963.940 1.26585
964.197 1.34305
964.415 1.41727
964.633 1.50087
964.852 1.59575
964.961 1.64813
965.070 1.70428
965.180 1.76466
965.289 1.82964
965.398 1.89982
965.507 1.97584
965.616 2.05845
965.726 2.14855
965.835 2.24722
965.944 2.35574
966.015 2.43199
966.085 2.51354
966.156 2.60099
966.227 2.69488
966.297 2.79626
966.368 2.90580
966.439 3.02488
966.509 3.15447
966.580 3.29644
966.651 3.45242
966.721 3.62453
966.792 3.81501
966.863 4.02738
966.933 4.26452
967.004 4.53126
967.075 4.83165
967.123 5.05914
967.171 5.30712
967.219 5.57786
967.267 5.87319
967.315 6.19704
967.364 6.55182
967.412 6.94078
967.460 7.36651
967.508 7.83461
967.556 8.34833
967.605 8.91208
967.653 9.52922
967.701 10.2073
967.749 10.9502
967.797 11.7636
967.845 12.6512
967.881 13.3562
967.916 14.1056
967.951 14.9061
967.987 15.7554
968.022 16.6609
968.057 17.6197
968.093 18.6367
968.128 19.7142
968.163 20.8577
968.199 22.0628
968.234 23.3346
968.269 24.6750
968.305 26.0897
968.340 27.5723
968.375 29.1278
968.411 30.7572
968.449 32.6243
968.488 34.5760
968.526 36.6224
968.565 38.7523
968.607 41.1641
968.648 43.6769
968.690 46.2880
968.732 48.9865
968.774 51.7807
968.815 54.6512
968.857 57.6050
968.899 60.6198
968.970 65.8617
969.040 71.2162
969.111 76.6412
969.182 82.0574
969.278 89.3240
969.374 96.2614
969.445 101.036
969.516 105.449
969.586 109.437
969.657 112.925
969.734 116.067
969.810 118.481
969.854 119.508
969.897 120.273
969.941 120.773
969.984 121.003
970.000 121.020
970.048 120.855
970.095 120.369
970.143 119.566
970.190 118.453
970.238 117.042
970.307 114.480
970.375 111.361
970.428 108.624
970.481 105.623
970.534 102.382
970.586 98.9314
970.647 94.7100
970.708 90.3070
970.831 81.1270
970.953 71.7746
971.075 62.5993
971.180 55.0208
971.233 51.4076
971.286 47.9283
971.338 44.5943
971.391 41.4142
971.444 38.3945
971.496 35.5392
971.557 32.4374
971.618 29.5642
971.680 26.9074
971.710 25.6624
971.741 24.4703
971.771 23.3266
971.802 22.2375
971.832 21.1982
971.863 20.2073
971.893 19.2634
971.924 18.3653
971.954 17.5113
971.985 16.7002
972.032 15.5257
972.079 14.4443
972.126 13.4504
972.173 12.5401
972.221 11.7041
972.268 10.9404
972.315 10.2405
972.362 9.60249
972.409 9.01871
972.456 8.48712
972.503 8.00115
972.551 7.55881
972.598 7.15445
972.645 6.78629
972.692 6.44950
972.739 6.14254
972.800 5.78320
972.861 5.46329
972.922 5.17698
972.983 4.92101
973.044 4.69082
973.105 4.48392
973.166 4.29711
973.227 4.12792
973.289 3.97398
973.350 3.83396
973.411 3.70578
973.472 3.58848
973.533 3.48048
973.594 3.38109
973.655 3.28924
973.716 3.20414
973.782 3.11815
973.849 3.03865
973.982 2.89667
974.104 2.78330
974.226 2.68345
974.348 2.59511
974.470 2.51672
974.592 2.44687
974.714 2.38458
974.837 2.32885
974.959 2.27903
975.081 2.23440
975.203 2.19445
975.447 2.12683
975.691 2.07308
975.935 2.03087
976.201 1.99587
976.468 1.97067
976.734 1.95386
977.000 1.94433
977.245 1.94127
977.489 1.94307
977.733 1.94933
977.977 1.95969
978.465 1.99168
978.954 2.03741
979.442 2.09594
979.930 2.16674
980.418 2.24974
980.907 2.34514
981.395 2.45346
981.883 2.57547
982.371 2.71220
982.860 2.86493
983.348 3.03533
983.836 3.22534
984.080 3.32843
984.325 3.43728
984.569 3.55229
984.813 3.67387
985.057 3.80248
985.301 3.93849
985.545 4.08252
985.789 4.23500
986.034 4.39666
986.278 4.56802
986.522 4.74984
986.766 4.94291
987.010 5.14814
987.254 5.36629
987.498 5.59841
987.742 5.84558
987.987 6.10910
988.231 6.39003
988.475 6.68991
988.719 7.01026
988.963 7.35294
989.207 7.71949
989.451 8.11217
989.695 8.53279
989.940 8.98394
990.184 9.46764
990.428 9.98661
990.672 10.5435
990.916 11.1414
991.160 11.7826
991.404 12.4702
991.648 13.2071
991.893 13.9962
992.137 14.8392
992.381 15.7383
992.625 16.6946
992.804 17.4337
992.983 18.2030
993.342 19.8301
993.700 21.5637
994.059 23.3796
994.776 27.0999
995.134 28.8887
995.493 30.5312
995.681 31.3087
995.869 32.0107
996.058 32.6262
996.246 33.1442
996.435 33.5557
996.623 33.8526
996.812 34.0296
997.000 34.0831
997.188 34.0127
997.363 33.8356
997.539 33.5540
997.715 33.1726
997.891 32.6976
998.067 32.1363
998.242 31.4973
998.418 30.7899
998.594 30.0242
998.945 28.3559
999.297 26.5702
1000.00 22.9114
1000.30 21.4006
1000.60 19.9537
1000.90 18.5792
1001.19 17.2855
1001.49 16.0727
1001.79 14.9499
1002.09 13.9114
1002.39 12.9539
1002.58 12.3692
1002.78 11.8160
1002.97 11.2929
1003.17 10.7983
1003.36 10.3307
1003.56 9.88870
1003.75 9.47077
1003.95 9.07754
1004.14 8.70362
1004.34 8.34985
1004.53 8.01502
1004.73 7.69802
1004.92 7.39777
1005.12 7.11327
1005.31 6.84357
1005.50 6.58905
1005.74 6.29319
1005.98 6.01665
1006.22 5.75682
1006.46 5.51250
1006.70 5.28258
1006.93 5.06601
1007.17 4.86185
1007.41 4.66922
1007.65 4.48733
1007.89 4.31543
1008.12 4.15285
1008.36 3.99895
1008.84 3.71492
1009.31 3.45924
1009.79 3.22792
1010.27 3.01893
1010.74 2.82916
1011.22 2.65640
1011.70 2.49841
1012.17 2.35418
1012.65 2.22192
1013.12 2.10037
1013.49 2.01306
1013.86 1.93105
1014.23 1.85395
1014.60 1.78138
1014.96 1.71299
1015.33 1.64844
1015.70 1.58743
1016.07 1.52969
1016.80 1.42319
1017.54 1.32738
1018.28 1.24094
1019.01 1.16280
1019.49 1.11598
1019.96 1.07205
1020.44 1.03067
1020.92 0.991660
1021.39 0.954769
1021.87 0.919990
1022.82 0.855960
1023.77 0.798414
1024.73 0.746620
1025.68 0.699793
1026.63 0.657326
1027.58 0.618658
1028.53 0.583428
1029.49 0.551179
1030.44 0.521649
1031.39 0.494489
1032.34 0.469510
1033.30 0.446482
1034.25 0.425250
1035.20 0.405568
1036.15 0.387274
1037.11 0.370241
1038.06 0.354409
1039.01 0.339644
1039.96 0.325886
1040.92 0.313024
1041.87 0.301011
1042.82 0.289758
1043.77 0.279230
1044.73 0.269352
1045.68 0.260097
1046.63 0.251405
1047.58 0.243254
1049.49 0.228417
1051.39 0.215341
1053.30 0.203850
1055.20 0.193803
1057.11 0.185104
1059.01 0.177682
1060.92 0.171521
1062.82 0.166650
1063.77 0.164724
1064.73 0.163160
1066.11 0.161581
1067.50 0.160923
1068.54 0.161102
1069.57 0.161952
1070.61 0.163624
1071.65 0.166259
1072.69 0.170046
1073.21 0.172454
1073.73 0.175252
1074.25 0.178501
1074.77 0.182244
1075.29 0.186563
1075.81 0.191517
1076.33 0.197224
1076.85 0.203784
1077.37 0.211375
1077.89 0.220147
1078.41 0.230354
1078.93 0.242227
1079.19 0.248911
1079.45 0.256154
1079.71 0.264014
1079.96 0.272522
1080.31 0.285114
1080.66 0.299222
1081.00 0.315132
1081.35 0.333152
1081.70 0.353723
1081.87 0.365057
1082.04 0.377199
1082.22 0.390226
1082.39 0.404225
1082.56 0.419295
1082.73 0.435546
1082.97 0.460175
1083.21 0.487567
1083.45 0.518281
1083.69 0.552879
1083.81 0.571844
1083.93 0.592051
1084.04 0.613611
1084.16 0.636651
1084.28 0.661313
1084.40 0.687756
1084.52 0.716161
1084.64 0.746734
1084.81 0.795834
1084.99 0.850616
1085.07 0.880738
1085.16 0.912408
1085.25 0.946539
1085.33 0.982542
1085.42 1.02148
1085.51 1.06321
1085.59 1.10803
1085.68 1.15570
1085.77 1.20772
1085.85 1.26335
1085.94 1.32441
1086.03 1.39010
1086.09 1.43946
1086.14 1.49113
1086.20 1.54716
1086.26 1.60605
1086.32 1.67016
1086.38 1.73782
1086.44 1.81181
1086.50 1.89022
1086.56 1.97637
1086.62 2.06808
1086.68 2.16930
1086.74 2.27755
1086.80 2.39756
1086.86 2.52646
1086.92 2.66994
1086.98 2.82466
1087.03 2.98245
1087.09 3.15151
1087.14 3.33604
1087.19 3.53764
1087.25 3.75805
1087.30 3.99917
1087.36 4.26301
1087.41 4.55177
1087.47 4.87387
1087.52 5.22012
1087.57 5.59870
1087.63 6.01233
1087.68 6.46383
1087.74 6.95610
1087.79 7.49210
1087.84 8.07480
1087.90 8.78064
1087.96 9.53840
1088.02 10.3776
1088.08 11.2736
1088.14 12.2601
1088.20 13.3068
1088.26 14.4515
1088.32 15.6574
1088.36 16.6091
1088.41 17.5824
1088.47 19.0113
1088.53 20.4953
1088.59 22.0819
1088.64 23.7143
1088.70 25.4423
1088.76 27.2019
1088.82 29.0446
1088.88 30.8996
1088.94 32.8191
1089.00 34.7271
1089.12 38.5838
1089.24 42.3527
1089.36 45.9054
1089.45 48.4197
1089.54 50.6655
1089.62 52.3758
1089.70 53.7845
1089.76 54.6280
1089.82 55.2851
1089.88 55.7711
1089.94 56.0643
1090.00 56.1716
1090.09 55.9661
1090.15 55.5486
1090.21 54.9112
1090.28 54.0625
1090.34 53.0314
1090.40 51.9013
1090.46 50.6475
1090.52 49.2399
1090.57 47.7404
1090.63 46.1125
1090.69 44.4266
1090.81 40.8305
1090.93 37.0775
1091.04 33.2857
1091.15 29.7174
1091.27 26.3183
1091.32 24.6751
1091.38 23.0885
1091.43 21.5634
1091.49 20.1295
1091.55 18.6650
1091.61 17.3019
1091.66 16.0161
1091.72 14.8078
1091.78 13.6579
1091.84 12.6042
1091.90 11.6245
1091.95 10.7167
1092.00 10.0883
1092.04 9.50999
1092.08 8.95286
1092.12 8.44149
1092.17 7.95011
1092.21 7.50018
1092.25 7.06879
1092.29 6.67458
1092.34 6.29732
1092.38 5.95315
1092.42 5.62425
1092.46 5.32458
1092.51 5.03851
1092.55 4.77808
1092.59 4.53521
1092.63 4.30876
1092.69 4.01628
1092.75 3.75546
1092.81 3.51469
1092.87 3.29977
1092.93 3.10108
1092.98 2.92336
1093.04 2.76133
1093.10 2.61338
1093.16 2.47582
1093.22 2.35202
1093.28 2.23647
1093.33 2.13205
1093.39 2.03420
1093.45 1.94538
1093.51 1.86313
1093.57 1.78682
1093.63 1.70879
1093.70 1.63658
1093.76 1.56959
1093.82 1.50824
1093.89 1.45011
1093.95 1.39581
1094.01 1.34497
1094.08 1.29801
1094.14 1.25315
1094.21 1.21092
1094.33 1.13406
1094.46 1.06524
1094.59 1.00328
1094.70 0.951461
1094.82 0.904048
1094.94 0.860526
1095.05 0.820784
1095.17 0.783766
1095.29 0.749505
1095.40 0.717722
1095.52 0.688417
1095.64 0.660873
1095.75 0.635166
1095.87 0.611130
1095.99 0.588805
1096.10 0.567677
1096.22 0.547828
1096.34 0.529155
1096.45 0.511709
1096.58 0.493595
1096.71 0.476706
1096.96 0.445713
1097.22 0.418128
1097.47 0.393551
1097.73 0.371384
1097.98 0.351466
1098.24 0.333360
1098.49 0.316971
1098.73 0.303153
1098.96 0.290479
1099.19 0.278725
1099.43 0.267892
1099.66 0.257801
1099.89 0.248462
1100.13 0.239729
1100.36 0.231617
1100.59 0.224005
1100.83 0.216910
1101.29 0.203986
1101.76 0.192561
1102.23 0.182406
1102.59 0.175308
1102.95 0.168785
1103.31 0.162777
1103.67 0.157242
1104.03 0.152103
1104.39 0.147331
1105.11 0.138757
1105.84 0.131255
1106.56 0.124670
1107.28 0.118836
1108.00 0.113652
1108.59 0.109788
1109.19 0.106255
1109.78 0.103010
1110.38 0.100019
1110.97 0.0972496
1111.57 0.0946881
1112.75 0.0900981
1113.94 0.0861085
1115.13 0.0825949
1116.32 0.0794762
1117.51 0.0766973
1118.70 0.0742052
1119.88 0.0719621
1121.07 0.0699304
1122.26 0.0680855
1123.45 0.0664012
1124.64 0.0648610
1127.01 0.0621463
1129.39 0.0598635
1131.77 0.0578848
1134.15 0.0561840
1136.52 0.0547221
1139.24 0.0533025
1141.96 0.0521163
1144.67 0.0511368
1147.39 0.0503441
1150.11 0.0497228
1152.82 0.0492626
1155.54 0.0489557
1158.26 0.0487979
1161.99 0.0488223
1165.73 0.0491244
1169.46 0.0497162
1173.20 0.0506174
1176.93 0.0518489
1180.67 0.0534530
1182.54 0.0544067
1184.40 0.0554754
1186.27 0.0566624
1188.14 0.0579763
1190.85 0.0601465
1193.57 0.0626539
1196.29 0.0655488
1199.00 0.0688881
1201.72 0.0727283
1203.08 0.0748611
1204.44 0.0771713
1205.80 0.0796637
1207.15 0.0823497
1208.51 0.0852494
1209.87 0.0883836
1211.74 0.0931213
1213.61 0.0984180
1215.47 0.104358
1217.34 0.111039
1218.27 0.114698
1219.21 0.118590
1220.14 0.122737
1221.08 0.127158
1222.01 0.131878
1222.94 0.136925
1223.88 0.142327
1224.81 0.148111
1226.09 0.156705
1227.36 0.166193
1228.63 0.176716
1229.91 0.188381
1231.18 0.201393
1231.82 0.208489
1232.45 0.216005
1233.09 0.223994
1233.73 0.232468
1234.36 0.241493
1235.00 0.251088
1235.93 0.266346
1236.87 0.283160
1237.80 0.301746
1238.73 0.322341
1239.67 0.345292
1240.13 0.357756
1240.60 0.370947
1241.07 0.384922
1241.54 0.399745
1242.00 0.415486
1242.47 0.432184
1243.19 0.460215
1243.91 0.491193
1244.63 0.525543
1245.36 0.563700
1245.72 0.584430
1246.08 0.606353
1246.44 0.629569
1246.80 0.654118
1247.16 0.680260
1247.52 0.708061
1247.88 0.737666
1248.24 0.769142
1248.71 0.813162
1249.18 0.861182
1249.64 0.913697
1250.11 0.971288
1250.58 1.03463
1251.04 1.10453
1251.51 1.18191
1251.98 1.26769
1252.27 1.32764
1252.57 1.39180
1252.87 1.46082
1253.17 1.53519
1253.46 1.61578
1253.76 1.70268
1254.06 1.79690
1254.35 1.89928
1254.67 2.01945
1254.99 2.15113
1255.31 2.29633
1255.63 2.45698
1255.95 2.63599
1256.11 2.73275
1256.26 2.83503
1256.42 2.94327
1256.58 3.05795
1256.74 3.17959
1256.90 3.30878
1257.13 3.51399
1257.37 3.73827
1257.48 3.85923
1257.60 3.98627
1257.72 4.11981
1257.83 4.25907
1257.95 4.40695
1258.07 4.56282
1258.19 4.72729
1258.30 4.89947
1258.42 5.08306
1258.53 5.27568
1258.65 5.48154
1258.77 5.69806
1258.91 5.97528
1259.04 6.27155
1259.18 6.59105
1259.32 6.93632
1259.46 7.31032
1259.60 7.71640
1259.67 7.93267
1259.73 8.15847
1259.80 8.39438
1259.87 8.64104
1259.99 9.08580
1260.11 9.56716
1260.22 10.0894
1260.34 10.6523
1260.40 10.9576
1260.46 11.2713
1260.51 11.5992
1260.57 11.9422
1260.63 12.3076
1260.69 12.6841
1260.75 13.0788
1260.81 13.4930
1260.86 13.9357
1260.92 14.3932
1260.98 14.8829
1261.04 15.3900
1261.10 15.9336
1261.16 16.4974
1261.21 17.0923
1261.27 17.7206
1261.33 18.3964
1261.39 19.0995
1261.45 19.8568
1261.51 20.6458
1261.57 21.4969
1261.62 22.3846
1261.68 23.3266
1261.74 24.3267
1261.80 25.3511
1261.85 26.4371
1261.91 27.5889
1261.96 28.7880
1262.02 30.0825
1262.07 31.4556
1262.13 32.9120
1262.19 34.4282
1262.24 36.0640
1262.30 37.7977
1262.35 39.6341
1262.41 41.5427
1262.46 43.5977
1262.52 45.7701
1262.58 48.0646
1262.63 50.4411
1262.69 53.1305
1262.75 55.9197
1262.81 58.8565
1262.86 61.9439
1262.92 65.2412
1262.98 68.6379
1263.04 72.1889
1263.10 75.8932
1263.16 79.8167
1263.21 83.8230
1263.27 88.0451
1263.33 92.3336
1263.45 101.366
1263.56 110.753
1263.68 120.543
1263.80 130.514
1264.03 150.224
1264.17 161.672
1264.32 172.082
1264.39 176.807
1264.46 181.149
1264.53 185.066
1264.60 188.515
1264.70 192.513
1264.80 195.428
1264.90 197.197
1265.00 197.781
1265.05 197.623
1265.13 196.719
1265.21 195.049
1265.29 192.633
1265.38 189.505
1265.46 185.658
1265.54 181.238
1265.62 176.264
1265.70 170.799
1265.79 164.387
1265.88 157.651
1266.05 143.267
1266.23 128.357
1266.40 113.641
1266.49 106.084
1266.58 98.8420
1266.67 91.8802
1266.76 85.2367
1266.86 78.8725
1266.95 72.9449
1267.04 67.3932
1267.13 62.2205
1267.22 57.3726
1267.31 52.9461
1267.40 48.8303
1267.50 45.0982
1267.59 41.6487
1267.68 38.5362
1267.77 35.7007
1267.86 33.1206
1267.91 31.7018
1267.97 30.3612
1268.02 29.0947
1268.08 27.8983
1268.13 26.7678
1268.18 25.6997
1268.24 24.6902
1268.29 23.7358
1268.35 22.8332
1268.40 21.9794
1268.45 21.1713
1268.51 20.4060
1268.62 18.9938
1268.72 17.7232
1268.82 16.7397
1268.91 15.8465
1269.00 15.0246
1269.09 14.2667
1269.18 13.5590
1269.27 12.9111
1269.36 12.3102
1269.45 11.7517
1269.55 11.2262
1269.64 10.7415
1269.73 10.2886
1269.82 9.86472
1269.91 9.46314
1270.00 9.09035
1270.09 8.73985
1270.18 8.40985
1270.28 8.09543
1270.37 7.80195
1270.46 7.52163
1270.55 7.25936
1270.73 6.77283
1270.92 6.33702
1271.10 5.94082
1271.28 5.58142
1271.46 5.25433
1271.65 4.95728
1271.80 4.73135
1271.95 4.52216
1272.10 4.32552
1272.24 4.14283
1272.39 3.97056
1272.54 3.81002
1272.69 3.65818
1272.84 3.51630
1272.99 3.38175
1273.14 3.25571
1273.29 3.13589
1273.44 3.02339
1273.74 2.81536
1274.04 2.62892
1274.22 2.52357
1274.40 2.42451
1274.59 2.33123
1274.77 2.24378
1274.95 2.16077
1275.13 2.08235
1275.50 1.93833
1275.87 1.80859
1276.23 1.69193
1276.60 1.58636
1276.96 1.49051
1277.36 1.39549
1277.76 1.30962
1278.16 1.23140
1278.55 1.16029
1278.95 1.09514
1279.35 1.03561
1279.75 0.980796
1280.15 0.930443
1280.51 0.887563
1280.88 0.847755
1281.25 0.810536
1281.61 0.775880
1281.98 0.743389
1282.34 0.713055
1282.71 0.684621
1283.07 0.657936
1283.44 0.632796
1283.80 0.609217
1284.17 0.587017
1284.53 0.566095
1284.90 0.546310
1285.26 0.527686
1285.99 0.493469
1286.72 0.462836
1287.46 0.435417
1288.19 0.410873
1288.92 0.388968
1289.65 0.369445
1290.38 0.352237
1291.11 0.337258
1291.84 0.324622
1292.44 0.316153
1293.03 0.309643
1293.33 0.307249
1293.63 0.305534
1293.93 0.304608
1294.23 0.304623
1294.55 0.305890
1294.86 0.308775
1295.18 0.313816
1295.34 0.317387
1295.49 0.321817
1295.65 0.327368
1295.81 0.334300
1295.97 0.343016
1296.12 0.354014
1296.28 0.368262
1296.44 0.386765
1296.52 0.398223
1296.60 0.411474
1296.68 0.426847
1296.75 0.444486
1296.83 0.464163
1296.90 0.486959
1296.98 0.513396
1297.05 0.543626
1297.13 0.579129
1297.20 0.620280
1297.28 0.667915
1297.35 0.722169
1297.43 0.785501
1297.50 0.858309
1297.58 0.941741
1297.65 1.03565
1297.73 1.14379
1297.76 1.20232
1297.80 1.26449
1297.84 1.33227
1297.87 1.40225
1297.91 1.47629
1297.95 1.55453
1297.99 1.65785
1298.04 1.76811
1298.09 1.88549
1298.13 2.00740
1298.18 2.13941
1298.22 2.27900
1298.27 2.42625
1298.31 2.57774
1298.36 2.74019
1298.41 2.91027
1298.45 3.08783
1298.50 3.26862
1298.59 3.65460
1298.68 4.06558
1298.78 4.54162
1298.88 5.03698
1299.08 6.04773
1299.22 6.74918
1299.29 7.08638
1299.36 7.40295
1299.45 7.78436
1299.54 8.12396
1299.63 8.40527
1299.72 8.63166
1299.78 8.76239
1299.84 8.85965
1299.92 8.93514
1300.00 8.95967
1300.03 8.95665
1300.10 8.91332
1300.18 8.81940
1300.27 8.65930
1300.35 8.44333
1300.39 8.34962
1300.47 8.05765
1300.56 7.72464
1300.62 7.47290
1300.68 7.20588
1300.80 6.64092
1301.15 4.86550
1301.23 4.47053
1301.31 4.08840
1301.39 3.72236
1301.47 3.37926
1301.55 3.05239
1301.63 2.75126
1301.67 2.60727
1301.71 2.46906
1301.75 2.33666
1301.79 2.21316
1301.84 2.06867
1301.88 1.93240
1301.93 1.80419
1301.98 1.68628
1302.02 1.58256
1302.07 1.48509
1302.11 1.39367
1302.15 1.30806
1302.20 1.22803
1302.24 1.15336
1302.29 1.08377
1302.33 1.02046
1302.37 0.960216
1302.42 0.904322
1302.46 0.852528
1302.50 0.805637
1302.55 0.761234
1302.59 0.720219
1302.68 0.648222
1302.77 0.586308
1302.85 0.534371
1302.94 0.489835
1303.03 0.452508
1303.12 0.420461
1303.20 0.393512
1303.29 0.370248
1303.38 0.350535
1303.47 0.332634
1303.56 0.317228
1303.66 0.303873
1303.75 0.292326
1303.93 0.273004
1304.11 0.257545
1304.30 0.244825
1304.48 0.234108
1304.66 0.224902
1304.84 0.216870
1305.03 0.209739
1305.21 0.203412
1305.58 0.192558
1305.94 0.183533
1306.31 0.175865
1306.76 0.167899
1307.20 0.161082
1307.65 0.155148
1308.09 0.149910
1308.54 0.145232
1308.99 0.141014
1309.43 0.137181
1309.88 0.133680
1310.77 0.127456
1311.66 0.122064
1312.55 0.117328
1313.44 0.113144
1314.46 0.108930
1315.48 0.105258
1316.50 0.102076
1317.52 0.0993636
1318.54 0.0971227
1319.56 0.0953825
1320.58 0.0942016
1321.60 0.0936830
1322.30 0.0938088
1323.00 0.0944382
1323.70 0.0957058
1324.40 0.0978040
1325.10 0.101038
1325.45 0.103220
1325.80 0.105874
1326.15 0.109122
1326.50 0.113086
1326.85 0.117968
1327.20 0.124033
1327.49 0.130152
1327.78 0.137616
1328.06 0.146852
1328.35 0.158457
1328.49 0.165512
1328.64 0.173560
1328.78 0.182901
1328.92 0.193885
1329.07 0.207093
1329.21 0.223017
1329.35 0.242675
1329.50 0.267362
1329.58 0.285800
1329.67 0.307329
1329.76 0.332582
1329.85 0.361941
1329.93 0.396955
1330.02 0.437835
1330.11 0.486697
1330.20 0.543756
1330.28 0.611841
1330.33 0.650317
1330.37 0.691065
1330.42 0.736213
1330.46 0.785100
1330.50 0.837981
1330.55 0.893771
1330.59 0.955330
1330.63 1.02168
1330.68 1.09311
1330.72 1.16808
1330.77 1.25035
1330.81 1.33851
1330.85 1.43284
1330.90 1.53123
1330.94 1.63850
1330.98 1.75267
1331.03 1.87396
1331.07 2.00255
1331.12 2.13862
1331.16 2.28232
1331.20 2.43374
1331.25 2.58926
1331.29 2.75613
1331.34 2.93083
1331.38 3.11329
1331.42 3.29899
1331.47 3.49643
1331.51 3.70114
1331.60 4.12620
1331.65 4.41297
1331.71 4.70892
1331.82 5.31811
1332.04 6.58562
1332.19 7.44330
1332.27 7.85351
1332.35 8.23887
1332.43 8.65912
1332.52 9.03693
1332.61 9.36101
1332.70 9.62911
1332.78 9.82126
1332.86 9.95763
1332.93 10.0312
1333.00 10.0550
1333.01 10.0541
1333.05 10.0414
1333.09 10.0146
1333.17 9.91862
1333.23 9.80956
1333.29 9.67287
1333.37 9.43889
1333.45 9.16001
1333.54 8.78186
1333.63 8.35460
1333.70 8.01793
1333.76 7.66403
1333.90 6.92557
1334.08 5.87702
1334.17 5.35523
1334.26 4.85264
1334.36 4.36447
1334.45 3.90146
1334.49 3.68066
1334.54 3.46753
1334.59 3.26238
1334.63 3.06544
1334.68 2.87689
1334.72 2.69682
1334.77 2.52530
1334.82 2.36231
1334.86 2.20780
1334.91 2.06166
1334.95 1.92376
1335.00 1.79391
1335.04 1.68739
1335.08 1.58664
1335.12 1.49149
1335.16 1.40395
1335.20 1.31935
1335.24 1.23979
1335.28 1.16507
1335.32 1.09669
1335.36 1.03094
1335.40 0.969419
1335.44 0.911919
1335.48 0.859530
1335.56 0.763753
1335.63 0.680569
1335.71 0.607691
1335.79 0.545581
1335.87 0.492025
1335.95 0.445894
1336.03 0.405712
1336.11 0.371572
1336.19 0.342137
1336.27 0.316715
1336.37 0.289108
1336.47 0.266228
1336.57 0.246934
1336.67 0.230541
1336.77 0.216368
1336.87 0.204250
1337.07 0.184397
1337.27 0.168735
1337.47 0.156136
1337.67 0.145648
1337.87 0.136839
1338.07 0.129289
1338.27 0.122742
1338.47 0.116984
1338.67 0.111930
1339.07 0.103406
1339.51 0.0960061
1339.94 0.0900228
1340.38 0.0850821
1340.81 0.0809394
1341.25 0.0774134
1341.68 0.0743929
1342.11 0.0717738
1342.55 0.0694831
1343.42 0.0656694
1344.29 0.0626300
1345.15 0.0601354
1346.02 0.0580511
1346.96 0.0561584
1347.89 0.0545576
1348.83 0.0531859
1349.76 0.0520030
1351.64 0.0500789
1353.51 0.0486177
1355.38 0.0475317
1357.25 0.0467335
1359.12 0.0462031
1360.99 0.0459301
1362.73 0.0459056
1364.46 0.0461055
1366.20 0.0465364
1367.94 0.0472510
1369.67 0.0482773
1371.41 0.0496647
1373.15 0.0514846
1374.89 0.0538348
1375.89 0.0554840
1376.89 0.0573850
1377.89 0.0595776
1378.89 0.0621065
1379.90 0.0650388
1380.90 0.0684543
1381.90 0.0724512
1382.90 0.0771493
1383.64 0.0811310
1384.37 0.0856525
1385.11 0.0908101
1385.84 0.0967229
1386.58 0.103539
1387.31 0.111445
1388.05 0.120676
1388.42 0.125873
1388.78 0.131523
1389.15 0.137698
1389.52 0.144429
1389.89 0.151826
1390.25 0.159934
1390.62 0.168896
1390.99 0.178778
1391.36 0.189774
1391.72 0.201987
1392.09 0.215681
1392.46 0.231022
1392.83 0.248383
1393.19 0.268028
1393.38 0.278887
1393.56 0.290506
1393.74 0.302958
1393.93 0.316249
1394.11 0.330619
1394.30 0.346103
1394.48 0.362821
1394.66 0.380810
1394.90 0.406039
1395.13 0.434129
1395.36 0.465543
1395.60 0.500847
1395.72 0.520170
1395.83 0.540738
1395.95 0.562667
1396.07 0.586084
1396.18 0.611134
1396.30 0.637979
1396.42 0.666807
1396.53 0.697553
1396.63 0.723628
1396.72 0.751342
1396.81 0.780847
1396.90 0.812314
1396.99 0.845936
1397.09 0.881933
1397.18 0.920560
1397.27 0.961636
1397.36 1.00640
1397.45 1.05480
1397.54 1.10729
1397.64 1.16441
1397.73 1.22677
1397.82 1.29510
1397.91 1.37028
1398.00 1.45236
1398.06 1.51022
1398.12 1.57108
1398.18 1.63743
1398.24 1.70744
1398.30 1.78403
1398.35 1.86512
1398.41 1.95411
1398.47 2.04862
1398.53 2.15265
1398.59 2.26345
1398.65 2.38571
1398.71 2.51623
1398.76 2.66056
1398.82 2.81490
1398.88 2.98278
1398.94 3.16549
1398.98 3.32183
1399.03 3.48908
1399.08 3.66800
1399.12 3.85937
1399.17 4.06404
1399.21 4.28286
1399.26 4.51672
1399.31 4.76656
1399.35 5.03332
1399.40 5.31796
1399.44 5.62148
1399.49 5.94486
1399.54 6.28910
1399.58 6.65520
1399.63 7.04414
1399.67 7.44766
1399.72 7.84561
1399.76 8.26487
1399.80 8.70608
1399.84 9.15855
1399.88 9.64491
1399.92 10.1549
1399.97 10.6890
1400.01 11.2339
1400.05 11.8166
1400.09 12.4243
1400.13 13.0570
1400.17 13.6989
1400.22 14.3811
1400.26 15.0880
1400.34 16.5564
1400.39 17.4097
1400.43 18.2899
1400.53 20.1260
1400.62 22.0518
1400.71 24.0511
1400.80 26.1036
1400.89 28.1857
1401.08 32.3066
1401.20 35.0250
1401.33 37.5305
1401.42 39.2042
1401.51 40.6979
1401.62 42.2190
1401.68 42.8562
1401.73 43.3906
1401.80 43.9134
1401.87 44.2898
1401.93 44.5156
1402.00 44.5883
1402.05 44.5456
1402.13 44.2997
1402.21 43.8462
1402.29 43.1904
1402.37 42.3426
1402.45 41.2451
1402.53 39.9804
1402.62 38.5388
1402.70 36.9776
1402.79 35.2417
1402.87 33.4340
1402.96 31.5613
1403.04 29.6491
1403.21 25.8023
1403.38 22.0670
1403.51 19.4924
1403.57 18.2673
1403.63 17.0888
1403.69 15.9600
1403.75 14.8829
1403.82 13.8591
1403.88 12.9048
1403.92 12.2638
1403.96 11.6490
1404.01 11.0603
1404.05 10.5102
1404.09 9.97221
1404.13 9.47089
1404.18 8.98190
1404.22 8.52743
1404.26 8.08524
1404.30 7.67524
1404.35 7.27721
1404.39 6.90895
1404.43 6.55216
1404.47 6.22270
1404.52 5.90407
1404.56 5.61033
1404.60 5.32669
1404.64 5.05955
1404.69 4.80809
1404.73 4.57688
1404.77 4.35413
1404.81 4.14949
1404.86 3.95249
1404.90 3.77162
1404.94 3.59758
1404.98 3.43416
1405.03 3.28070
1405.07 3.13986
1405.11 3.00435
1405.15 2.87994
1405.20 2.76020
1405.24 2.65022
1405.28 2.54429
1405.33 2.44467
1405.37 2.35094
1405.41 2.26470
1405.45 2.18147
1405.50 2.10479
1405.54 2.03070
1405.58 1.96234
1405.67 1.83506
1405.75 1.72099
1405.84 1.61839
1405.92 1.52579
1406.01 1.44191
1406.09 1.36566
1406.18 1.29610
1406.26 1.23242
1406.35 1.17394
1406.43 1.12006
1406.52 1.07026
1406.60 1.02412
1406.69 0.980757
1406.77 0.940853
1406.86 0.903598
1406.94 0.868743
1407.03 0.836067
1407.11 0.805379
1407.20 0.776509
1407.28 0.749304
1407.45 0.699091
1407.62 0.654409
1407.79 0.614207
1407.96 0.577880
1408.09 0.552021
1408.23 0.527993
1408.36 0.505622
1408.49 0.484907
1408.62 0.465395
1408.75 0.447265
1409.02 0.414164
1409.28 0.384884
1409.54 0.358846
1409.80 0.335580
1410.07 0.314699
1410.41 0.290661
1410.75 0.269590
1411.09 0.250908
1411.43 0.234358
1411.77 0.219543
1412.11 0.206302
1412.45 0.194351
1412.79 0.183591
1413.29 0.169668
1413.78 0.157554
1414.28 0.146926
1414.77 0.137550
1415.27 0.129218
1415.76 0.121811
1416.26 0.115184
1416.75 0.109234
1417.43 0.101999
1418.12 0.0956973
1418.80 0.0901797
1419.48 0.0853259
1420.16 0.0810383
1420.84 0.0772370
1421.52 0.0738566
1422.20 0.0708480
1422.82 0.0683865
1423.44 0.0661651
1424.68 0.0623228
1425.92 0.0591518
1427.15 0.0565395
1428.39 0.0543956
1429.63 0.0526494
1430.87 0.0512466
1432.11 0.0501458
1433.10 0.0494605
1434.09 0.0489367
1435.08 0.0485667
1436.07 0.0483490
1437.68 0.0482854
1439.29 0.0485599
1440.90 0.0491814
1442.51 0.0502015
1444.12 0.0516474
1445.73 0.0535699
1447.34 0.0560580
1448.14 0.0575519
1448.94 0.0592373
1449.81 0.0613014
1450.68 0.0636596
1451.55 0.0663608
1452.41 0.0694718
1453.28 0.0730983
1454.14 0.0773578
1455.01 0.0824301
1455.88 0.0885500
1456.44 0.0932164
1456.99 0.0985977
1457.55 0.104888
1458.11 0.112343
1458.66 0.121350
1458.94 0.126593
1459.22 0.132426
1459.50 0.139009
1459.78 0.146445
1460.06 0.154981
1460.34 0.164813
1460.63 0.177083
1460.92 0.191778
1461.22 0.209835
1461.37 0.220552
1461.51 0.232732
1461.66 0.246737
1461.81 0.263058
1461.95 0.282370
1462.10 0.305597
1462.25 0.334008
1462.39 0.369332
1462.47 0.390439
1462.54 0.413901
1462.62 0.440777
1462.69 0.470808
1462.77 0.507354
1462.84 0.548640
1462.92 0.596550
1463.00 0.650746
1463.08 0.713640
1463.15 0.784710
1463.23 0.865883
1463.31 0.958422
1463.39 1.06513
1463.46 1.18471
1463.50 1.25113
1463.54 1.31990
1463.58 1.39480
1463.62 1.47219
1463.66 1.55634
1463.69 1.64544
1463.73 1.73970
1463.77 1.83667
1463.81 1.94162
1463.85 2.04934
1463.89 2.16565
1463.93 2.28472
1463.97 2.42646
1464.01 2.57577
1464.05 2.73281
1464.10 2.89374
1464.14 3.06630
1464.18 3.24252
1464.22 3.43078
1464.27 3.62230
1464.31 3.82612
1464.35 4.03766
1464.44 4.47779
1464.52 4.94547
1464.61 5.43800
1464.71 6.05059
1464.81 6.67935
1465.01 7.97285
1465.16 8.95125
1465.24 9.41532
1465.32 9.85693
1465.35 10.0271
1465.44 10.4718
1465.52 10.8663
1465.61 11.2088
1465.69 11.4932
1465.77 11.7052
1465.85 11.8546
1465.93 11.9382
1466.00 11.9659
1466.08 11.9325
1466.17 11.8258
1466.25 11.6479
1466.35 11.3629
1466.45 11.0012
1466.55 10.5643
1466.64 10.0712
1466.75 9.47655
1466.86 8.83831
1467.05 7.59495
1467.25 6.35201
1467.32 5.88275
1467.40 5.43362
1467.47 5.00130
1467.55 4.58821
1467.62 4.19118
1467.70 3.82208
1467.77 3.47648
1467.85 3.15489
1467.91 2.92272
1467.96 2.70853
1468.02 2.50458
1468.08 2.31762
1468.14 2.14072
1468.19 1.97952
1468.25 1.82787
1468.31 1.69046
1468.37 1.56188
1468.42 1.44596
1468.48 1.33802
1468.54 1.24117
1468.60 1.15137
1468.65 1.07112
1468.71 0.997007
1468.77 0.931007
1468.82 0.874239
1468.88 0.823538
1468.93 0.777408
1468.98 0.735473
1469.04 0.697380
1469.09 0.662799
1469.14 0.631420
1469.19 0.602954
1469.30 0.553298
1469.41 0.512855
1469.51 0.479527
1469.62 0.451993
1469.73 0.428976
1469.83 0.410018
1469.94 0.394172
1470.04 0.380870
1470.15 0.369656
1470.26 0.360170
1470.47 0.345286
1470.68 0.334515
1470.89 0.326893
1471.11 0.321651
1471.32 0.318374
1471.51 0.316793
1471.71 0.316399
1471.90 0.317061
1472.10 0.318678
1472.29 0.321177
1472.49 0.324500
1472.88 0.333448
1473.27 0.345385
1473.66 0.360218
1473.85 0.368776
1474.05 0.378110
1474.24 0.388248
1474.44 0.399166
1474.63 0.411018
1474.83 0.423799
1475.02 0.437565
1475.21 0.452302
1475.41 0.468236
1475.60 0.485378
1475.80 0.503821
1475.99 0.523568
1476.19 0.544944
1476.38 0.567989
1476.58 0.592859
1476.77 0.619589
1476.97 0.648658
1477.16 0.680166
1477.36 0.714378
1477.55 0.751404
1477.69 0.780595
1477.84 0.811724
1477.98 0.844965
1478.12 0.880253
1478.26 0.918304
1478.40 0.958824
1478.54 1.00266
1478.68 1.04951
1478.88 1.12040
1479.07 1.19938
1479.17 1.24252
1479.27 1.28775
1479.37 1.33620
1479.46 1.38712
1479.56 1.44183
1479.66 1.49949
1479.76 1.56163
1479.85 1.62733
1479.95 1.69838
1480.05 1.77380
1480.15 1.85480
1480.24 1.94198
1480.32 2.01901
1480.40 2.10114
1480.48 2.18885
1480.56 2.28145
1480.64 2.38190
1480.72 2.48972
1480.80 2.60568
1480.88 2.72900
1480.96 2.86372
1481.04 3.00941
1481.12 3.16723
1481.20 3.33627
1481.28 3.52225
1481.36 3.72208
1481.44 3.94260
1481.52 4.18020
1481.57 4.33837
1481.62 4.50545
1481.67 4.68198
1481.71 4.86465
1481.76 5.06166
1481.81 5.26995
1481.86 5.49018
1481.91 5.71816
1481.96 5.96410
1482.01 6.22409
1482.06 6.49891
1482.10 6.78324
1482.15 7.08970
1482.20 7.40654
1482.25 7.74777
1482.30 8.10021
1482.35 8.47935
1482.40 8.87884
1482.44 9.29945
1482.49 9.73270
1482.54 10.1973
1482.59 10.6853
1482.64 11.1971
1482.69 11.7223
1482.74 12.2831
1482.79 12.8695
1482.83 13.4816
1482.88 14.1066
1482.93 14.7705
1482.98 15.4464
1483.03 16.1623
1483.08 16.8887
1483.13 17.6556
1483.17 18.4476
1483.27 20.0864
1483.37 21.8314
1483.47 23.6364
1483.56 25.5251
1483.66 27.4424
1483.86 31.3401
1484.05 35.1831
1484.15 37.0186
1484.25 38.7342
1484.36 40.6450
1484.48 42.3165
1484.60 43.7042
1484.72 44.7622
1484.79 45.2369
1484.86 45.5789
1484.93 45.7847
1485.00 45.8520
1485.08 45.7544
1485.15 45.5377
1485.22 45.2002
1485.28 44.7449
1485.35 44.1760
1485.42 43.4989
1485.49 42.7197
1485.55 41.8453
1485.62 40.8836
1485.74 38.9857
1485.86 36.9062
1485.97 34.6806
1486.09 32.3595
1486.33 27.6025
1486.45 25.2532
1486.57 22.9977
1486.69 20.8265
1486.80 18.7976
1486.86 17.8184
1486.92 16.8920
1486.98 16.0026
1487.04 15.1509
1487.09 14.4046
1487.15 13.6902
1487.20 13.0075
1487.26 12.3562
1487.31 11.7359
1487.36 11.1459
1487.42 10.5856
1487.47 10.0542
1487.53 9.55075
1487.58 9.07438
1487.63 8.62409
1487.69 8.19884
1487.74 7.79757
1487.80 7.41923
1487.85 7.06272
1487.90 6.73302
1487.96 6.38264
1488.02 6.06046
1488.08 5.75415
1488.14 5.47264
1488.20 5.20507
1488.26 4.95917
1488.32 4.72917
1488.38 4.51400
1488.44 4.30932
1488.50 4.12098
1488.56 3.94455
1488.62 3.77917
1488.68 3.62149
1488.73 3.47602
1488.79 3.33935
1488.85 3.21084
1488.92 3.06617
1488.99 2.93334
1489.06 2.80940
1489.13 2.69359
1489.20 2.58523
1489.27 2.48370
1489.34 2.38843
1489.41 2.29891
1489.48 2.21468
1489.55 2.13531
1489.62 2.06043
1489.69 1.98970
1489.83 1.85944
1489.97 1.74236
1490.09 1.65185
1490.21 1.56930
1490.33 1.49251
1490.45 1.42211
1490.57 1.35630
1490.68 1.29567
1490.80 1.23876
1490.92 1.18612
1491.04 1.13652
1491.16 1.09047
1491.28 1.04694
1491.40 1.00640
1491.51 0.967954
1491.63 0.932056
1491.75 0.897919
1491.87 0.865960
1492.11 0.806675
1492.34 0.753707
1492.58 0.705980
1492.82 0.662812
1493.06 0.623632
1493.29 0.587957
1493.53 0.555375
1493.77 0.525535
1493.97 0.501701
1494.18 0.479518
1494.38 0.458837
1494.59 0.439612
1494.79 0.421537
1495.00 0.404603
1495.20 0.388713
1495.40 0.373853
1495.61 0.359802
1495.81 0.346564
1496.22 0.322347
1496.63 0.300653
1497.04 0.281235
1497.52 0.261082
1497.99 0.243183
1498.47 0.227177
1498.94 0.212807
1499.41 0.199831
1499.89 0.188122
1500.36 0.177498
1500.84 0.167829
1501.53 0.155239
1502.22 0.144162
1502.91 0.134368
1503.60 0.125674
1504.29 0.117896
1504.98 0.110923
1505.67 0.104651
1506.35 0.0990033
1507.30 0.0920962
1508.25 0.0860633
1509.20 0.0807646
1510.15 0.0761097
1511.10 0.0720075
1512.05 0.0684019
1512.99 0.0652353
1513.94 0.0624768
1515.32 0.0591354
1516.70 0.0565732
1518.08 0.0548299
1518.77 0.0543081
1519.46 0.0540623
1520.19 0.0541614
1520.93 0.0547245
1521.66 0.0558957
1522.39 0.0579006
1523.13 0.0611150
1523.49 0.0633722
1523.86 0.0662170
1524.23 0.0698531
1524.59 0.0745386
1524.96 0.0807204
1525.32 0.0891640
1525.58 0.0972699
1525.84 0.108199
1525.97 0.115244
1526.10 0.123661
1526.23 0.133917
1526.36 0.146555
1526.46 0.158825
1526.56 0.173355
1526.67 0.190970
1526.77 0.211961
1526.87 0.237500
1526.97 0.267965
1527.08 0.304575
1527.18 0.348456
1527.28 0.401416
1527.38 0.463797
1527.43 0.499869
1527.49 0.538301
1527.54 0.579947
1527.59 0.624996
1527.64 0.674628
1527.69 0.727121
1527.74 0.783575
1527.79 0.844161
1527.84 0.909042
1527.89 0.978365
1527.95 1.05227
1528.00 1.13086
1528.05 1.21592
1528.10 1.30425
1528.15 1.39747
1528.20 1.49560
1528.25 1.60068
1528.30 1.70861
1528.36 1.82126
1528.41 1.93850
1528.46 2.06256
1528.51 2.18845
1528.61 2.45159
1528.71 2.73024
1528.82 3.01547
1529.04 3.66107
1529.16 3.97423
1529.27 4.27158
1529.39 4.55650
1529.45 4.68641
1529.51 4.80652
1529.60 4.97191
1529.69 5.10634
1529.75 5.17665
1529.81 5.23296
1529.89 5.28556
1529.96 5.31131
1530.00 5.31402
1530.03 5.31255
1530.10 5.28999
1530.18 5.24130
1530.28 5.14296
1530.33 5.08260
1530.41 4.96582
1530.51 4.77361
1530.62 4.54814
1530.71 4.31783
1530.81 4.07205
1530.90 3.81326
1531.00 3.54622
1531.16 3.08468
1531.32 2.63273
1531.40 2.41574
1531.48 2.20705
1531.56 2.00803
1531.64 1.81976
1531.73 1.64090
1531.81 1.47635
1531.89 1.32409
1531.97 1.18417
1532.05 1.05641
1532.13 0.940473
1532.21 0.835896
1532.29 0.742091
1532.37 0.658398
1532.46 0.584102
1532.54 0.518455
1532.62 0.460703
1532.70 0.410096
1532.78 0.365907
1532.86 0.327441
1532.94 0.294043
1533.03 0.263453
1533.11 0.237227
1533.20 0.214762
1533.29 0.195524
1533.37 0.179038
1533.46 0.164892
1533.63 0.142343
1533.80 0.125324
1533.97 0.112394
1534.14 0.102232
1534.31 0.0941535
1534.49 0.0875060
1534.66 0.0819573
1535.00 0.0731968
1535.34 0.0665254
1535.69 0.0612538
1535.97 0.0576322
1536.26 0.0545480
1536.83 0.0495788
1537.40 0.0457565
1537.98 0.0427326
1538.55 0.0402874
1539.12 0.0382746
1540.26 0.0351617
1541.41 0.0328525
1542.55 0.0310601
1543.70 0.0296302
1544.84 0.0284630
1546.97 0.0267645
1549.11 0.0254904
1551.25 0.0244982
1553.38 0.0237088
1555.52 0.0230768
1557.65 0.0225568
1559.79 0.0221323
1561.92 0.0217898
1564.97 0.0214203
1568.02 0.0211719
1571.08 0.0210290
1574.13 0.0209818
1577.79 0.0210431
1581.45 0.0212273
1585.11 0.0215470
1588.77 0.0219691
1592.43 0.0225270
1596.09 0.0232310
1599.75 0.0240917
1603.41 0.0251275
1606.62 0.0261987
1609.82 0.0274449
1613.02 0.0288939
1616.23 0.0305790
1619.43 0.0325433
1622.63 0.0348383
1624.23 0.0361322
1625.84 0.0375339
1627.44 0.0390519
1629.04 0.0406983
1630.72 0.0425941
1632.39 0.0446762
1634.07 0.0469665
1635.75 0.0494907
1637.43 0.0522839
1639.11 0.0553825
1640.78 0.0588313
1642.46 0.0626813
1644.06 0.0667946
1645.66 0.0714014
1647.27 0.0765829
1648.87 0.0824337
1649.67 0.0856500
1650.47 0.0890818
1651.27 0.0927488
1652.07 0.0966725
1652.87 0.100876
1653.67 0.105383
1654.47 0.110221
1655.27 0.115424
1656.11 0.121329
1656.95 0.127746
1657.79 0.134731
1658.63 0.142348
1659.47 0.150677
1660.31 0.159808
1661.15 0.169848
1661.99 0.180909
1662.82 0.193164
1663.66 0.206774
1664.50 0.221947
1664.92 0.230206
1665.34 0.238933
1665.76 0.248209
1666.18 0.258034
1666.60 0.268501
1667.02 0.279615
1667.44 0.291488
1667.86 0.304128
1668.28 0.317668
1668.70 0.332124
1669.23 0.352061
1669.77 0.373894
1670.30 0.397873
1670.83 0.424300
1671.37 0.453532
1671.90 0.485988
1672.44 0.522160
1672.70 0.541819
1672.97 0.562556
1673.39 0.597865
1673.81 0.636587
1674.23 0.679388
1674.65 0.726634
1675.07 0.779225
1675.28 0.807733
1675.49 0.837718
1675.70 0.869595
1675.90 0.903197
1676.11 0.939000
1676.32 0.976830
1676.69 1.04831
1676.87 1.08697
1677.05 1.12786
1677.23 1.17139
1677.41 1.21728
1677.59 1.26597
1677.77 1.31770
1677.96 1.37306
1678.14 1.43171
1678.32 1.49430
1678.50 1.56118
1678.68 1.63276
1678.86 1.70951
1679.04 1.79196
1679.22 1.88069
1679.43 1.99240
1679.64 2.11469
1679.85 2.24898
1680.06 2.39620
1680.27 2.55973
1680.48 2.74037
1680.69 2.94270
1680.80 3.05275
1680.90 3.16824
1681.01 3.30413
1681.13 3.44811
1681.24 3.60363
1681.36 3.76904
1681.53 4.04247
1681.62 4.19124
1681.70 4.34897
1681.79 4.51643
1681.87 4.69451
1681.96 4.88420
1682.04 5.08417
1682.13 5.30035
1682.22 5.53187
1682.30 5.78030
1682.39 6.04420
1682.47 6.33176
1682.56 6.64227
1682.65 6.97828
1682.73 7.33828
1682.78 7.57817
1682.84 7.82601
1682.89 8.09222
1682.94 8.36768
1682.99 8.66402
1683.05 8.97112
1683.10 9.30197
1683.15 9.64530
1683.20 10.0157
1683.26 10.4005
1683.31 10.8161
1683.36 11.2483
1683.41 11.7156
1683.47 12.2020
1683.52 12.7179
1683.57 13.2653
1683.62 13.8577
1683.67 14.4749
1683.73 15.1430
1683.78 15.8390
1683.83 16.5923
1683.88 17.3768
1683.94 18.2255
1683.99 19.1090
1684.04 20.0639
1684.09 21.0570
1684.15 22.1292
1684.20 23.2429
1684.25 24.4437
1684.30 25.6890
1684.36 27.0033
1684.41 28.3893
1684.46 29.8780
1684.51 31.4157
1684.57 33.0635
1684.62 34.7612
1684.67 36.5758
1684.72 38.4401
1684.78 40.3886
1684.83 42.4220
1684.88 44.5821
1684.93 46.7873
1684.99 49.1216
1685.04 51.4961
1685.09 54.0001
1685.14 56.5371
1685.20 59.2016
1685.25 61.8897
1685.35 67.5235
1685.46 73.3971
1685.56 79.4586
1685.67 85.5861
1685.88 98.0360
1685.98 104.129
1686.09 109.956
1686.19 115.532
1686.30 120.702
1686.40 125.370
1686.51 129.448
1686.62 133.141
1686.73 135.918
1686.85 137.748
1686.96 138.584
1687.00 138.637
1687.08 138.399
1687.14 137.872
1687.20 137.049
1687.26 135.938
1687.33 134.545
1687.45 130.961
1687.57 126.439
1687.65 122.950
1687.74 119.178
1687.82 115.073
1687.90 110.780
1688.04 103.107
1688.17 95.1012
1688.45 78.8961
1688.59 70.6538
1688.73 62.8110
1688.81 59.0770
1688.88 55.4833
1688.95 52.0385
1689.02 48.7936
1689.09 45.6617
1689.17 42.6919
1689.24 39.8851
1689.31 37.2405
1689.38 34.7558
1689.45 32.4278
1689.53 30.2520
1689.60 28.2503
1689.66 26.5129
1689.73 24.9130
1689.79 23.3962
1689.86 22.0034
1689.92 20.6862
1689.99 19.4792
1690.05 18.3565
1690.12 17.3130
1690.19 16.3292
1690.25 15.4299
1690.32 14.5950
1690.38 13.8200
1690.45 13.0898
1690.51 12.4224
1690.58 11.8024
1690.64 11.2263
1690.71 10.6352
1690.79 10.0895
1690.86 9.58500
1690.93 9.11826
1691.00 8.68586
1691.07 8.28477
1691.15 7.91221
1691.22 7.57029
1691.29 7.24711
1691.36 6.94560
1691.43 6.66385
1691.50 6.40373
1691.58 6.15638
1691.65 5.92420
1691.72 5.70594
1691.79 5.50323
1691.88 5.25746
1691.97 5.03140
1692.07 4.81844
1692.16 4.62176
1692.25 4.43573
1692.34 4.26327
1692.43 4.09958
1692.52 3.94732
1692.61 3.80234
1692.71 3.66708
1692.89 3.41708
1693.07 3.19291
1693.25 2.99204
1693.40 2.84675
1693.54 2.71216
1693.69 2.58722
1693.83 2.47176
1693.97 2.36337
1694.12 2.26215
1694.26 2.16748
1694.40 2.07937
1694.55 1.99611
1694.69 1.91786
1694.84 1.84423
1694.98 1.77533
1695.12 1.70986
1695.27 1.64844
1695.55 1.53494
1695.84 1.43265
1696.13 1.34075
1696.42 1.25729
1696.70 1.18177
1696.99 1.11275
1697.28 1.04991
1697.56 0.992343
1697.85 0.939466
1698.10 0.897001
1698.35 0.857555
1698.60 0.820699
1698.84 0.786207
1699.09 0.753879
1699.34 0.723534
1699.59 0.695011
1699.84 0.668165
1700.09 0.642769
1700.33 0.618907
1700.58 0.596370
1700.83 0.575062
1701.33 0.535787
1701.82 0.500469
1702.11 0.481572
1702.40 0.463806
1702.68 0.446968
1702.97 0.431103
1703.55 0.401809
1704.12 0.375508
1704.70 0.351726
1705.27 0.330187
1705.85 0.310617
1706.42 0.292813
1706.81 0.281546
1707.20 0.270937
1707.60 0.260938
1707.99 0.251504
1708.38 0.242593
1708.77 0.234169
1709.55 0.218659
1710.34 0.204680
1711.12 0.192045
1711.91 0.180589
1712.69 0.170188
1713.26 0.163142
1713.84 0.156550
1714.41 0.150374
1714.99 0.144590
1715.56 0.139146
1716.14 0.134027
1717.29 0.124669
1718.44 0.116329
1719.59 0.108878
1720.74 0.102190
1721.88 0.0961669
1723.24 0.0897882
1724.60 0.0841130
1725.96 0.0790379
1727.32 0.0744921
1728.68 0.0704085
1730.04 0.0667398
1731.39 0.0634170
1732.75 0.0604027
1733.90 0.0580715
1735.05 0.0559267
1736.20 0.0539489
1737.35 0.0521279
1739.65 0.0489025
1741.95 0.0461706
1744.25 0.0438712
1746.55 0.0419587
1748.84 0.0404007
1751.14 0.0391776
1752.81 0.0384922
1754.49 0.0379794
1756.16 0.0376435
1757.83 0.0374930
1759.40 0.0375322
1760.96 0.0377618
1762.53 0.0382032
1764.10 0.0388790
1765.67 0.0398293
1767.23 0.0411161
1768.80 0.0428038
1770.37 0.0449824
1771.31 0.0465774
1772.25 0.0484274
1773.19 0.0505793
1774.13 0.0530815
1775.07 0.0560036
1776.01 0.0594204
1776.95 0.0634489
1777.89 0.0682240
1778.47 0.0715905
1779.04 0.0753552
1779.62 0.0795791
1780.19 0.0843272
1780.77 0.0897058
1781.34 0.0958056
1781.92 0.102783
1782.49 0.110783
1783.01 0.119150
1783.53 0.128730
1784.06 0.139813
1784.58 0.152675
1785.10 0.167779
1785.36 0.176309
1785.62 0.185607
1785.89 0.195811
1786.15 0.206956
1786.41 0.219213
1786.67 0.232738
1786.96 0.249356
1787.24 0.267976
1787.53 0.289094
1787.82 0.313016
1788.11 0.340481
1788.39 0.372024
1788.54 0.389704
1788.68 0.408671
1788.83 0.429356
1788.97 0.451664
1789.19 0.490509
1789.30 0.511964
1789.41 0.535035
1789.52 0.559907
1789.64 0.586794
1789.75 0.615949
1789.86 0.647668
1789.97 0.682302
1790.08 0.720270
1790.19 0.762071
1790.30 0.808303
1790.41 0.859688
1790.52 0.917090
1790.63 0.981555
1790.75 1.05434
1790.82 1.10670
1790.89 1.16366
1790.96 1.22576
1791.03 1.29359
1791.11 1.36783
1791.18 1.44922
1791.25 1.53857
1791.32 1.63537
1791.39 1.74334
1791.46 1.86228
1791.54 1.99337
1791.61 2.13583
1791.68 2.29505
1791.75 2.47064
1791.82 2.66419
1791.89 2.87432
1791.94 3.02148
1791.99 3.17788
1792.03 3.34402
1792.08 3.51645
1792.12 3.70334
1792.17 3.90150
1792.22 4.11144
1792.26 4.32873
1792.33 4.70212
1792.40 5.10887
1792.48 5.55089
1792.55 6.02995
1792.62 6.54768
1792.69 7.10551
1792.76 7.70462
1792.84 8.33670
1792.91 9.02007
1792.98 9.74628
1793.05 10.5150
1793.12 11.3254
1793.20 12.1762
1793.27 13.0654
1793.34 13.9904
1793.41 14.9346
1793.52 16.4656
1793.63 18.0480
1793.74 19.6614
1793.85 21.2820
1794.00 23.3515
1794.14 25.3122
1794.29 27.1262
1794.36 27.9525
1794.43 28.7045
1794.50 29.3778
1794.57 29.9774
1794.64 30.4974
1794.71 30.9330
1794.78 31.2927
1794.85 31.5521
1794.93 31.7083
1795.00 31.7597
1795.07 31.7043
1795.15 31.5264
1795.23 31.2280
1795.31 30.8131
1795.39 30.2867
1795.48 29.5858
1795.56 28.7681
1795.65 27.8451
1795.74 26.8422
1795.82 25.7495
1795.91 24.6063
1796.00 23.4144
1796.08 22.1877
1796.26 19.6698
1796.43 17.1684
1796.56 15.2978
1796.70 13.5341
1796.76 12.6886
1796.83 11.8751
1796.90 11.0955
1796.96 10.3620
1797.05 9.44892
1797.14 8.60752
1797.22 7.81835
1797.27 7.45114
1797.31 7.09884
1797.35 6.75356
1797.40 6.43075
1797.44 6.12213
1797.48 5.82738
1797.53 5.53980
1797.57 5.27208
1797.61 5.01718
1797.65 4.77469
1797.70 4.53899
1797.74 4.32038
1797.78 4.11294
1797.83 3.91625
1797.87 3.72567
1797.91 3.54942
1797.96 3.38262
1798.00 3.22487
1798.04 3.07238
1798.09 2.93165
1798.13 2.79874
1798.17 2.67325
1798.22 2.55212
1798.26 2.44050
1798.30 2.33518
1798.35 2.23583
1798.39 2.14423
1798.43 2.05972
1798.51 1.90418
1798.59 1.76337
1798.68 1.63886
1798.76 1.52593
1798.84 1.42582
1798.92 1.33472
1799.01 1.25366
1799.09 1.17957
1799.17 1.11332
1799.25 1.05245
1799.34 0.997722
1799.42 0.947155
1799.50 0.901420
1799.58 0.858915
1799.67 0.820246
1799.75 0.782429
1799.84 0.747938
1799.93 0.715649
1800.01 0.686033
1800.19 0.632461
1800.36 0.585655
1800.53 0.544418
1800.70 0.507821
1800.88 0.475137
1801.05 0.445946
1801.18 0.425188
1801.32 0.405966
1801.58 0.371646
1801.85 0.341810
1802.12 0.315679
1802.39 0.292643
1802.65 0.272216
1802.92 0.254008
1803.19 0.237700
1803.53 0.218973
1803.88 0.202542
1804.22 0.188040
1804.57 0.175208
1804.92 0.163731
1805.26 0.153452
1805.61 0.144208
1805.95 0.135887
1806.39 0.126394
1806.83 0.117979
1807.27 0.110484
1807.71 0.103778
1808.15 0.0977527
1808.59 0.0923177
1809.03 0.0873967
1809.47 0.0829263
1810.16 0.0766805
1810.86 0.0712559
1811.55 0.0665023
1812.24 0.0623257
1812.93 0.0586264
1813.62 0.0553441
1814.31 0.0524108
1815.00 0.0497871
1816.07 0.0462388
1817.14 0.0432105
1818.21 0.0406080
1819.28 0.0383566
1820.35 0.0363965
1821.42 0.0346895
1822.49 0.0331975
1823.55 0.0318946
1825.06 0.0303293
1826.57 0.0290419
1828.08 0.0279954
1829.59 0.0271640
1831.10 0.0265297
1832.61 0.0260869
1834.12 0.0258395
1835.62 0.0257818
1837.01 0.0259037
1838.39 0.0262175
1839.77 0.0267727
1841.16 0.0276178
1842.54 0.0288240
1843.92 0.0305017
1845.30 0.0328145
1846.00 0.0342883
1846.69 0.0360333
1847.38 0.0381179
1848.07 0.0406168
1848.76 0.0436449
1849.45 0.0473404
1850.15 0.0519190
1850.84 0.0576589
1851.53 0.0650049
1851.87 0.0694700
1852.22 0.0745915
1852.60 0.0811436
1852.97 0.0889040
1853.35 0.0982314
1853.73 0.109607
1854.11 0.123778
1854.30 0.132224
1854.48 0.141768
1854.67 0.152773
1854.86 0.165469
1855.05 0.180480
1855.24 0.198328
1855.36 0.211438
1855.47 0.226390
1855.59 0.243588
1855.71 0.263536
1855.83 0.286867
1855.95 0.314366
1856.06 0.347006
1856.18 0.385618
1856.30 0.432297
1856.42 0.488480
1856.48 0.520765
1856.53 0.556226
1856.59 0.595176
1856.65 0.637950
1856.71 0.684908
1856.77 0.736433
1856.83 0.792931
1856.89 0.854830
1856.95 0.922579
1857.01 0.996649
1857.07 1.07753
1857.12 1.16415
1857.19 1.26682
1857.25 1.37903
1857.31 1.50142
1857.38 1.63464
1857.44 1.77930
1857.50 1.93602
1857.56 2.10538
1857.63 2.28491
1857.69 2.48089
1857.75 2.69096
1857.82 2.91547
1857.88 3.15468
1857.94 3.40877
1858.00 3.67778
1858.07 3.96165
1858.13 4.25532
1858.21 4.64953
1858.29 5.05978
1858.37 5.49515
1858.44 5.94281
1858.52 6.41194
1858.60 6.88798
1858.76 7.87208
1858.93 8.97238
1859.10 10.0310
1859.21 10.6180
1859.31 11.1644
1859.39 11.5857
1859.48 11.9649
1859.57 12.2999
1859.65 12.5781
1859.74 12.7973
1859.82 12.9560
1859.90 13.0533
1859.99 13.0923
1860.00 13.0931
1860.05 13.0839
1860.09 13.0570
1860.18 12.9443
1860.28 12.7593
1860.38 12.4669
1860.49 12.0924
1860.59 11.6440
1860.70 11.1316
1860.81 10.5095
1860.93 9.83845
1861.14 8.53654
1861.35 7.21080
1861.51 6.21483
1861.59 5.74087
1861.67 5.28469
1861.75 4.84330
1861.84 4.42926
1861.92 4.03839
1862.00 3.67157
1862.07 3.36608
1862.14 3.08005
1862.21 2.81337
1862.28 2.56902
1862.36 2.33968
1862.43 2.13113
1862.50 1.93679
1862.57 1.76128
1862.64 1.59880
1862.71 1.45103
1862.79 1.31702
1862.86 1.19743
1862.93 1.08794
1863.00 0.990696
1863.07 0.902053
1863.14 0.823627
1863.20 0.770417
1863.25 0.721412
1863.35 0.635566
1863.46 0.562855
1863.56 0.501322
1863.67 0.449242
1863.77 0.405113
1863.88 0.367638
1863.98 0.335715
1864.09 0.308410
1864.19 0.284940
1864.30 0.264654
1864.40 0.247012
1864.51 0.231572
1864.61 0.217969
1864.82 0.195139
1865.04 0.176662
1865.25 0.161518
1865.46 0.148810
1865.67 0.137985
1865.88 0.128615
1866.09 0.120505
1866.51 0.107131
1866.93 0.0966193
1867.35 0.0882773
1867.77 0.0815812
1868.19 0.0761871
1868.57 0.0722045
1868.95 0.0689626
1869.33 0.0663627
1869.72 0.0643328
1870.48 0.0617984
1871.24 0.0611654
1871.93 0.0622801
1872.62 0.0652711
1872.96 0.0676381
1873.31 0.0707335
1873.65 0.0747264
1874.00 0.0798612
1874.36 0.0869282
1874.72 0.0963935
1874.90 0.102412
1875.08 0.109557
1875.27 0.118273
1875.45 0.128990
1875.63 0.142591
1875.81 0.160018
1875.99 0.183031
1876.08 0.197261
1876.17 0.213559
1876.26 0.232689
1876.36 0.254952
1876.45 0.280889
1876.54 0.310757
1876.63 0.345907
1876.72 0.386810
1876.81 0.434328
1876.90 0.488755
1876.98 0.545615
1877.06 0.609393
1877.14 0.681543
1877.22 0.762902
1877.31 0.855516
1877.39 0.957990
1877.47 1.07223
1877.55 1.19904
1877.63 1.34100
1877.71 1.49531
1877.79 1.66419
1877.87 1.84808
1877.96 2.04979
1878.04 2.26450
1878.12 2.49443
1878.20 2.73921
1878.29 3.01462
1878.37 3.30492
1878.46 3.60863
1878.54 3.92386
1878.72 4.57949
1878.89 5.24553
1879.09 6.00994
1879.19 6.36856
1879.29 6.70444
1879.39 7.02591
1879.50 7.30876
1879.58 7.50734
1879.67 7.67290
1879.77 7.82664
1879.85 7.90281
1879.93 7.94842
1880.00 7.96293
1880.01 7.96241
1880.05 7.95478
1880.09 7.93858
1880.17 7.88048
1880.25 7.79151
1880.33 7.67180
1880.41 7.51657
1880.49 7.33438
1880.61 7.02126
1880.73 6.66037
1880.84 6.26108
1881.02 5.61373
1881.08 5.38697
1881.24 4.76030
1881.40 4.14007
1881.48 3.83683
1881.56 3.54595
1881.64 3.26539
1881.72 2.99660
1881.80 2.73763
1881.88 2.49578
1881.96 2.26562
1882.04 2.05323
1882.12 1.85341
1882.20 1.67104
1882.28 1.50129
1882.36 1.34794
1882.44 1.20661
1882.52 1.08013
1882.61 0.964624
1882.69 0.862150
1882.77 0.769321
1882.85 0.687600
1882.93 0.614956
1883.01 0.550585
1883.11 0.478635
1883.21 0.418078
1883.31 0.366277
1883.42 0.322933
1883.52 0.286011
1883.62 0.255189
1883.72 0.229178
1883.83 0.207196
1883.93 0.188409
1884.03 0.172608
1884.13 0.158997
1884.24 0.147439
1884.44 0.128710
1884.64 0.114456
1884.85 0.103187
1885.05 0.0940841
1885.26 0.0865524
1885.46 0.0802236
1885.87 0.0700246
1886.28 0.0621953
1886.58 0.0576073
1886.87 0.0536839
1887.45 0.0473054
1888.04 0.0423770
1888.62 0.0384756
1889.50 0.0339606
1890.38 0.0305535
1891.26 0.0279002
1892.13 0.0257939
1893.01 0.0240873
1893.89 0.0226871
1895.64 0.0205426
1897.40 0.0189707
1899.15 0.0177738
1900.91 0.0168454
1902.66 0.0161097
1905.94 0.0150915
1909.21 0.0143823
1912.49 0.0138767
1915.77 0.0135214
1919.04 0.0132599
1922.32 0.0130799
1928.87 0.0129077
1934.02 0.0129127
1939.16 0.0130209
1944.31 0.0132273
1949.46 0.0135344
1954.61 0.0139478
1959.76 0.0144851
1964.90 0.0151683
1970.05 0.0160265
1975.20 0.0171156
1977.77 0.0177700
1980.35 0.0185124
1982.92 0.0193581
1985.49 0.0203262
1988.07 0.0214406
1990.64 0.0227313
1992.98 0.0240911
1995.32 0.0256668
1997.66 0.0275020
2000.00 0.0296598
2001.46 0.0312117
2002.92 0.0329472
2004.38 0.0348973
2005.84 0.0370999
2007.30 0.0396006
2008.75 0.0424535
2010.21 0.0457257
2011.67 0.0495138
2012.52 0.0519923
2013.36 0.0547072
2014.21 0.0576963
2015.05 0.0609901
2015.89 0.0646406
2016.74 0.0686919
2017.58 0.0732164
2018.43 0.0782791
2019.27 0.0839837
2020.12 0.0904366
2020.96 0.0977757
2021.81 0.106162
2022.65 0.115830
2023.50 0.127028
2023.92 0.133324
2024.34 0.140128
2024.76 0.147512
2025.18 0.155546
2025.65 0.165160
2026.11 0.175769
2026.57 0.187520
2027.03 0.200557
2027.49 0.215141
2027.95 0.231456
2028.41 0.249870
2028.87 0.270669
2029.29 0.292319
2029.71 0.316768
2030.14 0.344665
2030.35 0.360051
2030.56 0.376543
2030.77 0.394338
2030.98 0.413395
2031.19 0.433935
2031.40 0.456121
2031.62 0.480138
2031.83 0.506200
2032.04 0.534552
2032.25 0.565480
2032.44 0.596143
2032.63 0.629507
2032.82 0.665912
2033.02 0.705757
2033.21 0.749510
2033.40 0.797725
2033.59 0.851066
2033.78 0.910005
2033.89 0.945587
2034.00 0.983455
2034.10 1.02382
2034.21 1.06651
2034.31 1.11260
2034.42 1.16152
2034.52 1.21456
2034.63 1.27109
2034.73 1.33264
2034.84 1.39921
2034.95 1.47138
2035.05 1.54907
2035.16 1.63450
2035.26 1.72693
2035.37 1.82912
2035.47 1.94027
2035.54 2.01810
2035.61 2.09973
2035.68 2.18667
2035.74 2.27932
2035.81 2.37817
2035.88 2.48369
2035.94 2.59644
2036.01 2.71696
2036.08 2.84787
2036.15 2.98597
2036.21 3.13381
2036.28 3.29213
2036.35 3.46167
2036.41 3.64326
2036.48 3.83774
2036.55 4.04597
2036.60 4.22104
2036.65 4.40575
2036.71 4.60055
2036.76 4.80594
2036.81 5.02239
2036.87 5.25038
2036.92 5.49039
2036.97 5.73802
2037.02 6.00324
2037.08 6.28189
2037.13 6.57439
2037.18 6.87527
2037.23 7.19648
2037.29 7.53275
2037.34 7.88442
2037.39 8.24473
2037.47 8.84423
2037.56 9.47467
2037.64 10.1520
2037.72 10.8599
2037.80 11.6153
2037.88 12.3990
2037.96 13.2291
2038.04 14.0835
2038.15 15.2493
2038.26 16.4512
2038.36 17.7035
2038.47 18.9729
2038.68 21.5743
2038.89 24.1203
2039.00 25.3434
2039.10 26.4961
2039.21 27.5736
2039.31 28.5597
2039.44 29.6310
2039.57 30.5063
2039.70 31.1768
2039.83 31.6150
2039.91 31.7755
2040.00 31.8284
2040.09 31.7717
2040.16 31.6460
2040.23 31.4501
2040.30 31.1853
2040.37 30.8537
2040.44 30.4579
2040.51 30.0008
2040.65 28.9168
2040.80 27.5447
2040.94 26.0007
2041.09 24.3100
2041.24 22.5417
2041.39 20.6807
2041.54 18.8308
2041.70 17.0188
2041.85 15.2772
2042.00 13.6211
2042.07 12.8357
2042.15 12.0910
2042.23 11.3683
2042.30 10.6876
2042.38 10.0312
2042.45 9.41669
2042.56 8.56742
2042.62 8.17293
2042.67 7.79557
2042.73 7.43503
2042.78 7.09096
2042.84 6.76297
2042.89 6.45061
2042.95 6.15344
2043.00 5.87097
2043.06 5.60269
2043.11 5.34808
2043.17 5.10662
2043.22 4.87777
2043.28 4.66100
2043.33 4.45576
2043.41 4.19017
2043.48 3.94422
2043.56 3.71657
2043.64 3.50859
2043.71 3.31350
2043.79 3.13301
2043.86 2.96599
2043.94 2.81334
2044.01 2.67000
2044.09 2.53718
2044.17 2.41399
2044.24 2.30110
2044.32 2.19476
2044.39 2.09711
2044.47 2.00493
2044.54 1.92008
2044.62 1.83979
2044.70 1.76475
2044.77 1.69452
2044.85 1.62953
2044.92 1.56772
2045.00 1.51036
2045.07 1.45566
2045.15 1.40477
2045.30 1.31013
2045.45 1.22599
2045.60 1.15031
2045.75 1.08194
2045.89 1.02502
2046.03 0.972779
2046.17 0.924692
2046.30 0.880616
2046.44 0.839518
2046.58 0.801661
2046.72 0.766202
2046.85 0.733401
2046.99 0.702554
2047.13 0.673912
2047.27 0.646883
2047.40 0.621704
2047.68 0.575597
2047.95 0.534653
2048.26 0.494610
2048.56 0.459198
2048.86 0.427517
2049.16 0.399233
2049.47 0.373707
2049.77 0.350736
2050.07 0.329852
2050.37 0.310928
2050.82 0.286232
2051.26 0.264560
2051.70 0.245391
2052.14 0.228348
2052.58 0.213126
2053.02 0.199469
2053.46 0.187169
2053.90 0.176052
2054.50 0.162409
2055.11 0.150435
2055.71 0.139853
2056.32 0.130454
2056.92 0.122056
2057.53 0.114545
2058.13 0.107790
2058.74 0.101693
2059.56 0.0942856
2060.39 0.0877886
2061.21 0.0820553
2062.04 0.0769710
2062.86 0.0724384
2063.69 0.0683784
2064.51 0.0647287
2065.34 0.0614383
2066.55 0.0571684
2067.76 0.0534655
2068.97 0.0502310
2070.18 0.0473956
2071.39 0.0448946
2072.60 0.0426830
2073.81 0.0407166
2075.02 0.0389655
2077.11 0.0363677
2079.20 0.0342151
2081.30 0.0324077
2083.39 0.0308893
2085.48 0.0296093
2087.57 0.0285289
2089.66 0.0276156
2091.75 0.0268448
2094.17 0.0261032
2096.59 0.0254999
2099.01 0.0250155
2101.43 0.0246414
2106.27 0.0241333
2111.11 0.0239046
2115.96 0.0239106
2120.80 0.0241145
2125.64 0.0244964
2130.48 0.0250448
2135.32 0.0257518
2140.16 0.0266201
2145.00 0.0276537
2149.84 0.0288620
2154.69 0.0302632
2159.53 0.0318748
2164.37 0.0337256
2169.21 0.0358518
2174.05 0.0382947
2176.47 0.0396558
2178.89 0.0411164
2181.32 0.0426893
2183.74 0.0443894
2186.16 0.0462238
2188.58 0.0482061
2191.22 0.0505610
2193.86 0.0531235
2196.50 0.0559591
2199.14 0.0590861
2201.78 0.0625485
2204.42 0.0663969
2207.06 0.0706937
2209.70 0.0755137
2212.01 0.0802375
2214.33 0.0855133
2216.64 0.0914367
2217.79 0.0946785
2218.95 0.0981257
2220.10 0.101804
2221.26 0.105728
2222.41 0.109930
2223.57 0.114430
2224.73 0.119267
2225.88 0.124464
2227.04 0.130056
2228.19 0.136099
2229.40 0.142996
2230.61 0.150531
2231.82 0.158788
2233.03 0.167864
2234.24 0.177888
2235.45 0.188987
2236.66 0.201338
2237.87 0.215149
2238.92 0.228458
2239.96 0.243230
2241.01 0.259732
2241.53 0.268715
2242.05 0.278221
2242.58 0.288332
2243.10 0.299079
2243.62 0.310518
2244.15 0.322688
2244.67 0.335706
2245.19 0.349608
2245.71 0.364541
2246.24 0.380554
2246.68 0.394998
2247.28 0.416460
2247.89 0.439910
2248.49 0.465648
2249.10 0.493992
2249.70 0.525316
2250.31 0.560066
2250.91 0.598776
2251.21 0.619847
2251.52 0.642089
2252.07 0.686197
2252.62 0.735387
2252.89 0.762177
2253.17 0.790591
2253.44 0.820764
2253.72 0.852849
2253.99 0.887141
2254.27 0.923580
2254.54 0.962496
2254.82 1.00413
2255.09 1.04874
2255.37 1.09662
2255.64 1.14813
2255.92 1.20364
2256.22 1.26997
2256.52 1.34211
2256.83 1.42133
2257.13 1.50801
2257.43 1.60378
2257.73 1.70927
2257.89 1.76661
2258.04 1.82668
2258.19 1.89006
2258.34 1.95702
2258.48 2.02494
2258.63 2.09618
2258.77 2.17203
2258.92 2.25177
2259.06 2.33688
2259.21 2.42658
2259.35 2.52256
2259.49 2.62402
2259.64 2.73290
2259.78 2.84833
2259.93 2.97263
2260.07 3.10487
2260.22 3.24778
2260.36 3.40041
2260.51 3.56485
2260.65 3.74241
2260.80 3.94574
2260.95 4.16587
2261.10 4.40640
2261.25 4.67004
2261.41 4.96196
2261.56 5.28202
2261.63 5.45579
2261.71 5.63637
2261.78 5.82926
2261.86 6.03007
2261.94 6.24494
2262.01 6.47211
2262.09 6.71249
2262.16 6.96361
2262.24 7.23323
2262.31 7.51923
2262.39 7.82284
2262.47 8.14100
2262.54 8.48359
2262.62 8.84798
2262.69 9.23579
2262.77 9.64309
2262.84 10.0825
2262.92 10.5444
2263.00 11.0429
2263.07 11.5671
2263.14 12.1099
2263.22 12.6788
2263.29 13.2829
2263.36 13.9244
2263.43 14.6148
2263.50 15.3375
2263.58 16.1036
2263.65 16.9153
2263.72 17.7868
2263.79 18.6961
2263.87 19.6570
2263.94 20.6709
2264.01 21.7397
2264.08 22.8647
2264.15 24.0473
2264.23 25.2883
2264.30 26.6626
2264.38 28.1034
2264.45 29.6107
2264.53 31.1629
2264.60 32.8004
2264.68 34.4787
2264.83 38.0362
2264.98 41.8360
2265.13 45.7919
2265.28 49.8805
2265.44 54.0429
2265.74 62.3292
2265.89 66.2617
2266.04 69.9457
2266.14 72.1616
2266.24 74.1914
2266.33 76.0546
2266.43 77.6924
2266.53 79.1194
2266.63 80.2900
2266.72 81.2140
2266.82 81.8616
2266.91 82.2180
2267.00 82.3352
2267.06 82.2797
2267.16 81.9601
2267.26 81.3677
2267.35 80.4976
2267.45 79.3781
2267.55 77.9996
2267.65 76.4066
2267.74 74.5846
2267.84 72.5915
2267.98 69.3788
2268.12 65.9059
2268.26 62.2241
2268.41 58.4056
2268.68 50.9050
2268.95 43.6119
2269.15 38.5912
2269.25 36.2129
2269.34 33.9564
2269.44 31.7815
2269.54 29.7161
2269.64 27.7625
2269.74 25.9398
2269.81 24.7397
2269.87 23.5922
2269.94 22.4965
2270.01 21.4517
2270.08 20.4566
2270.15 19.5101
2270.21 18.6107
2270.28 17.7691
2270.35 16.9587
2270.42 16.1907
2270.49 15.4634
2270.55 14.7751
2270.62 14.1240
2270.69 13.5084
2270.76 12.9266
2270.82 12.3848
2270.89 11.8651
2270.96 11.3742
2271.03 10.9105
2271.10 10.4726
2271.16 10.0589
2271.23 9.66805
2271.30 9.29867
2271.37 8.95449
2271.44 8.62402
2271.50 8.31139
2271.64 7.73931
2271.77 7.22176
2271.91 6.75934
2272.03 6.37436
2272.16 6.02582
2272.28 5.70437
2272.40 5.41201
2272.53 5.14111
2272.65 4.89357
2272.77 4.66494
2272.90 4.45331
2273.02 4.25547
2273.14 4.07313
2273.27 3.90199
2273.39 3.74364
2273.51 3.59449
2273.64 3.45600
2273.76 3.32615
2273.88 3.20420
2274.02 3.07778
2274.16 2.95947
2274.29 2.84856
2274.43 2.74518
2274.56 2.64726
2274.70 2.55507
2274.97 2.38679
2275.24 2.23601
2275.51 2.10135
2275.78 1.98014
2276.05 1.87066
2276.26 1.79296
2276.47 1.72083
2276.68 1.65377
2276.89 1.59161
2277.10 1.53335
2277.31 1.47893
2277.52 1.42803
2277.73 1.38059
2277.94 1.33589
2278.15 1.29393
2278.57 1.21761
2278.99 1.14995
2279.41 1.08978
2279.68 1.05427
2279.95 1.02138
2280.22 0.990671
2280.50 0.962186
2281.04 0.910812
2281.58 0.866202
2282.12 0.827274
2282.67 0.793363
2283.21 0.763849
2283.75 0.738260
2284.44 0.710564
2285.13 0.687705
2285.82 0.669080
2286.52 0.654218
2287.21 0.642754
2287.90 0.634403
2288.59 0.628937
2289.28 0.626183
2290.12 0.626286
2290.96 0.630030
2291.80 0.637330
2292.63 0.648171
2293.47 0.662603
2293.89 0.671217
2294.31 0.680765
2294.73 0.691325
2295.15 0.702879
2295.57 0.715524
2295.99 0.729239
2296.38 0.743183
2296.93 0.764144
2297.47 0.787249
2298.01 0.812651
2298.56 0.840526
2299.10 0.871080
2299.37 0.887464
2299.64 0.904546
2299.91 0.922486
2300.19 0.941191
2300.46 0.960763
2300.73 0.981244
2300.99 1.00179
2301.25 1.02318
2301.51 1.04552
2301.76 1.06887
2302.02 1.09328
2302.28 1.11881
2302.54 1.14551
2302.80 1.17344
2303.06 1.20268
2303.32 1.23330
2303.58 1.26537
2303.84 1.29899
2304.10 1.33423
2304.35 1.37121
2304.61 1.41003
2304.87 1.45080
2305.14 1.49586
2305.42 1.54320
2305.69 1.59332
2305.96 1.64606
2306.23 1.70200
2306.50 1.76094
2306.77 1.82334
2307.04 1.88944
2307.32 1.95981
2307.59 2.03425
2307.86 2.11366
2308.13 2.19784
2308.40 2.28784
2308.67 2.38348
2308.94 2.48560
2309.21 2.59478
2309.49 2.71213
2309.76 2.83750
2310.03 2.97264
2310.30 3.11748
2310.57 3.27412
2310.84 3.44256
2311.11 3.62468
2311.39 3.82195
2311.66 4.03687
2311.79 4.15129
2311.93 4.26980
2312.06 4.39443
2312.20 4.52465
2312.34 4.66076
2312.47 4.80206
2312.61 4.95100
2312.74 5.10696
2312.88 5.27038
2313.01 5.44043
2313.15 5.62012
2313.29 5.80733
2313.42 6.00541
2313.56 6.21203
2313.69 6.43093
2313.83 6.66131
2313.96 6.90393
2314.10 7.15769
2314.24 7.42721
2314.37 7.71159
2314.51 8.01185
2314.64 8.32666
2314.78 8.66182
2314.91 9.01630
2315.05 9.39140
2315.19 9.78549
2315.32 10.2059
2315.46 10.6479
2315.59 11.1196
2315.73 11.6158
2315.89 12.2464
2316.05 12.9176
2316.21 13.6409
2316.37 14.4102
2316.53 15.2381
2316.69 16.1171
2316.85 17.0546
2317.01 18.0529
2317.15 18.9505
2317.28 19.8938
2317.42 20.8833
2317.55 21.9109
2317.69 22.9910
2317.83 24.1149
2317.96 25.2806
2318.10 26.4760
2318.30 28.3748
2318.51 30.3279
2318.92 34.3319
2319.33 38.2634
2319.54 40.1110
2319.75 41.8263
2319.90 43.0193
2320.06 44.0940
2320.22 45.0341
2320.37 45.8246
2320.53 46.4525
2320.69 46.9073
2320.84 47.1812
2321.00 47.2697
2321.16 47.1722
2321.31 46.8893
2321.44 46.5247
2321.57 46.0484
2321.70 45.4583
2321.82 44.7698
2321.95 43.9797
2322.08 43.1084
2322.33 41.1319
2322.59 38.9158
2322.84 36.5375
2323.10 34.0716
2323.35 31.5856
2323.64 28.8825
2323.92 26.2872
2324.20 23.8442
2324.34 22.6892
2324.48 21.5893
2324.62 20.5302
2324.76 19.5204
2324.90 18.5601
2325.04 17.6550
2325.19 16.7912
2325.33 15.9743
2325.47 15.2025
2325.61 14.4792
2325.75 13.7734
2325.90 13.1139
2326.04 12.4935
2326.18 11.9101
2326.33 11.3616
2326.47 10.8459
2326.62 10.3609
2326.76 9.90472
2326.91 9.47259
2327.05 9.06870
2327.19 8.68830
2327.34 8.32984
2327.48 7.99185
2327.63 7.67295
2327.77 7.37186
2327.91 7.08739
2328.06 6.81662
2328.20 6.56224
2328.49 6.09314
2328.78 5.67134
2329.07 5.29097
2329.35 4.94696
2329.64 4.63498
2329.93 4.35127
2330.22 4.09261
2330.40 3.93916
2330.59 3.79490
2330.95 3.52840
2331.32 3.28896
2331.69 3.07308
2332.05 2.87779
2332.42 2.70056
2332.79 2.53925
2333.15 2.39239
2333.44 2.28526
2333.73 2.18554
2334.02 2.09223
2334.31 2.00480
2334.60 1.92250
2334.88 1.84546
2335.17 1.77299
2335.46 1.70475
2335.75 1.64020
2336.04 1.57948
2336.32 1.52212
2336.61 1.46786
2337.19 1.36764
2337.77 1.27762
2338.34 1.19620
2338.92 1.12255
2339.50 1.05550
2340.07 0.994495
2340.65 0.938638
2341.22 0.887547
2341.80 0.840543
2342.38 0.797349
2342.93 0.759155
2343.48 0.723769
2344.03 0.690853
2344.58 0.660176
2345.13 0.631490
2345.68 0.604725
2346.23 0.579672
2346.78 0.556191
2347.33 0.534114
2347.88 0.513407
2348.43 0.493922
2348.98 0.475566
2349.53 0.458222
2350.08 0.441875
2351.18 0.411801
2352.33 0.383588
2353.49 0.358302
2354.64 0.335551
2355.79 0.315006
2356.95 0.296391
2358.10 0.279472
2359.25 0.264048
2360.40 0.249961
2361.35 0.239302
2362.29 0.229378
2363.24 0.220112
2364.18 0.211462
2365.12 0.203341
2366.07 0.195717
2367.01 0.188548
2367.95 0.181802
2368.90 0.175445
2369.84 0.169458
2371.72 0.158473
2373.61 0.148648
2375.50 0.139837
2376.65 0.134890
2377.80 0.130246
2378.96 0.125881
2380.11 0.121773
2382.42 0.114258
2384.72 0.107570
2387.03 0.101594
2389.33 0.0962431
2391.64 0.0914397
2393.94 0.0871213
2395.62 0.0842513
2397.30 0.0815896
2398.97 0.0791198
2400.65 0.0768276
2402.33 0.0747018
2404.01 0.0727406
2407.36 0.0692227
2410.71 0.0661875
2414.07 0.0635958
2417.42 0.0614018
2420.77 0.0595692
2422.87 0.0585951
2424.97 0.0577432
2427.06 0.0570110
2429.16 0.0563963
2433.35 0.0554997
2437.54 0.0550413
2441.53 0.0550118
2445.51 0.0553869
2449.49 0.0561863
2453.48 0.0574434
2455.47 0.0582600
2457.46 0.0592080
2459.45 0.0603036
2461.44 0.0615483
2463.43 0.0629561
2465.42 0.0645256
2467.42 0.0663063
2469.41 0.0683063
2471.71 0.0709198
2474.02 0.0738904
2476.32 0.0772654
2478.63 0.0811000
2480.94 0.0854663
2483.24 0.0904459
2485.55 0.0961402
2486.70 0.0992933
2487.85 0.102671
2489.63 0.108391
2491.42 0.114791
2493.20 0.121974
2494.98 0.130064
2496.76 0.139199
2497.65 0.144206
2498.54 0.149546
2499.44 0.155256
2500.33 0.161373
2501.22 0.167929
2502.11 0.174956
2503.26 0.184844
2504.41 0.195723
2505.57 0.207729
2506.72 0.221008
2507.87 0.235771
2509.02 0.252231
2509.60 0.261186
2510.18 0.270654
2510.75 0.280692
2511.33 0.291345
2512.33 0.311373
2513.32 0.333703
2513.82 0.345842
2514.32 0.358699
2514.82 0.372331
2515.31 0.386769
2515.81 0.402141
2516.31 0.418493
2516.81 0.435908
2517.30 0.454479
2517.80 0.474316
2518.30 0.495539
2518.80 0.518287
2519.30 0.542663
2519.82 0.570361
2520.34 0.600327
2520.87 0.632812
2521.39 0.668103
2521.89 0.704543
2522.39 0.744139
2522.89 0.787266
2523.13 0.810285
2523.38 0.834353
2523.63 0.859535
2523.88 0.885902
2524.13 0.913528
2524.38 0.942497
2524.63 0.972898
2524.88 1.00483
2525.13 1.03839
2525.38 1.07370
2525.66 1.11704
2525.95 1.16295
2526.24 1.21182
2526.53 1.26389
2526.82 1.31946
2527.10 1.37884
2527.39 1.44240
2527.68 1.51054
2527.97 1.58396
2528.11 1.62259
2528.26 1.66268
2528.40 1.70429
2528.55 1.74751
2528.69 1.79241
2528.83 1.83910
2528.98 1.88800
2529.12 1.93855
2529.27 1.99118
2529.41 2.04602
2529.55 2.10318
2529.70 2.16280
2529.84 2.22503
2529.99 2.29001
2530.13 2.35840
2530.28 2.42944
2530.42 2.50377
2530.56 2.58160
2530.71 2.66316
2530.85 2.74869
2531.00 2.83846
2531.14 2.93273
2531.28 3.03254
2531.43 3.13684
2531.57 3.24666
2531.72 3.36240
2531.86 3.48450
2532.00 3.61343
2532.15 3.74970
2532.29 3.89388
2532.46 4.07623
2532.63 4.27057
2532.80 4.48047
2532.97 4.70489
2533.15 4.94806
2533.32 5.20894
2533.49 5.49086
2533.66 5.79605
2533.80 6.07462
2533.94 6.37335
2534.09 6.69410
2534.23 7.03888
2534.38 7.40991
2534.52 7.80961
2534.66 8.24061
2534.81 8.70576
2534.95 9.21174
2535.10 9.75486
2535.24 10.3420
2535.38 10.9767
2535.53 11.6677
2535.67 12.4095
2535.82 13.2104
2535.96 14.0743
2536.11 15.0049
2536.25 16.0056
2536.39 17.0791
2536.54 18.2279
2536.68 19.4536
2536.83 20.7565
2536.97 22.1361
2537.11 23.5904
2537.26 25.1373
2537.40 26.7401
2537.55 28.4018
2537.69 30.1126
2537.99 33.6443
2538.28 37.1901
2538.45 39.2569
2538.62 41.2328
2538.79 43.1036
2538.97 44.8103
2539.14 46.3358
2539.31 47.6287
2539.48 48.6736
2539.66 49.4333
2539.83 49.8978
2540.00 50.0503
2540.12 49.9779
2540.23 49.7665
2540.42 49.1328
2540.60 48.1571
2540.79 46.8672
2540.98 45.2991
2541.17 43.4948
2541.35 41.5001
2541.54 39.3627
2541.73 37.1421
2542.05 33.1550
2542.38 29.2352
2542.54 27.3423
2542.70 25.5304
2542.86 23.7886
2543.03 22.1467
2543.19 20.5806
2543.35 19.1226
2543.52 17.7637
2543.68 16.5024
2543.84 15.3361
2544.01 14.2608
2544.17 13.2718
2544.33 12.3639
2544.49 11.5316
2544.66 10.7692
2544.82 10.0712
2544.98 9.43214
2545.15 8.84687
2545.31 8.31053
2545.47 7.81862
2545.63 7.36963
2545.78 6.98857
2545.93 6.63762
2546.08 6.31174
2546.23 6.00876
2546.38 5.72487
2546.52 5.46208
2546.67 5.21681
2546.82 4.98757
2546.97 4.77165
2547.12 4.57073
2547.27 4.38223
2547.41 4.20516
2547.56 4.03863
2547.71 3.88183
2547.86 3.73401
2548.01 3.59452
2548.17 3.44980
2548.33 3.31369
2548.49 3.18554
2548.66 3.06473
2548.82 2.95071
2548.98 2.84299
2549.31 2.64466
2549.64 2.46656
2549.96 2.30603
2550.29 2.16082
2550.61 2.02905
2551.00 1.88821
2551.38 1.76202
2551.77 1.64795
2552.16 1.54501
2552.54 1.45133
2552.93 1.36624
2553.31 1.28852
2553.70 1.21735
2554.02 1.16165
2554.35 1.10975
2554.67 1.06130
2555.00 1.01600
2555.33 0.973585
2555.65 0.933820
2555.98 0.896487
2556.30 0.861392
2556.63 0.828362
2556.96 0.797236
2557.28 0.767873
2557.61 0.740141
2558.26 0.689108
2558.91 0.643375
2559.56 0.602111
2560.22 0.564809
2560.87 0.530980
2561.52 0.500204
2562.17 0.472128
2562.82 0.446447
2563.48 0.422898
2564.13 0.401258
2564.69 0.383926
2565.25 0.367787
2565.82 0.352707
2566.38 0.338589
2566.94 0.325351
2567.51 0.312921
2568.07 0.301234
2568.63 0.290236
2569.20 0.279857
2569.76 0.270089
2570.89 0.252157
2572.01 0.236118
2573.14 0.221721
2573.79 0.214051
2574.44 0.206823
2575.75 0.193572
2577.05 0.181741
2578.35 0.171143
2579.66 0.161621
2580.96 0.153044
2582.27 0.145298
2583.57 0.138291
2584.64 0.133049
2585.70 0.128211
2586.77 0.123749
2587.84 0.119628
2588.90 0.115811
2589.97 0.112270
2591.04 0.108989
2592.11 0.105953
2594.24 0.100557
2596.37 0.0959687
2598.51 0.0921002
2600.64 0.0888837
2602.06 0.0870731
2603.49 0.0855176
2604.91 0.0842061
2606.33 0.0831337
2607.75 0.0822949
2609.18 0.0816894
2610.60 0.0813171
2612.02 0.0811820
2613.92 0.0813816
2615.81 0.0820368
2617.71 0.0831812
2619.61 0.0848571
2621.50 0.0871138
2623.40 0.0900447
2625.30 0.0937702
2627.19 0.0984121
2628.50 0.102229
2629.80 0.106632
2631.11 0.111710
2632.41 0.117570
2633.72 0.124343
2635.02 0.132192
2636.32 0.141319
2636.98 0.146438
2637.63 0.151976
2638.46 0.159697
2639.29 0.168264
2640.12 0.177792
2640.95 0.188415
2641.78 0.200336
2642.61 0.213753
2643.44 0.228912
2644.27 0.246092
2644.92 0.261273
2645.57 0.278159
2646.22 0.297011
2646.87 0.318141
2647.53 0.341927
2647.85 0.354955
2648.18 0.368828
2648.50 0.383619
2648.83 0.399409
2649.16 0.416290
2649.48 0.434365
2649.93 0.461175
2650.37 0.490762
2650.82 0.523527
2651.26 0.559861
2651.71 0.600501
2651.93 0.622566
2652.15 0.645951
2652.37 0.670882
2652.59 0.697255
2652.82 0.725313
2653.04 0.755203
2653.36 0.802769
2653.69 0.855249
2654.02 0.913357
2654.34 0.977942
2654.67 1.05003
2654.83 1.08926
2654.99 1.13085
2655.16 1.17500
2655.32 1.22193
2655.48 1.27188
2655.65 1.32479
2655.79 1.37373
2655.93 1.42559
2656.07 1.48062
2656.21 1.53909
2656.35 1.60131
2656.49 1.66762
2656.63 1.73841
2656.77 1.81357
2656.91 1.89466
2657.05 1.98172
2657.20 2.07540
2657.34 2.17644
2657.48 2.28568
2657.62 2.40410
2657.76 2.53285
2657.90 2.67221
2657.97 2.75102
2658.05 2.83370
2658.12 2.92053
2658.20 3.01180
2658.27 3.10785
2658.34 3.20900
2658.42 3.31566
2658.49 3.42822
2658.56 3.53560
2658.63 3.64856
2658.69 3.76747
2658.76 3.89084
2658.83 4.02285
2658.89 4.16217
2658.96 4.30930
2659.03 4.46242
2659.09 4.62676
2659.16 4.80070
2659.23 4.98492
2659.29 5.17714
2659.36 5.38395
2659.43 5.59999
2659.49 5.83264
2659.56 6.07585
2659.60 6.23437
2659.64 6.39885
2659.68 6.56954
2659.72 6.74668
2659.76 6.93053
2659.80 7.12135
2659.85 7.31940
2659.89 7.51986
2659.93 7.73302
2659.97 7.95425
2660.01 8.18384
2660.05 8.41618
2660.09 8.66318
2660.13 8.91944
2660.17 9.18529
2660.21 9.45419
2660.25 9.73990
2660.29 10.0361
2660.33 10.3432
2660.37 10.6536
2660.42 10.9831
2660.46 11.3245
2660.50 11.6780
2660.54 12.0349
2660.58 12.4133
2660.62 12.8049
2660.70 13.6182
2660.78 14.4861
2660.86 15.4109
2660.94 16.4069
2661.03 17.4517
2661.11 18.5725
2661.19 19.7431
2661.27 20.9932
2661.35 22.2925
2661.43 23.6730
2661.51 25.1001
2661.60 26.6078
2661.68 28.1573
2661.76 29.7841
2661.84 31.4452
2661.92 33.1772
2662.00 34.9332
2662.09 36.7507
2662.17 38.5789
2662.26 40.8012
2662.36 43.0233
2662.55 47.4765
2662.71 51.1861
2662.88 54.7394
2663.04 58.0464
2663.20 61.0174
2663.34 63.2361
2663.48 65.0833
2663.62 66.5346
2663.76 67.5568
2663.88 68.0756
2664.00 68.2475
2664.10 68.1331
2664.17 67.8760
2664.25 67.4737
2664.33 66.9293
2664.41 66.2467
2664.49 65.4309
2664.56 64.4879
2664.72 62.2479
2664.82 60.6048
2664.92 58.8296
2665.02 56.9250
2665.11 54.9102
2665.25 51.9240
2665.39 48.8358
2665.53 45.6535
2665.66 42.4727
2665.85 38.1099
2666.04 33.9182
2666.14 31.8936
2666.23 29.9558
2666.33 28.0703
2666.42 26.2820
2666.52 24.5572
2666.61 22.9180
2666.71 21.3662
2666.80 19.9173
2666.89 18.5404
2666.99 17.2633
2667.08 16.0569
2667.18 14.9443
2667.25 14.1234
2667.32 13.3592
2667.40 12.6388
2667.47 11.9604
2667.54 11.3224
2667.62 10.7229
2667.69 10.1600
2667.76 9.63197
2667.84 9.13036
2667.91 8.66691
2667.98 8.23285
2668.06 7.82644
2668.13 7.44601
2668.20 7.08995
2668.27 6.75670
2668.35 6.44476
2668.44 6.06843
2668.54 5.72287
2668.63 5.40536
2668.73 5.11631
2668.82 4.84728
2668.92 4.60185
2669.01 4.37285
2669.10 4.16337
2669.20 3.96737
2669.29 3.78569
2669.39 3.61702
2669.48 3.46176
2669.58 3.31554
2669.67 3.18050
2669.77 3.05290
2669.86 2.93467
2669.96 2.82260
2670.05 2.71735
2670.15 2.61835
2670.24 2.52606
2670.43 2.35575
2670.62 2.20330
2670.81 2.06617
2671.00 1.94226
2671.19 1.82983
2671.37 1.72742
2671.56 1.63336
2671.75 1.54759
2671.94 1.46873
2672.13 1.39601
2672.32 1.32846
2672.51 1.26621
2672.70 1.20841
2672.89 1.15464
2673.08 1.10425
2673.27 1.05745
2673.46 1.01368
2673.65 0.972662
2673.84 0.933975
2674.02 0.897818
2674.21 0.863793
2674.40 0.831733
2674.59 0.801332
2674.78 0.772772
2675.16 0.720198
2675.54 0.672869
2675.92 0.630318
2676.30 0.591720
2676.67 0.556773
2677.05 0.524864
2677.43 0.495798
2677.74 0.473796
2678.05 0.453285
2678.36 0.434132
2678.67 0.416273
2678.98 0.399487
2679.29 0.383787
2679.60 0.368987
2679.91 0.355105
2680.53 0.329609
2681.15 0.306911
2681.77 0.286583
2682.38 0.268305
2683.14 0.248351
2683.90 0.230660
2684.66 0.214900
2685.41 0.200797
2686.17 0.188124
2686.93 0.176694
2687.68 0.166347
2688.44 0.156950
2689.47 0.145456
2690.51 0.135292
2691.54 0.126253
2692.57 0.118179
2693.60 0.110929
2694.63 0.104431
2695.15 0.101569
2695.67 0.0993497
2696.18 0.0988405
2696.44 0.0999682
2696.70 0.102723
2696.90 0.106641
2697.11 0.112610
2697.32 0.121318
2697.52 0.133406
2697.73 0.149790
2697.94 0.171137
2698.14 0.198315
2698.35 0.232030
2698.56 0.273037
2698.76 0.321232
2698.97 0.377060
2699.17 0.439592
2699.38 0.508656
2699.59 0.582435
2699.79 0.659786
2700.00 0.739010
2700.00 1.39571
2850.00 1.35404
3000.00 1.31566
3250.00 1.25967
3500.00 1.20995
3750.00 1.17038
4000.00 1.13453
4250.00 1.10302
4500.00 1.07411
5000.00 1.02280
5500.00 0.980328
6000.00 0.943099
6500.00 0.909395
7000.00 0.879264
7500.00 0.857250
8000.00 0.837156
8500.00 0.816203
9000.00 0.796928
10000.0 0.762584
10625.0 0.742033
11250.0 0.723164
12500.0 0.689632
13750.0 0.665822
15000.0 0.644805
16000.0 0.623957
17000.0 0.604989
18500.0 0.581135
20000.0 0.559977
21250.0 0.545570
22500.0 0.532327
25000.0 0.508753
27500.0 0.484635
30000.0 0.463618
32500.0 0.443888
35000.0 0.426371
37500.0 0.410737
40000.0 0.396632
42500.0 0.383041
45000.0 0.370653
47500.0 0.359305
50000.0 0.348860
52500.0 0.338737
55000.0 0.329359
60000.0 0.312509
65000.0 0.297962
70000.0 0.285099
75000.0 0.273497
80000.0 0.263073
85000.0 0.253640
90000.0 0.245056
94999.9 0.237205
99999.9 0.229988
100000 0.228928
106250 0.221432
112500 0.214589
118750 0.208311
125000 0.202525
137500 0.192197
150000 0.183229
164124 0.175413
164124 0.175413
164552 0.175064
164979 0.174717
165834 0.174028
167544 0.172667
169253 0.171332
170963 0.170019
174382 0.167463
177801 0.164994
177802 0.164994
178495 0.164499
179189 0.164008
180576 0.163035
181963 0.162076
183351 0.161129
186126 0.159273
188901 0.157466
191675 0.155705
194450 0.153989
200000 0.150683
205267 0.148094
210534 0.145614
215800 0.143235
221067 0.140951
226334 0.138756
231601 0.136644
242134 0.132652
242134 0.132652
242626 0.131945
243118 0.131244
244101 0.129858
246067 0.127145
248034 0.124509
250000 0.121948
252974 0.119506
252975 0.119506
253709 0.118782
254444 0.118066
255913 0.116651
258852 0.113896
261791 0.111236
264731 0.108667
267670 0.106184
270609 0.103785
276487 0.0992201
282365 0.0949459
288244 0.0909384
294122 0.0871758
300000 0.0836388
305048 0.0812574
305049 0.0812572
306144 0.0807907
307239 0.0803286
309430 0.0794171
311621 0.0785222
313812 0.0776436
318193 0.0759335
322575 0.0742836
326957 0.0726911
331338 0.0711533
340102 0.0682316
348865 0.0654996
357629 0.0629409
366392 0.0605405
375156 0.0582851
383919 0.0561630
392682 0.0541635
410209 0.0504948
427736 0.0472130
445263 0.0442638
446974 0.0440426
448684 0.0438234
452105 0.0433906
455526 0.0429654
458947 0.0425475
465789 0.0417328
472632 0.0409452
479474 0.0401835
486316 0.0394465
500000 0.0380420
503428 0.0377389
506857 0.0374403
510285 0.0371460
513714 0.0368560
517142 0.0365702
520570 0.0362884
523999 0.0360106
527427 0.0357368
529336 0.0355484
531245 0.0353616
533154 0.0351765
535063 0.0349930
536972 0.0348112
538881 0.0346309
540791 0.0344522
542700 0.0342750
544609 0.0340993
546518 0.0339252
548427 0.0337526
550336 0.0335814
552245 0.0334117
554154 0.0332434
556063 0.0330765
557972 0.0329111
559881 0.0327470
561790 0.0325843
563699 0.0324230
565608 0.0322630
567517 0.0321044
569426 0.0319470
571336 0.0317909
573245 0.0316362
575154 0.0314826
577063 0.0313304
578972 0.0311793
580881 0.0310295
582790 0.0308809
584699 0.0307335
586608 0.0305873
588517 0.0304422
590086 0.0303461
591655 0.0302505
594792 0.0300611
597930 0.0298738
601067 0.0296886
604205 0.0295056
607342 0.0293246
610480 0.0291456
613617 0.0289687
616755 0.0287937
619892 0.0286207
623030 0.0284495
626167 0.0282803
629305 0.0281128
632442 0.0279472
635580 0.0277834
638717 0.0276214
641855 0.0274611
644992 0.0273025
648130 0.0271455
651267 0.0269902
654405 0.0268366
657542 0.0266845
660680 0.0265341
663817 0.0263851
666955 0.0262378
670092 0.0260919
673230 0.0259475
676367 0.0258046
679505 0.0256631
682642 0.0255230
685780 0.0253844
688917 0.0252471
690302 0.0251826
691688 0.0251184
694459 0.0249909
697229 0.0248645
700000 0.0247392
703125 0.0246320
706250 0.0245256
709375 0.0244202
712500 0.0243158
715625 0.0242122
718750 0.0241095
721875 0.0240077
725000 0.0239068
728125 0.0238067
731250 0.0237074
734375 0.0236090
737500 0.0235114
740625 0.0234147
743750 0.0233187
746875 0.0232235
750000 0.0231291
753125 0.0230355
756250 0.0229427
759375 0.0228506
762500 0.0227592
765625 0.0226686
768750 0.0225787
771875 0.0224895
775000 0.0224011
778125 0.0223133
781250 0.0222263
784375 0.0221399
787500 0.0220542
790625 0.0219692
793750 0.0218848
796875 0.0218011
800000 0.0217180
803169 0.0216540
806337 0.0215904
809503 0.0215107
812669 0.0214316
815835 0.0213531
819001 0.0212752
821382 0.0212208
823763 0.0211668
826143 0.0211130
828524 0.0210595
830196 0.0209797
831868 0.0209003
835211 0.0207429
837236 0.0206785
839260 0.0206144
841285 0.0205507
843310 0.0204873
845334 0.0204243
847359 0.0203616
849384 0.0202993
851408 0.0202373
853433 0.0201756
855458 0.0201143
857482 0.0200533
859507 0.0199926
861532 0.0199323
863556 0.0198723
865581 0.0198126
867606 0.0197532
869630 0.0196941
871655 0.0196353
873680 0.0195769
875704 0.0195188
877729 0.0194609
879754 0.0194034
881778 0.0193462
883803 0.0192893
885828 0.0192326
887852 0.0191763
889877 0.0191203
891901 0.0190645
893926 0.0190091
895951 0.0189539
897975 0.0188990
900000 0.0188444
902932 0.0187803
905863 0.0187166
908795 0.0186533
911727 0.0185904
914658 0.0185279
917590 0.0184659
920521 0.0184042
923453 0.0183430
925701 0.0182885
927949 0.0182343
930197 0.0181804
932444 0.0181268
934692 0.0180735
936940 0.0180204
939188 0.0179677
941436 0.0179152
943683 0.0178630
945931 0.0178111
948179 0.0177594
950427 0.0177080
952675 0.0176569
954922 0.0176061
957170 0.0175555
959418 0.0175052
962318 0.0174383
965218 0.0173718
968118 0.0173058
971018 0.0172402
973918 0.0171751
976818 0.0171104
979718 0.0170461
982618 0.0169823
984619 0.0169430
986620 0.0169039
988621 0.0168649
990622 0.0168261
992967 0.0167813
995311 0.0167367
997656 0.0166923
1.00000E+06 0.0166481
1.00457E+06 0.0165656
1.00914E+06 0.0164839
1.01371E+06 0.0164030
1.01828E+06 0.0163228
1.01828E+06 0.0163228
1.02070E+06 0.0162746
1.02312E+06 0.0162267
1.02796E+06 0.0161317
1.03279E+06 0.0160377
1.03763E+06 0.0159446
1.03763E+06 0.0159446
1.04093E+06 0.0159005
1.04423E+06 0.0158567
1.04753E+06 0.0158131
1.05083E+06 0.0157698
1.05413E+06 0.0157267
1.05743E+06 0.0156839
1.06072E+06 0.0156414
1.06402E+06 0.0155990
1.06732E+06 0.0155570
1.07062E+06 0.0155151
1.07392E+06 0.0154736
1.07722E+06 0.0154322
1.08052E+06 0.0153911
1.08382E+06 0.0153502
1.08712E+06 0.0153096
1.09042E+06 0.0152692
1.09372E+06 0.0152290
1.09701E+06 0.0151890
1.10031E+06 0.0151493
1.10361E+06 0.0151098
1.10691E+06 0.0150705
1.11021E+06 0.0150314
1.11351E+06 0.0149925
1.11681E+06 0.0149539
1.12011E+06 0.0149155
1.12341E+06 0.0148773
1.12671E+06 0.0148393
1.13000E+06 0.0148015
1.13330E+06 0.0147639
1.13660E+06 0.0147265
1.13990E+06 0.0146893
1.14320E+06 0.0146523
1.14695E+06 0.0146084
1.14951E+06 0.0145825
1.15207E+06 0.0145567
1.15718E+06 0.0145054
1.16230E+06 0.0144545
1.16742E+06 0.0144040
1.17253E+06 0.0143539
1.17765E+06 0.0143042
1.18276E+06 0.0142548
1.18788E+06 0.0142059
1.19132E+06 0.0141769
1.19476E+06 0.0141481
1.19477E+06 0.0141480
1.19856E+06 0.0141041
1.20236E+06 0.0140605
1.20236E+06 0.0140605
1.20545E+06 0.0140226
1.20854E+06 0.0139849
1.20854E+06 0.0139849
1.21332E+06 0.0139312
1.21809E+06 0.0138780
1.22287E+06 0.0138252
1.22764E+06 0.0137727
1.23242E+06 0.0137207
1.23719E+06 0.0136691
1.24197E+06 0.0136179
1.24674E+06 0.0135670
1.25000E+06 0.0135291
1.25476E+06 0.0134767
1.25952E+06 0.0134246
1.26427E+06 0.0133730
1.26903E+06 0.0133217
1.27216E+06 0.0132915
1.27528E+06 0.0132615
1.27841E+06 0.0132317
1.28153E+06 0.0132019
1.28465E+06 0.0131723
1.28778E+06 0.0131429
1.29090E+06 0.0131136
1.29403E+06 0.0130844
1.29715E+06 0.0130553
1.30028E+06 0.0130264
1.30340E+06 0.0129976
1.30653E+06 0.0129690
1.30965E+06 0.0129405
1.31278E+06 0.0129121
1.31590E+06 0.0128839
1.31903E+06 0.0128557
1.32215E+06 0.0128277
1.32528E+06 0.0127999
1.32840E+06 0.0127721
1.33152E+06 0.0127445
1.33465E+06 0.0127170
1.33777E+06 0.0126896
1.34090E+06 0.0126624
1.34402E+06 0.0126352
1.34715E+06 0.0126082
1.35027E+06 0.0125813
1.35340E+06 0.0125546
1.35652E+06 0.0125279
1.35965E+06 0.0125014
1.36277E+06 0.0124750
1.36590E+06 0.0124487
1.36902E+06 0.0124225
1.36902E+06 0.0124225
1.37305E+06 0.0123976
1.37708E+06 0.0123729
1.38110E+06 0.0123482
1.38513E+06 0.0123237
1.38872E+06 0.0123043
1.39231E+06 0.0122850
1.39590E+06 0.0122658
1.39949E+06 0.0122467
1.40308E+06 0.0122276
1.40667E+06 0.0122086
1.41026E+06 0.0121897
1.41385E+06 0.0121709
1.41744E+06 0.0121521
1.42103E+06 0.0121335
1.42462E+06 0.0121148
1.42821E+06 0.0120963
1.43180E+06 0.0120779
1.43539E+06 0.0120595
1.43898E+06 0.0120412
1.44257E+06 0.0120230
1.44616E+06 0.0120048
1.44975E+06 0.0119867
1.45334E+06 0.0119687
1.45692E+06 0.0119508
1.46051E+06 0.0119329
1.46410E+06 0.0119151
1.46769E+06 0.0118974
1.47128E+06 0.0118797
1.47487E+06 0.0118621
1.47846E+06 0.0118446
1.48205E+06 0.0118272
1.48564E+06 0.0118098
1.48923E+06 0.0117925
1.49282E+06 0.0117752
1.49641E+06 0.0117580
1.50000E+06 0.0117409
1.50391E+06 0.0117243
1.50781E+06 0.0117077
1.51172E+06 0.0116912
1.51563E+06 0.0116748
1.51953E+06 0.0116584
1.52344E+06 0.0116421
1.52734E+06 0.0116259
1.53125E+06 0.0116097
1.53516E+06 0.0115936
1.53906E+06 0.0115776
1.54297E+06 0.0115616
1.54688E+06 0.0115457
1.55078E+06 0.0115298
1.55469E+06 0.0115140
1.55859E+06 0.0114983
1.56250E+06 0.0114826
1.56641E+06 0.0114670
1.57031E+06 0.0114514
1.57422E+06 0.0114359
1.57813E+06 0.0114205
1.58203E+06 0.0114051
1.58594E+06 0.0113898
1.58984E+06 0.0113746
1.59375E+06 0.0113594
1.59766E+06 0.0113442
1.60156E+06 0.0113291
1.60547E+06 0.0113141
1.60938E+06 0.0112991
1.61328E+06 0.0112842
1.61719E+06 0.0112693
1.62109E+06 0.0112545
1.62500E+06 0.0112398
1.62891E+06 0.0112251
1.63281E+06 0.0112104
1.63672E+06 0.0111959
1.64063E+06 0.0111813
1.64453E+06 0.0111668
1.64844E+06 0.0111524
1.65234E+06 0.0111380
1.65625E+06 0.0111237
1.66016E+06 0.0111094
1.66406E+06 0.0110952
1.66797E+06 0.0110811
1.67188E+06 0.0110669
1.67578E+06 0.0110529
1.67969E+06 0.0110389
1.68359E+06 0.0110249
1.68750E+06 0.0110110
1.69141E+06 0.0109971
1.69531E+06 0.0109833
1.69922E+06 0.0109695
1.70313E+06 0.0109558
1.70703E+06 0.0109421
1.71094E+06 0.0109285
1.71484E+06 0.0109149
1.71875E+06 0.0109014
1.72266E+06 0.0108879
1.72656E+06 0.0108745
1.73047E+06 0.0108611
1.73438E+06 0.0108478
1.73828E+06 0.0108345
1.74219E+06 0.0108213
1.74609E+06 0.0108081
1.75000E+06 0.0107949
1.75391E+06 0.0107800
1.75781E+06 0.0107652
1.76172E+06 0.0107504
1.76563E+06 0.0107357
1.76953E+06 0.0107210
1.77344E+06 0.0107064
1.77734E+06 0.0106918
1.78125E+06 0.0106773
1.78516E+06 0.0106628
1.78906E+06 0.0106484
1.79297E+06 0.0106340
1.79688E+06 0.0106197
1.80078E+06 0.0106054
1.80469E+06 0.0105912
1.80859E+06 0.0105770
1.81250E+06 0.0105629
1.81641E+06 0.0105489
1.82031E+06 0.0105348
1.82422E+06 0.0105209
1.82813E+06 0.0105070
1.83203E+06 0.0104931
1.83594E+06 0.0104793
1.83984E+06 0.0104655
1.84375E+06 0.0104517
1.84766E+06 0.0104381
1.85156E+06 0.0104244
1.85547E+06 0.0104108
1.85938E+06 0.0103973
1.86328E+06 0.0103838
1.86719E+06 0.0103703
1.87109E+06 0.0103569
1.87500E+06 0.0103436
1.87891E+06 0.0103302
1.88281E+06 0.0103170
1.88672E+06 0.0103037
1.89063E+06 0.0102906
1.89453E+06 0.0102774
1.89844E+06 0.0102643
1.90234E+06 0.0102513
1.90625E+06 0.0102383
1.91016E+06 0.0102253
1.91406E+06 0.0102124
1.91797E+06 0.0101995
1.92188E+06 0.0101867
1.92578E+06 0.0101739
1.92969E+06 0.0101611
1.93359E+06 0.0101484
1.93750E+06 0.0101357
1.94141E+06 0.0101231
1.94531E+06 0.0101105
1.94922E+06 0.0100980
1.95313E+06 0.0100854
1.95703E+06 0.0100730
1.96094E+06 0.0100606
1.96484E+06 0.0100482
1.96875E+06 0.0100358
1.97266E+06 0.0100235
1.97656E+06 0.0100112
1.98047E+06 0.00999901
1.98438E+06 0.00998682
1.98828E+06 0.00997467
1.99219E+06 0.00996256
1.99609E+06 0.00995049
2.00000E+06 0.00993845
2.02809E+06 0.00980426
2.05619E+06 0.00967369
2.08428E+06 0.00954660
2.11237E+06 0.00942285
2.14047E+06 0.00930230
2.16856E+06 0.00918484
2.19665E+06 0.00907034
2.22475E+06 0.00895870
2.25284E+06 0.00884981
2.28093E+06 0.00874357
2.30903E+06 0.00863988
2.33712E+06 0.00853865
2.36521E+06 0.00843980
2.39330E+06 0.00834324
2.42140E+06 0.00824889
2.44949E+06 0.00815668
2.46582E+06 0.00810402
2.48216E+06 0.00805205
2.49849E+06 0.00800075
2.51482E+06 0.00795010
2.53115E+06 0.00790010
2.54749E+06 0.00785074
2.56382E+06 0.00780200
2.58015E+06 0.00775386
2.59648E+06 0.00770633
2.61282E+06 0.00765938
2.62915E+06 0.00761300
2.64548E+06 0.00756720
2.66181E+06 0.00752194
2.67815E+06 0.00747723
2.69448E+06 0.00743306
2.71081E+06 0.00738941
2.72889E+06 0.00734171
2.74696E+06 0.00729463
2.76503E+06 0.00724815
2.78311E+06 0.00720228
2.80118E+06 0.00715698
2.81926E+06 0.00711226
2.83733E+06 0.00706811
2.85541E+06 0.00702450
2.87348E+06 0.00698144
2.89155E+06 0.00693890
2.90963E+06 0.00689689
2.92770E+06 0.00685539
2.94578E+06 0.00681440
2.96385E+06 0.00677390
2.98193E+06 0.00673388
3.00000E+06 0.00669434
3.05593E+06 0.00649298
3.11186E+06 0.00630117
3.16778E+06 0.00611829
3.22371E+06 0.00594378
3.28381E+06 0.00576500
3.34391E+06 0.00559469
3.40400E+06 0.00543232
3.46410E+06 0.00527738
3.52868E+06 0.00511864
3.59326E+06 0.00496742
3.65784E+06 0.00482325
3.72242E+06 0.00468568
3.75712E+06 0.00461435
3.79182E+06 0.00454474
3.82651E+06 0.00447680
3.86121E+06 0.00441048
3.89591E+06 0.00434572
3.93061E+06 0.00428248
3.96530E+06 0.00422069
4.00000E+06 0.00416033
4.11475E+06 0.00390800
4.22949E+06 0.00367729
4.35082E+06 0.00345426
4.47214E+06 0.00325035
4.60043E+06 0.00305321
4.72871E+06 0.00287297
4.86436E+06 0.00269872
5.00000E+06 0.00253941
5.09742E+06 0.00242360
5.19483E+06 0.00231511
5.29225E+06 0.00221336
5.38966E+06 0.00211781
5.49467E+06 0.00202123
5.59968E+06 0.00193075
5.70468E+06 0.00184589
5.80969E+06 0.00176621
5.90485E+06 0.00169814
6.00000E+06 0.00163372
6.12019E+06 0.00156890
6.24037E+06 0.00150784
6.36056E+06 0.00145025
6.48074E+06 0.00139588
6.61056E+06 0.00135856
6.74037E+06 0.00132294
6.87019E+06 0.00128890
7.00000E+06 0.00125635
7.00617E+06 0.00125571
7.01234E+06 0.00125507
7.01850E+06 0.00125443
7.02467E+06 0.00125379
7.03084E+06 0.00125316
7.03701E+06 0.00125252
7.04318E+06 0.00125189
7.04934E+06 0.00125125
7.05551E+06 0.00125062
7.06168E+06 0.00124999
7.06785E+06 0.00124936
7.07401E+06 0.00124872
7.08018E+06 0.00124809
7.08635E+06 0.00124747
7.09252E+06 0.00124684
7.09868E+06 0.00124621
7.10485E+06 0.00124558
7.11102E+06 0.00124496
7.11719E+06 0.00124433
7.12335E+06 0.00124371
7.12952E+06 0.00124309
7.13569E+06 0.00124247
7.14186E+06 0.00124184
7.14802E+06 0.00124122
7.15419E+06 0.00124060
7.16036E+06 0.00123999
7.16653E+06 0.00123937
7.17270E+06 0.00123875
7.17886E+06 0.00123813
7.18503E+06 0.00123752
7.19120E+06 0.00123690
7.19737E+06 0.00123629
7.20353E+06 0.00123568
7.20970E+06 0.00123507
7.21587E+06 0.00123445
7.22204E+06 0.00123384
7.22820E+06 0.00123323
7.23437E+06 0.00123263
7.24054E+06 0.00123202
7.24671E+06 0.00123141
7.25288E+06 0.00123080
7.25904E+06 0.00123020
7.26521E+06 0.00122959
7.27138E+06 0.00122899
7.27755E+06 0.00122839
7.28371E+06 0.00122779
7.28988E+06 0.00122718
7.29605E+06 0.00122658
7.30222E+06 0.00122598
7.30838E+06 0.00122538
7.31455E+06 0.00122479
7.32072E+06 0.00122419
7.32689E+06 0.00122359
7.33305E+06 0.00122300
7.33922E+06 0.00122240
7.34539E+06 0.00122181
7.35156E+06 0.00122121
7.35773E+06 0.00122062
7.36389E+06 0.00122003
7.37006E+06 0.00121944
7.37623E+06 0.00121885
7.38240E+06 0.00121826
7.38856E+06 0.00121767
7.39473E+06 0.00121708
7.40027E+06 0.00121655
7.40580E+06 0.00121603
7.41134E+06 0.00121550
7.41688E+06 0.00121498
7.42241E+06 0.00121445
7.42795E+06 0.00121393
7.43348E+06 0.00121340
7.43902E+06 0.00121288
7.44456E+06 0.00121236
7.45009E+06 0.00121184
7.45563E+06 0.00121132
7.46117E+06 0.00121080
7.46670E+06 0.00121028
7.47224E+06 0.00120976
7.47777E+06 0.00120924
7.48331E+06 0.00120872
7.49257E+06 0.00120939
7.50183E+06 0.00121005
7.51108E+06 0.00121072
7.52034E+06 0.00121138
7.52784E+06 0.00121192
7.53533E+06 0.00121246
7.54283E+06 0.00121299
7.55032E+06 0.00121353
7.55781E+06 0.00121407
7.56531E+06 0.00121460
7.57280E+06 0.00121514
7.58030E+06 0.00121567
7.58779E+06 0.00121621
7.59529E+06 0.00121674
7.60278E+06 0.00121728
7.61028E+06 0.00121781
7.61777E+06 0.00121835
7.62527E+06 0.00121888
7.63276E+06 0.00121941
7.64026E+06 0.00121995
7.64775E+06 0.00122048
7.65525E+06 0.00122101
7.66274E+06 0.00122154
7.67023E+06 0.00122207
7.67773E+06 0.00122261
7.68522E+06 0.00122314
7.69272E+06 0.00122367
7.70021E+06 0.00122420
7.70771E+06 0.00122473
7.71520E+06 0.00122526
7.72270E+06 0.00122579
7.73019E+06 0.00122632
7.73769E+06 0.00122685
7.74518E+06 0.00122738
7.75268E+06 0.00122791
7.76017E+06 0.00122844
7.76767E+06 0.00122896
7.77516E+06 0.00122949
7.78266E+06 0.00123002
7.79015E+06 0.00123055
7.79764E+06 0.00123107
7.80514E+06 0.00123160
7.81263E+06 0.00123213
7.82013E+06 0.00123265
7.82762E+06 0.00123318
7.83512E+06 0.00123371
7.84261E+06 0.00123423
7.85011E+06 0.00123476
7.85760E+06 0.00123528
7.86510E+06 0.00123581
7.87259E+06 0.00123633
7.88009E+06 0.00123685
7.88758E+06 0.00123738
7.89508E+06 0.00123790
7.90257E+06 0.00123842
7.91006E+06 0.00123895
7.91756E+06 0.00123947
7.92505E+06 0.00123999
7.93255E+06 0.00124051
7.94004E+06 0.00124104
7.94754E+06 0.00124156
7.95503E+06 0.00124208
7.96253E+06 0.00124260
7.97002E+06 0.00124312
7.97752E+06 0.00124364
7.98501E+06 0.00124416
7.99251E+06 0.00124468
8.00000E+06 0.00124520
8.00742E+06 0.00124427
8.01466E+06 0.00124337
8.02190E+06 0.00124246
8.02914E+06 0.00124156
8.03638E+06 0.00124066
8.04362E+06 0.00123976
8.05086E+06 0.00123886
8.05809E+06 0.00123797
8.06533E+06 0.00123707
8.07257E+06 0.00123618
8.07981E+06 0.00123529
8.08705E+06 0.00123440
8.09429E+06 0.00123351
8.10153E+06 0.00123262
8.10877E+06 0.00123173
8.11601E+06 0.00123085
8.12325E+06 0.00122996
8.13049E+06 0.00122908
8.13772E+06 0.00122820
8.14496E+06 0.00122732
8.15220E+06 0.00122644
8.15944E+06 0.00122557
8.16668E+06 0.00122469
8.17392E+06 0.00122382
8.18116E+06 0.00122295
8.18840E+06 0.00122208
8.19564E+06 0.00122121
8.20288E+06 0.00122034
8.21011E+06 0.00121947
8.21735E+06 0.00121861
8.22459E+06 0.00121774
8.23183E+06 0.00121688
8.23907E+06 0.00121602
8.24677E+06 0.00121602
8.25446E+06 0.00121603
8.26215E+06 0.00121603
8.26985E+06 0.00121604
8.27754E+06 0.00121604
8.28524E+06 0.00121604
8.29293E+06 0.00121605
8.30062E+06 0.00121605
8.30832E+06 0.00121605
8.31601E+06 0.00121606
8.32371E+06 0.00121606
8.33140E+06 0.00121607
8.33909E+06 0.00121607
8.34679E+06 0.00121607
8.35448E+06 0.00121608
8.36218E+06 0.00121608
8.36987E+06 0.00121608
8.37756E+06 0.00121609
8.38526E+06 0.00121609
8.39295E+06 0.00121610
8.40065E+06 0.00121610
8.40834E+06 0.00121610
8.41603E+06 0.00121611
8.42373E+06 0.00121611
8.43142E+06 0.00121611
8.43912E+06 0.00121612
8.44681E+06 0.00121612
8.45450E+06 0.00121613
8.46220E+06 0.00121613
8.46989E+06 0.00121613
8.47759E+06 0.00121614
8.48528E+06 0.00121614
8.49430E+06 0.00121724
8.50332E+06 0.00121834
8.51234E+06 0.00121943
8.52136E+06 0.00122053
8.53037E+06 0.00122163
8.53939E+06 0.00122273
8.54841E+06 0.00122382
8.55743E+06 0.00122492
8.56435E+06 0.00122576
8.57126E+06 0.00122660
8.57818E+06 0.00122744
8.58509E+06 0.00122828
8.59201E+06 0.00122912
8.59892E+06 0.00122997
8.60584E+06 0.00123081
8.61275E+06 0.00123165
8.61967E+06 0.00123249
8.62658E+06 0.00123333
8.63350E+06 0.00123417
8.64041E+06 0.00123501
8.64733E+06 0.00123585
8.65424E+06 0.00123669
8.66116E+06 0.00123752
8.66807E+06 0.00123836
8.67499E+06 0.00123920
8.68190E+06 0.00124004
8.68882E+06 0.00124088
8.69573E+06 0.00124172
8.70265E+06 0.00124256
8.70956E+06 0.00124340
8.71648E+06 0.00124424
8.72339E+06 0.00124508
8.73031E+06 0.00124591
8.73723E+06 0.00124675
8.74414E+06 0.00124759
8.75106E+06 0.00124843
8.75797E+06 0.00124927
8.76489E+06 0.00125011
8.77180E+06 0.00125094
8.77872E+06 0.00125178
8.78563E+06 0.00125262
8.79255E+06 0.00125346
8.79946E+06 0.00125429
8.80638E+06 0.00125513
8.81329E+06 0.00125597
8.82021E+06 0.00125681
8.82712E+06 0.00125764
8.83404E+06 0.00125848
8.84095E+06 0.00125932
8.84787E+06 0.00126015
8.85478E+06 0.00126099
8.86170E+06 0.00126183
8.86861E+06 0.00126266
8.87553E+06 0.00126350
8.88244E+06 0.00126434
8.88936E+06 0.00126517
8.89627E+06 0.00126601
8.90319E+06 0.00126685
8.91010E+06 0.00126768
8.91702E+06 0.00126852
8.92393E+06 0.00126935
8.93085E+06 0.00127019
8.93776E+06 0.00127102
8.94468E+06 0.00127186
8.95160E+06 0.00127270
8.95851E+06 0.00127353
8.96543E+06 0.00127437
8.97234E+06 0.00127520
8.97926E+06 0.00127604
8.98617E+06 0.00127687
8.99309E+06 0.00127771
9.00000E+06 0.00127854
9.00761E+06 0.00127811
9.01521E+06 0.00127768
9.02282E+06 0.00127725
9.03043E+06 0.00127683
9.03803E+06 0.00127640
9.04564E+06 0.00127597
9.05325E+06 0.00127555
9.06085E+06 0.00127512
9.06846E+06 0.00127469
9.07607E+06 0.00127427
9.08368E+06 0.00127384
9.09128E+06 0.00127342
9.09889E+06 0.00127300
9.10650E+06 0.00127257
9.11410E+06 0.00127215
9.12171E+06 0.00127173
9.12932E+06 0.00127131
9.13692E+06 0.00127089
9.14453E+06 0.00127047
9.15214E+06 0.00127005
9.15974E+06 0.00126963
9.16735E+06 0.00126921
9.17496E+06 0.00126879
9.18256E+06 0.00126837
9.19017E+06 0.00126796
9.19778E+06 0.00126754
9.20538E+06 0.00126712
9.21299E+06 0.00126671
9.22060E+06 0.00126629
9.22820E+06 0.00126588
9.23581E+06 0.00126546
9.24342E+06 0.00126505
9.25102E+06 0.00126463
9.25863E+06 0.00126422
9.26624E+06 0.00126381
9.27384E+06 0.00126339
9.28145E+06 0.00126298
9.28906E+06 0.00126257
9.29666E+06 0.00126216
9.30427E+06 0.00126175
9.31188E+06 0.00126134
9.31948E+06 0.00126093
9.32709E+06 0.00126052
9.33470E+06 0.00126011
9.34230E+06 0.00125971
9.34991E+06 0.00125930
9.35752E+06 0.00125889
9.36512E+06 0.00125848
9.37273E+06 0.00125808
9.38034E+06 0.00125767
9.38794E+06 0.00125727
9.39555E+06 0.00125686
9.40316E+06 0.00125646
9.41076E+06 0.00125605
9.41837E+06 0.00125565
9.42598E+06 0.00125525
9.43358E+06 0.00125485
9.44119E+06 0.00125444
9.44880E+06 0.00125404
9.45640E+06 0.00125364
9.46401E+06 0.00125324
9.47162E+06 0.00125284
9.47922E+06 0.00125244
9.48683E+06 0.00125204
9.49449E+06 0.00125208
9.50214E+06 0.00125212
9.50980E+06 0.00125217
9.51745E+06 0.00125221
9.52511E+06 0.00125225
9.53276E+06 0.00125229
9.54042E+06 0.00125233
9.54807E+06 0.00125238
9.55573E+06 0.00125242
9.56338E+06 0.00125246
9.57104E+06 0.00125250
9.57869E+06 0.00125254
9.58635E+06 0.00125258
9.59401E+06 0.00125263
9.60166E+06 0.00125267
9.60932E+06 0.00125271
9.61697E+06 0.00125275
9.62463E+06 0.00125279
9.63228E+06 0.00125283
9.63994E+06 0.00125288
9.64759E+06 0.00125292
9.65525E+06 0.00125296
9.66290E+06 0.00125300
9.67056E+06 0.00125304
9.67821E+06 0.00125308
9.68587E+06 0.00125312
9.69352E+06 0.00125316
9.70118E+06 0.00125321
9.70884E+06 0.00125325
9.71649E+06 0.00125329
9.72415E+06 0.00125333
9.73180E+06 0.00125337
9.73515E+06 0.00125339
9.74343E+06 0.00125343
9.75170E+06 0.00125348
9.75998E+06 0.00125352
9.76826E+06 0.00125357
9.77653E+06 0.00125361
9.78481E+06 0.00125365
9.79309E+06 0.00125370
9.80136E+06 0.00125374
9.80964E+06 0.00125379
9.81792E+06 0.00125383
9.82619E+06 0.00125387
9.83447E+06 0.00125392
9.84275E+06 0.00125396
9.85102E+06 0.00125401
9.85930E+06 0.00125405
9.86758E+06 0.00125409
9.87585E+06 0.00125414
9.88413E+06 0.00125418
9.89241E+06 0.00125423
9.90068E+06 0.00125427
9.90896E+06 0.00125431
9.91724E+06 0.00125436
9.92551E+06 0.00125440
9.93379E+06 0.00125444
9.94207E+06 0.00125449
9.95034E+06 0.00125453
9.95862E+06 0.00125457
9.96689E+06 0.00125462
9.97517E+06 0.00125466
9.98345E+06 0.00125470
9.99172E+06 0.00125475
1.00000E+07 0.00125479
1.00078E+07 0.00125407
1.00156E+07 0.00125336
1.00234E+07 0.00125264
1.00313E+07 0.00125193
1.00391E+07 0.00125122
1.00469E+07 0.00125051
1.00547E+07 0.00124980
1.00625E+07 0.00124909
1.00703E+07 0.00124838
1.00781E+07 0.00124767
1.00859E+07 0.00124696
1.00938E+07 0.00124626
1.01016E+07 0.00124555
1.01094E+07 0.00124485
1.01172E+07 0.00124415
1.01250E+07 0.00124344
1.01328E+07 0.00124274
1.01406E+07 0.00124204
1.01484E+07 0.00124134
1.01563E+07 0.00124065
1.01641E+07 0.00123995
1.01719E+07 0.00123925
1.01797E+07 0.00123856
1.01875E+07 0.00123786
1.01953E+07 0.00123717
1.02031E+07 0.00123647
1.02109E+07 0.00123578
1.02188E+07 0.00123509
1.02266E+07 0.00123440
1.02344E+07 0.00123371
1.02422E+07 0.00123303
1.02500E+07 0.00123234
1.02578E+07 0.00123165
1.02656E+07 0.00123097
1.02734E+07 0.00123028
1.02813E+07 0.00122960
1.02891E+07 0.00122891
1.02969E+07 0.00122823
1.03047E+07 0.00122755
1.03125E+07 0.00122687
1.03203E+07 0.00122619
1.03281E+07 0.00122551
1.03359E+07 0.00122484
1.03438E+07 0.00122416
1.03516E+07 0.00122348
1.03594E+07 0.00122281
1.03672E+07 0.00122214
1.03750E+07 0.00122146
1.03828E+07 0.00122079
1.03906E+07 0.00122012
1.03984E+07 0.00121945
1.04063E+07 0.00121878
1.04141E+07 0.00121811
1.04219E+07 0.00121744
1.04297E+07 0.00121678
1.04375E+07 0.00121611
1.04453E+07 0.00121545
1.04531E+07 0.00121478
1.04609E+07 0.00121412
1.04688E+07 0.00121346
1.04766E+07 0.00121279
1.04844E+07 0.00121213
1.04922E+07 0.00121147
1.05000E+07 0.00121081
1.05078E+07 0.00121016
1.05156E+07 0.00120950
1.05234E+07 0.00120884
1.05313E+07 0.00120819
1.05391E+07 0.00120753
1.05469E+07 0.00120688
1.05547E+07 0.00120622
1.05625E+07 0.00120557
1.05703E+07 0.00120492
1.05781E+07 0.00120427
1.05859E+07 0.00120362
1.05938E+07 0.00120297
1.06016E+07 0.00120232
1.06094E+07 0.00120167
1.06172E+07 0.00120103
1.06250E+07 0.00120038
1.06328E+07 0.00119974
1.06406E+07 0.00119909
1.06484E+07 0.00119845
1.06563E+07 0.00119781
1.06641E+07 0.00119716
1.06719E+07 0.00119652
1.06797E+07 0.00119588
1.06875E+07 0.00119525
1.06953E+07 0.00119461
1.07031E+07 0.00119397
1.07109E+07 0.00119333
1.07188E+07 0.00119270
1.07266E+07 0.00119206
1.07344E+07 0.00119143
1.07422E+07 0.00119079
1.07500E+07 0.00119016
1.07578E+07 0.00118953
1.07656E+07 0.00118890
1.07734E+07 0.00118827
1.07813E+07 0.00118764
1.07891E+07 0.00118701
1.07969E+07 0.00118638
1.08047E+07 0.00118575
1.08125E+07 0.00118513
1.08203E+07 0.00118450
1.08281E+07 0.00118387
1.08359E+07 0.00118325
1.08438E+07 0.00118263
1.08516E+07 0.00118200
1.08594E+07 0.00118138
1.08672E+07 0.00118076
1.08750E+07 0.00118014
1.08828E+07 0.00117952
1.08906E+07 0.00117890
1.08984E+07 0.00117828
1.09063E+07 0.00117767
1.09141E+07 0.00117705
1.09219E+07 0.00117644
1.09297E+07 0.00117582
1.09375E+07 0.00117521
1.09453E+07 0.00117459
1.09531E+07 0.00117398
1.09609E+07 0.00117337
1.09688E+07 0.00117276
1.09766E+07 0.00117215
1.09844E+07 0.00117154
1.09922E+07 0.00117093
1.10000E+07 0.00117032
1.10078E+07 0.00116963
1.10156E+07 0.00116894
1.10234E+07 0.00116825
1.10313E+07 0.00116756
1.10391E+07 0.00116687
1.10469E+07 0.00116619
1.10547E+07 0.00116550
1.10625E+07 0.00116482
1.10703E+07 0.00116413
1.10781E+07 0.00116345
1.10859E+07 0.00116277
1.10938E+07 0.00116209
1.11016E+07 0.00116140
1.11094E+07 0.00116073
1.11172E+07 0.00116005
1.11250E+07 0.00115937
1.11328E+07 0.00115869
1.11406E+07 0.00115802
1.11484E+07 0.00115734
1.11563E+07 0.00115667
1.11641E+07 0.00115599
1.11719E+07 0.00115532
1.11797E+07 0.00115465
1.11875E+07 0.00115398
1.11953E+07 0.00115331
1.12031E+07 0.00115264
1.12109E+07 0.00115197
1.12188E+07 0.00115130
1.12266E+07 0.00115064
1.12344E+07 0.00114997
1.12422E+07 0.00114931
1.12500E+07 0.00114864
1.12578E+07 0.00114798
1.12656E+07 0.00114732
1.12734E+07 0.00114665
1.12813E+07 0.00114599
1.12891E+07 0.00114533
1.12969E+07 0.00114467
1.13047E+07 0.00114402
1.13125E+07 0.00114336
1.13203E+07 0.00114270
1.13281E+07 0.00114205
1.13359E+07 0.00114139
1.13438E+07 0.00114074
1.13516E+07 0.00114008
1.13594E+07 0.00113943
1.13672E+07 0.00113878
1.13750E+07 0.00113813
1.13828E+07 0.00113748
1.13906E+07 0.00113683
1.13984E+07 0.00113618
1.14063E+07 0.00113554
1.14141E+07 0.00113489
1.14219E+07 0.00113424
1.14297E+07 0.00113360
1.14375E+07 0.00113295
1.14453E+07 0.00113231
1.14531E+07 0.00113167
1.14609E+07 0.00113102
1.14688E+07 0.00113038
1.14766E+07 0.00112974
1.14844E+07 0.00112910
1.14922E+07 0.00112847
1.15000E+07 0.00112783
1.15078E+07 0.00112719
1.15156E+07 0.00112655
1.15234E+07 0.00112592
1.15313E+07 0.00112528
1.15391E+07 0.00112465
1.15469E+07 0.00112402
1.15547E+07 0.00112338
1.15625E+07 0.00112275
1.15703E+07 0.00112212
1.15781E+07 0.00112149
1.15859E+07 0.00112086
1.15938E+07 0.00112023
1.16016E+07 0.00111961
1.16094E+07 0.00111898
1.16172E+07 0.00111835
1.16250E+07 0.00111773
1.16328E+07 0.00111710
1.16406E+07 0.00111648
1.16484E+07 0.00111586
1.16563E+07 0.00111524
1.16641E+07 0.00111461
1.16719E+07 0.00111399
1.16797E+07 0.00111337
1.16875E+07 0.00111275
1.16953E+07 0.00111213
1.17031E+07 0.00111152
1.17109E+07 0.00111090
1.17188E+07 0.00111028
1.17266E+07 0.00110967
1.17344E+07 0.00110905
1.17422E+07 0.00110844
1.17500E+07 0.00110783
1.17578E+07 0.00110721
1.17656E+07 0.00110660
1.17734E+07 0.00110599
1.17813E+07 0.00110538
1.17891E+07 0.00110477
1.17969E+07 0.00110416
1.18047E+07 0.00110355
1.18125E+07 0.00110295
1.18203E+07 0.00110234
1.18281E+07 0.00110174
1.18359E+07 0.00110113
1.18438E+07 0.00110053
1.18516E+07 0.00109992
1.18594E+07 0.00109932
1.18672E+07 0.00109872
1.18750E+07 0.00109812
1.18828E+07 0.00109751
1.18906E+07 0.00109691
1.18984E+07 0.00109632
1.19063E+07 0.00109572
1.19141E+07 0.00109512
1.19219E+07 0.00109452
1.19297E+07 0.00109393
1.19375E+07 0.00109333
1.19453E+07 0.00109273
1.19531E+07 0.00109214
1.19609E+07 0.00109155
1.19688E+07 0.00109095
1.19766E+07 0.00109036
1.19844E+07 0.00108977
1.19922E+07 0.00108918
1.20000E+07 0.00108859
1.20078E+07 0.00108812
1.20156E+07 0.00108766
1.20234E+07 0.00108719
1.20313E+07 0.00108673
1.20391E+07 0.00108626
1.20469E+07 0.00108580
1.20547E+07 0.00108533
1.20625E+07 0.00108487
1.20703E+07 0.00108441
1.20781E+07 0.00108395
1.20859E+07 0.00108348
1.20938E+07 0.00108302
1.21016E+07 0.00108256
1.21094E+07 0.00108210
1.21172E+07 0.00108164
1.21250E+07 0.00108118
1.21328E+07 0.00108072
1.21406E+07 0.00108027
1.21484E+07 0.00107981
1.21563E+07 0.00107935
1.21641E+07 0.00107889
1.21719E+07 0.00107844
1.21797E+07 0.00107798
1.21875E+07 0.00107753
1.21953E+07 0.00107707
1.22031E+07 0.00107662
1.22109E+07 0.00107616
1.22188E+07 0.00107571
1.22266E+07 0.00107526
1.22344E+07 0.00107481
1.22422E+07 0.00107435
1.22500E+07 0.00107390
1.22578E+07 0.00107345
1.22656E+07 0.00107300
1.22734E+07 0.00107255
1.22813E+07 0.00107210
1.22891E+07 0.00107165
1.22969E+07 0.00107120
1.23047E+07 0.00107076
1.23125E+07 0.00107031
1.23203E+07 0.00106986
1.23281E+07 0.00106941
1.23359E+07 0.00106897
1.23438E+07 0.00106852
1.23516E+07 0.00106808
1.23594E+07 0.00106763
1.23672E+07 0.00106719
1.23750E+07 0.00106674
1.23828E+07 0.00106630
1.23906E+07 0.00106586
1.23984E+07 0.00106541
1.24063E+07 0.00106497
1.24141E+07 0.00106453
1.24219E+07 0.00106409
1.24297E+07 0.00106365
1.24375E+07 0.00106321
1.24453E+07 0.00106277
1.24531E+07 0.00106233
1.24609E+07 0.00106189
1.24688E+07 0.00106145
1.24766E+07 0.00106101
1.24844E+07 0.00106058
1.24922E+07 0.00106014
1.25000E+07 0.00105970
1.25078E+07 0.00105927
1.25156E+07 0.00105883
1.25234E+07 0.00105840
1.25313E+07 0.00105796
1.25391E+07 0.00105753
1.25469E+07 0.00105709
1.25547E+07 0.00105666
1.25625E+07 0.00105623
1.25703E+07 0.00105579
1.25781E+07 0.00105536
1.25859E+07 0.00105493
1.25938E+07 0.00105450
1.26016E+07 0.00105407
1.26094E+07 0.00105364
1.26172E+07 0.00105321
1.26250E+07 0.00105278
1.26328E+07 0.00105235
1.26406E+07 0.00105192
1.26484E+07 0.00105149
1.26563E+07 0.00105107
1.26641E+07 0.00105064
1.26719E+07 0.00105021
1.26797E+07 0.00104978
1.26875E+07 0.00104936
1.26953E+07 0.00104893
1.27031E+07 0.00104851
1.27109E+07 0.00104808
1.27188E+07 0.00104766
1.27266E+07 0.00104724
1.27344E+07 0.00104681
1.27422E+07 0.00104639
1.27500E+07 0.00104597
1.27578E+07 0.00104554
1.27656E+07 0.00104512
1.27734E+07 0.00104470
1.27813E+07 0.00104428
1.27891E+07 0.00104386
1.27969E+07 0.00104344
1.28047E+07 0.00104302
1.28125E+07 0.00104260
1.28203E+07 0.00104218
1.28281E+07 0.00104177
1.28359E+07 0.00104135
1.28438E+07 0.00104093
1.28516E+07 0.00104051
1.28594E+07 0.00104010
1.28672E+07 0.00103968
1.28750E+07 0.00103927
1.28828E+07 0.00103885
1.28906E+07 0.00103843
1.28984E+07 0.00103802
1.29063E+07 0.00103761
1.29141E+07 0.00103719
1.29219E+07 0.00103678
1.29297E+07 0.00103637
1.29375E+07 0.00103595
1.29453E+07 0.00103554
1.29531E+07 0.00103513
1.29609E+07 0.00103472
1.29688E+07 0.00103431
1.29766E+07 0.00103390
1.29844E+07 0.00103349
1.29922E+07 0.00103308
1.30000E+07 0.00103267
1.30078E+07 0.00103241
1.30156E+07 0.00103215
1.30234E+07 0.00103189
1.30313E+07 0.00103163
1.30391E+07 0.00103138
1.30469E+07 0.00103112
1.30547E+07 0.00103086
1.30625E+07 0.00103060
1.30703E+07 0.00103035
1.30781E+07 0.00103009
1.30859E+07 0.00102983
1.30938E+07 0.00102957
1.31016E+07 0.00102932
1.31094E+07 0.00102906
1.31172E+07 0.00102881
1.31250E+07 0.00102855
1.31328E+07 0.00102829
1.31406E+07 0.00102804
1.31484E+07 0.00102778
1.31563E+07 0.00102753
1.31641E+07 0.00102727
1.31719E+07 0.00102702
1.31797E+07 0.00102676
1.31875E+07 0.00102651
1.31953E+07 0.00102626
1.32031E+07 0.00102600
1.32109E+07 0.00102575
1.32188E+07 0.00102549
1.32266E+07 0.00102524
1.32344E+07 0.00102499
1.32422E+07 0.00102474
1.32500E+07 0.00102448
1.32578E+07 0.00102423
1.32656E+07 0.00102398
1.32734E+07 0.00102373
1.32813E+07 0.00102348
1.32891E+07 0.00102322
1.32969E+07 0.00102297
1.33047E+07 0.00102272
1.33125E+07 0.00102247
1.33203E+07 0.00102222
1.33281E+07 0.00102197
1.33359E+07 0.00102172
1.33438E+07 0.00102147
1.33516E+07 0.00102122
1.33594E+07 0.00102097
1.33672E+07 0.00102072
1.33750E+07 0.00102047
1.33828E+07 0.00102022
1.33906E+07 0.00101997
1.33984E+07 0.00101972
1.34063E+07 0.00101948
1.34141E+07 0.00101923
1.34219E+07 0.00101898
1.34297E+07 0.00101873
1.34375E+07 0.00101849
1.34453E+07 0.00101824
1.34531E+07 0.00101799
1.34609E+07 0.00101774
1.34688E+07 0.00101750
1.34766E+07 0.00101725
1.34844E+07 0.00101700
1.34922E+07 0.00101676
1.35000E+07 0.00101651
1.35078E+07 0.00101627
1.35156E+07 0.00101602
1.35234E+07 0.00101578
1.35313E+07 0.00101553
1.35391E+07 0.00101529
1.35469E+07 0.00101504
1.35547E+07 0.00101480
1.35625E+07 0.00101455
1.35703E+07 0.00101431
1.35781E+07 0.00101406
1.35859E+07 0.00101382
1.35938E+07 0.00101358
1.36016E+07 0.00101333
1.36094E+07 0.00101309
1.36172E+07 0.00101285
1.36250E+07 0.00101260
1.36328E+07 0.00101236
1.36406E+07 0.00101212
1.36484E+07 0.00101188
1.36563E+07 0.00101164
1.36641E+07 0.00101139
1.36719E+07 0.00101115
1.36797E+07 0.00101091
1.36875E+07 0.00101067
1.36953E+07 0.00101043
1.37031E+07 0.00101019
1.37109E+07 0.00100995
1.37188E+07 0.00100971
1.37266E+07 0.00100947
1.37344E+07 0.00100923
1.37422E+07 0.00100899
1.37500E+07 0.00100875
1.37578E+07 0.00100851
1.37656E+07 0.00100827
1.37734E+07 0.00100803
1.37813E+07 0.00100779
1.37891E+07 0.00100755
1.37969E+07 0.00100731
1.38047E+07 0.00100708
1.38125E+07 0.00100684
1.38203E+07 0.00100660
1.38281E+07 0.00100636
1.38359E+07 0.00100612
1.38438E+07 0.00100589
1.38516E+07 0.00100565
1.38594E+07 0.00100541
1.38672E+07 0.00100518
1.38750E+07 0.00100494
1.38828E+07 0.00100470
1.38906E+07 0.00100447
1.38984E+07 0.00100423
1.39063E+07 0.00100400
1.39141E+07 0.00100376
1.39219E+07 0.00100352
1.39297E+07 0.00100329
1.39375E+07 0.00100305
1.39453E+07 0.00100282
1.39531E+07 0.00100258
1.39609E+07 0.00100235
1.39688E+07 0.00100212
1.39766E+07 0.00100188
1.39844E+07 0.00100165
1.39922E+07 0.00100141
1.40000E+07 0.00100118
1.40156E+07 0.00100099
1.40313E+07 0.00100079
1.40469E+07 0.00100060
1.40625E+07 0.00100041
1.40781E+07 0.00100022
1.40938E+07 0.00100003
1.41094E+07 0.000999834
1.41250E+07 0.000999643
1.41406E+07 0.000999451
1.41563E+07 0.000999261
1.41719E+07 0.000999070
1.41875E+07 0.000998880
1.42031E+07 0.000998690
1.42188E+07 0.000998500
1.42344E+07 0.000998310
1.42500E+07 0.000998121
1.42656E+07 0.000997932
1.42813E+07 0.000997743
1.42969E+07 0.000997554
1.43125E+07 0.000997366
1.43281E+07 0.000997178
1.43438E+07 0.000996990
1.43594E+07 0.000996802
1.43750E+07 0.000996615
1.43906E+07 0.000996428
1.44063E+07 0.000996241
1.44219E+07 0.000996054
1.44375E+07 0.000995867
1.44531E+07 0.000995681
1.44688E+07 0.000995495
1.44844E+07 0.000995309
1.45000E+07 0.000995124
1.45202E+07 0.000994884
1.45405E+07 0.000994645
1.45607E+07 0.000994405
1.45809E+07 0.000994167
1.46012E+07 0.000993929
1.46214E+07 0.000993691
1.46416E+07 0.000993453
1.46619E+07 0.000993216
1.46821E+07 0.000992979
1.47023E+07 0.000992743
1.47226E+07 0.000992507
1.47428E+07 0.000992271
1.47630E+07 0.000992036
1.47832E+07 0.000991801
1.48035E+07 0.000991567
1.48237E+07 0.000991332
1.48457E+07 0.000991078
1.48678E+07 0.000990824
1.48898E+07 0.000990570
1.49119E+07 0.000990317
1.49339E+07 0.000990064
1.49559E+07 0.000989811
1.49780E+07 0.000989559
1.50000E+07 0.000989308
1.50156E+07 0.000989362
1.50313E+07 0.000989415
1.50469E+07 0.000989468
1.50625E+07 0.000989522
1.50781E+07 0.000989575
1.50938E+07 0.000989628
1.51094E+07 0.000989682
1.51250E+07 0.000989735
1.51406E+07 0.000989788
1.51563E+07 0.000989841
1.51719E+07 0.000989894
1.51875E+07 0.000989947
1.52031E+07 0.000990000
1.52188E+07 0.000990053
1.52344E+07 0.000990105
1.52500E+07 0.000990158
1.52656E+07 0.000990211
1.52813E+07 0.000990263
1.52969E+07 0.000990316
1.53125E+07 0.000990368
1.53281E+07 0.000990421
1.53438E+07 0.000990473
1.53594E+07 0.000990526
1.53750E+07 0.000990578
1.53906E+07 0.000990630
1.54063E+07 0.000990683
1.54219E+07 0.000990735
1.54375E+07 0.000990787
1.54531E+07 0.000990839
1.54688E+07 0.000990891
1.54844E+07 0.000990943
1.55000E+07 0.000990995
1.55156E+07 0.000991047
1.55313E+07 0.000991099
1.55469E+07 0.000991150
1.55625E+07 0.000991202
1.55781E+07 0.000991254
1.55938E+07 0.000991306
1.56094E+07 0.000991357
1.56250E+07 0.000991409
1.56406E+07 0.000991460
1.56563E+07 0.000991512
1.56719E+07 0.000991563
1.56875E+07 0.000991614
1.57031E+07 0.000991666
1.57188E+07 0.000991717
1.57344E+07 0.000991768
1.57500E+07 0.000991819
1.57656E+07 0.000991870
1.57813E+07 0.000991921
1.57969E+07 0.000991972
1.58125E+07 0.000992023
1.58281E+07 0.000992074
1.58438E+07 0.000992125
1.58594E+07 0.000992176
1.58750E+07 0.000992227
1.58906E+07 0.000992277
1.59063E+07 0.000992328
1.59219E+07 0.000992379
1.59375E+07 0.000992429
1.59531E+07 0.000992480
1.59688E+07 0.000992530
1.59844E+07 0.000992581
1.60000E+07 0.000992631
1.60156E+07 0.000992875
1.60313E+07 0.000993118
1.60469E+07 0.000993362
1.60625E+07 0.000993605
1.60781E+07 0.000993848
1.60938E+07 0.000994090
1.61094E+07 0.000994333
1.61250E+07 0.000994576
1.61406E+07 0.000994818
1.61563E+07 0.000995060
1.61719E+07 0.000995302
1.61875E+07 0.000995544
1.62031E+07 0.000995785
1.62188E+07 0.000996026
1.62344E+07 0.000996268
1.62500E+07 0.000996509
1.62656E+07 0.000996750
1.62813E+07 0.000996990
1.62969E+07 0.000997231
1.63125E+07 0.000997471
1.63281E+07 0.000997711
1.63438E+07 0.000997951
1.63594E+07 0.000998191
1.63750E+07 0.000998431
1.63906E+07 0.000998670
1.64063E+07 0.000998910
1.64219E+07 0.000999149
1.64375E+07 0.000999388
1.64531E+07 0.000999627
1.64688E+07 0.000999865
1.64844E+07 0.00100010
1.65000E+07 0.00100034
1.65156E+07 0.00100058
1.65313E+07 0.00100082
1.65469E+07 0.00100106
1.65625E+07 0.00100129
1.65781E+07 0.00100153
1.65938E+07 0.00100177
1.66094E+07 0.00100201
1.66250E+07 0.00100224
1.66406E+07 0.00100248
1.66563E+07 0.00100272
1.66719E+07 0.00100295
1.66875E+07 0.00100319
1.67031E+07 0.00100343
1.67188E+07 0.00100366
1.67344E+07 0.00100390
1.67500E+07 0.00100413
1.67656E+07 0.00100437
1.67813E+07 0.00100460
1.67969E+07 0.00100484
1.68125E+07 0.00100507
1.68281E+07 0.00100531
1.68438E+07 0.00100554
1.68594E+07 0.00100578
1.68750E+07 0.00100601
1.68906E+07 0.00100625
1.69063E+07 0.00100648
1.69219E+07 0.00100671
1.69375E+07 0.00100695
1.69531E+07 0.00100718
1.69688E+07 0.00100741
1.69844E+07 0.00100765
1.70000E+07 0.00100788
1.70156E+07 0.00100828
1.70313E+07 0.00100867
1.70469E+07 0.00100907
1.70625E+07 0.00100946
1.70781E+07 0.00100986
1.70938E+07 0.00101025
1.71094E+07 0.00101065
1.71250E+07 0.00101104
1.71406E+07 0.00101143
1.71563E+07 0.00101183
1.71719E+07 0.00101222
1.71875E+07 0.00101261
1.72031E+07 0.00101301
1.72188E+07 0.00101340
1.72344E+07 0.00101379
1.72500E+07 0.00101419
1.72656E+07 0.00101458
1.72813E+07 0.00101497
1.72969E+07 0.00101536
1.73125E+07 0.00101575
1.73281E+07 0.00101614
1.73438E+07 0.00101654
1.73594E+07 0.00101693
1.73750E+07 0.00101732
1.73906E+07 0.00101771
1.74063E+07 0.00101810
1.74219E+07 0.00101849
1.74375E+07 0.00101888
1.74531E+07 0.00101927
1.74688E+07 0.00101966
1.74844E+07 0.00102005
1.75000E+07 0.00102044
1.75156E+07 0.00102083
1.75313E+07 0.00102122
1.75469E+07 0.00102160
1.75625E+07 0.00102199
1.75781E+07 0.00102238
1.75938E+07 0.00102277
1.76094E+07 0.00102316
1.76250E+07 0.00102354
1.76406E+07 0.00102393
1.76563E+07 0.00102432
1.76719E+07 0.00102471
1.76875E+07 0.00102509
1.77031E+07 0.00102548
1.77188E+07 0.00102587
1.77344E+07 0.00102625
1.77500E+07 0.00102664
1.77656E+07 0.00102702
1.77813E+07 0.00102741
1.77969E+07 0.00102780
1.78125E+07 0.00102818
1.78281E+07 0.00102857
1.78438E+07 0.00102895
1.78594E+07 0.00102934
1.78750E+07 0.00102972
1.78906E+07 0.00103011
1.79063E+07 0.00103049
1.79219E+07 0.00103087
1.79375E+07 0.00103126
1.79531E+07 0.00103164
1.79688E+07 0.00103202
1.79844E+07 0.00103241
1.80000E+07 0.00103279
1.80260E+07 0.00103366
1.80521E+07 0.00103452
1.80781E+07 0.00103539
1.81041E+07 0.00103626
1.81302E+07 0.00103712
1.81562E+07 0.00103799
1.81823E+07 0.00103885
1.82083E+07 0.00103972
1.82343E+07 0.00104058
1.82604E+07 0.00104144
1.82864E+07 0.00104230
1.83124E+07 0.00104317
1.83385E+07 0.00104403
1.83645E+07 0.00104489
1.83905E+07 0.00104575
1.84166E+07 0.00104661
1.84426E+07 0.00104747
1.84686E+07 0.00104832
1.84947E+07 0.00104918
1.85207E+07 0.00105004
1.85467E+07 0.00105090
1.85728E+07 0.00105175
1.85988E+07 0.00105261
1.86248E+07 0.00105347
1.86509E+07 0.00105432
1.86769E+07 0.00105518
1.87029E+07 0.00105603
1.87290E+07 0.00105688
1.87550E+07 0.00105774
1.87810E+07 0.00105859
1.88071E+07 0.00105944
1.88331E+07 0.00106029
1.88604E+07 0.00106118
1.88876E+07 0.00106207
1.89149E+07 0.00106296
1.89421E+07 0.00106385
1.89711E+07 0.00106480
1.90000E+07 0.00106574
1.90313E+07 0.00106700
1.90625E+07 0.00106826
1.90938E+07 0.00106951
1.91250E+07 0.00107077
1.91563E+07 0.00107203
1.91875E+07 0.00107328
1.92188E+07 0.00107454
1.92500E+07 0.00107579
1.92813E+07 0.00107704
1.93125E+07 0.00107830
1.93438E+07 0.00107955
1.93750E+07 0.00108080
1.94063E+07 0.00108205
1.94375E+07 0.00108330
1.94688E+07 0.00108455
1.95000E+07 0.00108580
1.95313E+07 0.00108705
1.95625E+07 0.00108830
1.95938E+07 0.00108955
1.96250E+07 0.00109080
1.96563E+07 0.00109204
1.96875E+07 0.00109329
1.97188E+07 0.00109453
1.97500E+07 0.00109578
1.97813E+07 0.00109702
1.98125E+07 0.00109827
1.98438E+07 0.00109951
1.98750E+07 0.00110075
1.99063E+07 0.00110200
1.99375E+07 0.00110324
1.99688E+07 0.00110448
2.00000E+07 0.00110572
