Se-78(n,g) ENDFB-8.0
Energy(eV) XS(b)
1.00000E-05 21.6292
1.03125E-05 21.2990
1.06250E-05 20.9834
1.09375E-05 20.6815
1.12500E-05 20.3922
1.15625E-05 20.1147
1.18750E-05 19.8483
1.21875E-05 19.5922
1.25000E-05 19.3457
1.28125E-05 19.1084
1.31250E-05 18.8795
1.34375E-05 18.6587
1.37500E-05 18.4454
1.43750E-05 18.0400
1.50000E-05 17.6602
1.56250E-05 17.3034
1.62500E-05 16.9673
1.68750E-05 16.6502
1.75000E-05 16.3501
1.81250E-05 16.0658
1.87500E-05 15.7957
1.93750E-05 15.5389
2.00000E-05 15.2942
2.09375E-05 14.9478
2.18750E-05 14.6240
2.28125E-05 14.3204
2.37500E-05 14.0349
2.46875E-05 13.7658
2.56250E-05 13.5117
2.65625E-05 13.2711
2.75000E-05 13.0429
2.84375E-05 12.8261
2.93750E-05 12.6198
3.03125E-05 12.4231
3.12500E-05 12.2353
3.21875E-05 12.0558
3.31250E-05 11.8840
3.40625E-05 11.7193
3.50000E-05 11.5613
3.59375E-05 11.4095
3.68750E-05 11.2635
3.78125E-05 11.1230
3.87500E-05 10.9876
3.96875E-05 10.8571
4.06250E-05 10.7311
4.25000E-05 10.4917
4.43750E-05 10.2677
4.62500E-05 10.0574
4.81250E-05 9.85950
5.00000E-05 9.67287
5.15625E-05 9.52518
5.31250E-05 9.38406
5.46875E-05 9.24903
5.62500E-05 9.11967
5.78125E-05 8.99559
5.93750E-05 8.87643
6.09375E-05 8.76189
6.25000E-05 8.65168
6.40625E-05 8.54552
6.56250E-05 8.44317
6.71875E-05 8.34442
6.87500E-05 8.24905
7.18750E-05 8.06773
7.50000E-05 7.89786
7.81250E-05 7.73830
8.12500E-05 7.58802
8.43750E-05 7.44618
8.75000E-05 7.31200
9.06250E-05 7.18483
9.37500E-05 7.06406
9.68750E-05 6.94919
0.000100000 6.83975
0.000103125 6.73532
0.000106250 6.63553
0.000109375 6.54005
0.000112500 6.44858
0.000115625 6.36084
0.000118750 6.27659
0.000121875 6.19560
0.000125000 6.11766
0.000128125 6.04259
0.000131250 5.97022
0.000134375 5.90040
0.000137500 5.83296
0.000143750 5.70475
0.000150000 5.58463
0.000156250 5.47180
0.000162500 5.36554
0.000168750 5.26524
0.000175000 5.17037
0.000181250 5.08044
0.000187500 4.99505
0.000193750 4.91382
0.000200000 4.83644
0.000209375 4.72692
0.000218750 4.62452
0.000228125 4.52850
0.000237500 4.43822
0.000246875 4.35313
0.000256250 4.27276
0.000265625 4.19668
0.000275000 4.12453
0.000284375 4.05597
0.000293750 3.99072
0.000303125 3.92853
0.000312500 3.86915
0.000321875 3.81239
0.000331250 3.75805
0.000340625 3.70597
0.000350000 3.65600
0.000359375 3.60800
0.000368750 3.56184
0.000378125 3.51741
0.000387500 3.47460
0.000396875 3.43332
0.000406250 3.39347
0.000425000 3.31777
0.000443750 3.24692
0.000462500 3.18042
0.000481250 3.11785
0.000500000 3.05883
0.000515625 3.01213
0.000531250 2.96751
0.000546875 2.92481
0.000562500 2.88390
0.000578125 2.84466
0.000593750 2.80698
0.000609375 2.77076
0.000625000 2.73591
0.000640625 2.70234
0.000656250 2.66997
0.000671875 2.63874
0.000687500 2.60859
0.000718750 2.55125
0.000750000 2.49753
0.000781250 2.44707
0.000812500 2.39955
0.000843750 2.35470
0.000875000 2.31227
0.000906250 2.27205
0.000937500 2.23386
0.000968750 2.19754
0.00100000 2.16293
0.00103125 2.12990
0.00106250 2.09835
0.00109375 2.06816
0.00112500 2.03923
0.00115625 2.01148
0.00118750 1.98484
0.00121875 1.95923
0.00125000 1.93458
0.00128125 1.91085
0.00131250 1.88796
0.00134375 1.86588
0.00137500 1.84455
0.00143750 1.80401
0.00150000 1.76603
0.00156250 1.73034
0.00162500 1.69674
0.00168750 1.66502
0.00175000 1.63502
0.00181250 1.60658
0.00187500 1.57958
0.00193750 1.55390
0.00200000 1.52942
0.00209375 1.49479
0.00218750 1.46241
0.00228125 1.43204
0.00237500 1.40349
0.00246875 1.37659
0.00256250 1.35117
0.00265625 1.32711
0.00275000 1.30429
0.00284375 1.28261
0.00293750 1.26198
0.00303125 1.24231
0.00312500 1.22353
0.00321875 1.20558
0.00331250 1.18840
0.00340625 1.17193
0.00350000 1.15613
0.00359375 1.14095
0.00368750 1.12635
0.00378125 1.11230
0.00387500 1.09877
0.00396875 1.08571
0.00406250 1.07311
0.00425000 1.04917
0.00443750 1.02677
0.00462500 1.00574
0.00481250 0.985951
0.00500000 0.967288
0.00515625 0.952519
0.00531250 0.938407
0.00546875 0.924904
0.00562500 0.911968
0.00578125 0.899560
0.00593750 0.887645
0.00609375 0.876191
0.00625000 0.865170
0.00640625 0.854554
0.00656250 0.844320
0.00671875 0.834444
0.00687500 0.824908
0.00718750 0.806776
0.00750000 0.789789
0.00781250 0.773832
0.00812500 0.758804
0.00843750 0.744619
0.00875000 0.731201
0.00906250 0.718484
0.00937500 0.706407
0.00968750 0.694920
0.0100000 0.683975
0.0103125 0.673532
0.0106250 0.663553
0.0109375 0.654006
0.0112500 0.644858
0.0115625 0.636085
0.0118750 0.627660
0.0121875 0.619561
0.0125000 0.611768
0.0128125 0.604262
0.0131250 0.597026
0.0134375 0.590044
0.0137500 0.583301
0.0143750 0.570480
0.0150000 0.558470
0.0156250 0.547187
0.0162500 0.536561
0.0168750 0.526531
0.0175000 0.517042
0.0181250 0.508049
0.0187500 0.499509
0.0193750 0.491386
0.0200000 0.483646
0.0206625 0.475828
0.0213250 0.468378
0.0219875 0.461267
0.0226500 0.454470
0.0233125 0.447966
0.0239750 0.441733
0.0246375 0.435753
0.0253000 0.430010
0.0264578 0.420496
0.0276156 0.411588
0.0287734 0.403224
0.0299313 0.395350
0.0310891 0.387921
0.0322469 0.380895
0.0334047 0.374238
0.0345625 0.367918
0.0355274 0.362889
0.0364922 0.358061
0.0374570 0.353419
0.0384219 0.348954
0.0393867 0.344653
0.0403516 0.340507
0.0413164 0.336508
0.0422813 0.332645
0.0442109 0.325303
0.0461406 0.318427
0.0480703 0.311969
0.0500000 0.305889
0.0515625 0.301218
0.0531250 0.296754
0.0546875 0.292484
0.0562500 0.288393
0.0578125 0.284469
0.0593750 0.280701
0.0609375 0.277080
0.0625000 0.273596
0.0640625 0.270240
0.0656250 0.267005
0.0671875 0.263884
0.0687500 0.260869
0.0718750 0.255138
0.0750000 0.249768
0.0781250 0.244723
0.0812500 0.239970
0.0843750 0.235484
0.0875000 0.231240
0.0906250 0.227217
0.0937500 0.223397
0.0968750 0.219764
0.100000 0.216302
0.103125 0.213000
0.106250 0.209844
0.109375 0.206824
0.112500 0.203931
0.115625 0.201156
0.118750 0.198492
0.121875 0.195931
0.125000 0.193467
0.128125 0.191094
0.131250 0.188807
0.134375 0.186601
0.137500 0.184470
0.143750 0.180419
0.150000 0.176622
0.156250 0.173054
0.162500 0.169693
0.168750 0.166521
0.175000 0.163520
0.181250 0.160676
0.187500 0.157976
0.193750 0.155409
0.200000 0.152964
0.209375 0.149503
0.218750 0.146265
0.228125 0.143228
0.237500 0.140372
0.246875 0.137681
0.256250 0.135139
0.265625 0.132733
0.275000 0.130451
0.284375 0.128282
0.293750 0.126219
0.303125 0.124252
0.312500 0.122374
0.321875 0.120579
0.331250 0.118861
0.340625 0.117214
0.350000 0.115634
0.359375 0.114116
0.368750 0.112657
0.378125 0.111252
0.387500 0.109899
0.396875 0.108596
0.406250 0.107338
0.425000 0.104948
0.443750 0.102708
0.462500 0.100605
0.500000 0.0967665
0.531250 0.0938837
0.562500 0.0912387
0.593750 0.0888052
0.625000 0.0865567
0.687500 0.0825295
0.750000 0.0790174
0.812500 0.0759191
0.875000 0.0731672
0.937500 0.0706948
1.00000 0.0684505
1.06250 0.0664075
1.12500 0.0645375
1.18750 0.0628174
1.25000 0.0612282
1.37500 0.0583817
1.50000 0.0558994
1.62500 0.0537097
1.75000 0.0517641
1.87500 0.0500164
2.00000 0.0484287
2.18750 0.0463091
2.37500 0.0444480
2.56250 0.0427955
2.75000 0.0413182
2.93750 0.0399849
3.12500 0.0387706
3.31250 0.0376612
3.50000 0.0366423
3.87500 0.0348317
4.25000 0.0332670
4.62500 0.0318971
5.00000 0.0306860
5.31250 0.0297768
5.62500 0.0289434
5.93750 0.0281770
6.25000 0.0274689
6.87500 0.0262012
7.50000 0.0250960
8.12500 0.0241215
8.75000 0.0232549
9.37500 0.0224770
10.0000 0.0217725
10.6250 0.0211316
11.2500 0.0205453
11.8750 0.0200062
12.5000 0.0195084
13.7500 0.0186176
15.0000 0.0178417
16.2500 0.0171582
17.5000 0.0165507
18.7500 0.0160059
20.0000 0.0155132
21.8750 0.0148563
23.7500 0.0142807
25.6250 0.0137710
27.5000 0.0133160
29.3750 0.0129067
31.2500 0.0125358
33.1250 0.0121981
35.0000 0.0118892
38.7500 0.0113433
42.5000 0.0108758
46.2500 0.0104704
50.0000 0.0101157
53.1250 0.00985237
56.2500 0.00961386
59.3750 0.00939713
62.5000 0.00919953
68.7500 0.00885332
75.0000 0.00856163
81.2500 0.00831465
87.5000 0.00810530
93.7500 0.00792809
100.000 0.00777880
106.250 0.00765445
112.500 0.00755268
118.750 0.00747169
125.000 0.00741015
134.375 0.00735420
143.750 0.00733440
150.000 0.00734437
156.250 0.00737209
162.500 0.00741801
168.750 0.00748288
175.000 0.00756771
181.250 0.00767380
187.500 0.00780281
193.750 0.00795679
200.000 0.00813821
207.495 0.00839872
211.243 0.00854385
214.990 0.00870783
222.485 0.00907216
229.980 0.00951105
233.727 0.00975642
237.475 0.0100312
241.222 0.0103245
244.970 0.0106446
248.717 0.0110025
252.464 0.0113851
256.212 0.0118072
259.959 0.0122671
263.885 0.0128060
267.811 0.0134010
271.737 0.0140622
275.663 0.0148029
279.589 0.0156264
283.515 0.0165557
285.478 0.0170604
287.441 0.0176030
291.367 0.0187833
294.579 0.0198740
297.791 0.0210924
299.397 0.0217517
301.003 0.0224569
302.609 0.0231923
304.215 0.0239902
305.821 0.0248193
307.427 0.0257203
309.033 0.0266661
310.639 0.0276822
312.245 0.0287525
313.851 0.0299114
315.457 0.0311537
317.063 0.0324874
319.026 0.0342563
320.989 0.0361931
322.952 0.0383220
324.915 0.0406704
326.878 0.0432651
328.841 0.0461473
330.804 0.0493583
332.767 0.0529473
334.552 0.0565968
335.444 0.0585742
336.336 0.0606699
337.228 0.0628825
338.121 0.0652312
339.013 0.0677248
339.905 0.0703672
340.797 0.0731867
341.690 0.0761839
342.582 0.0793794
343.474 0.0828008
344.366 0.0864494
345.259 0.0903569
346.151 0.0945207
347.043 0.0990273
348.025 0.104391
349.006 0.110223
349.988 0.116580
350.969 0.123527
351.950 0.131140
352.932 0.139507
353.913 0.148731
354.895 0.158933
355.876 0.170259
356.858 0.182879
357.349 0.189738
357.839 0.196999
358.330 0.204697
358.821 0.212867
359.312 0.221550
359.802 0.230786
360.293 0.240629
360.784 0.251127
361.275 0.262345
361.765 0.274346
362.256 0.287207
362.747 0.301003
363.282 0.317208
363.817 0.334760
364.353 0.353884
364.888 0.374749
365.423 0.397557
365.959 0.422543
366.494 0.450004
367.029 0.480268
367.520 0.510821
368.011 0.544421
368.502 0.581503
368.992 0.622550
369.483 0.668168
369.729 0.692903
369.974 0.719043
370.219 0.746719
370.465 0.776030
370.710 0.807134
370.955 0.840152
371.357 0.898804
371.758 0.963871
372.160 1.03634
372.361 1.07572
372.561 1.11738
372.762 1.16153
372.963 1.20833
373.164 1.25805
373.364 1.31088
373.565 1.36716
373.766 1.42718
373.967 1.49133
374.167 1.55994
374.413 1.65056
374.658 1.74942
374.904 1.85752
375.149 1.97602
375.394 2.10640
375.640 2.25024
375.885 2.40947
376.130 2.58628
376.292 2.71387
376.454 2.85111
376.616 2.99912
376.777 3.15907
376.939 3.33241
377.020 3.42455
377.101 3.52048
377.182 3.62067
377.263 3.72513
377.343 3.83436
377.424 3.94840
377.486 4.03854
377.547 4.13169
377.608 4.22830
377.670 4.32822
377.731 4.43195
377.792 4.53932
377.854 4.65070
377.915 4.76629
377.993 4.92000
378.032 4.99980
378.071 5.08137
378.110 5.16520
378.149 5.25093
378.188 5.33885
378.227 5.42902
378.261 5.50834
378.308 5.62363
378.356 5.74263
378.403 5.86550
378.450 5.99215
378.506 6.14700
378.562 6.30802
378.618 6.47556
378.673 6.64967
378.729 6.83135
378.785 7.02072
378.813 7.11843
378.841 7.21822
378.869 7.32017
378.896 7.42396
378.947 7.61716
378.997 7.81816
379.022 7.92172
379.047 8.02738
379.072 8.13523
379.097 8.24530
379.122 8.35768
379.147 8.47241
379.173 8.58958
379.198 8.70925
379.223 8.83150
379.248 8.95639
379.273 9.08402
379.298 9.21393
379.323 9.34726
379.348 9.48357
379.373 9.62296
379.398 9.76552
379.423 9.91136
379.449 10.0606
379.474 10.2133
379.499 10.3696
379.524 10.5296
379.549 10.6934
379.599 11.0332
379.649 11.3898
379.699 11.7639
379.730 12.0025
379.761 12.2488
379.792 12.5030
379.822 12.7645
379.853 13.0356
379.884 13.3157
379.914 13.6053
379.945 13.9038
379.976 14.2136
380.006 14.5344
380.037 14.8666
380.068 15.2097
380.098 15.5665
380.129 15.9354
380.160 16.3195
380.190 16.7171
380.221 17.1315
380.252 17.5623
380.282 18.0105
380.313 18.4755
380.344 18.9615
380.374 19.4682
380.405 19.9967
380.436 20.5468
380.466 21.1234
380.497 21.7264
380.528 22.3575
380.558 23.0166
380.589 23.7100
380.620 24.4379
380.650 25.2028
380.681 26.0047
380.712 26.8520
380.742 27.7453
380.773 28.6883
380.804 29.6817
380.834 30.7363
380.865 31.8537
380.896 33.0394
380.926 34.2948
380.957 35.6347
380.988 37.0620
381.018 38.5846
381.049 40.2055
381.080 41.9444
381.110 43.8004
381.141 45.7966
381.172 47.9321
381.195 49.6944
381.219 51.5584
381.243 53.5311
381.266 55.6200
381.290 57.8330
381.314 60.1782
381.338 62.6646
381.361 65.3015
381.385 68.0986
381.409 71.0661
381.432 74.2149
381.456 77.5560
381.480 81.1011
381.503 84.8623
381.527 88.8521
381.551 93.0833
381.582 98.9447
381.612 105.263
381.643 112.067
381.674 119.363
381.704 127.229
381.735 135.671
381.766 144.718
381.796 154.366
381.827 164.704
381.858 175.725
381.888 187.450
381.919 199.856
381.950 213.037
381.980 226.963
382.011 241.638
382.042 257.008
382.072 273.167
382.103 290.048
382.134 307.629
382.164 325.818
382.195 344.694
382.226 364.087
382.287 404.431
382.343 442.486
382.399 481.264
382.510 558.384
382.571 598.962
382.633 636.830
382.700 673.921
382.733 690.393
382.766 705.303
382.817 724.441
382.867 739.354
382.917 749.723
382.967 755.313
383.000 756.334
383.017 756.024
383.071 751.225
383.126 740.769
383.180 724.923
383.235 704.090
383.275 685.647
383.315 665.027
383.356 642.398
383.396 618.158
383.436 593.325
383.475 567.476
383.553 513.873
383.667 434.687
383.724 396.088
383.781 358.903
383.820 334.381
383.859 310.847
383.899 288.389
383.938 267.072
383.977 246.942
384.016 228.021
384.055 210.319
384.095 193.865
384.134 178.553
384.173 164.394
384.212 151.345
384.251 139.354
384.291 128.367
384.330 118.324
384.369 109.163
384.408 100.842
384.440 94.5771
384.472 88.7869
384.504 83.4388
384.536 78.5157
384.568 73.9569
384.600 69.7618
384.633 65.8771
384.665 62.3011
384.697 58.9874
384.729 55.9250
384.761 53.0927
384.793 50.4790
384.825 48.0496
384.857 45.8030
384.889 43.7102
384.921 41.7703
384.960 39.5747
384.999 37.5587
385.039 35.7037
385.078 33.9931
385.117 32.4122
385.156 30.9481
385.195 29.5891
385.235 28.3283
385.274 27.1501
385.313 26.0498
385.352 25.0203
385.391 24.0553
385.431 23.1493
385.470 22.2971
385.509 21.4943
385.548 20.7388
385.591 19.9594
385.634 19.2274
385.676 18.5355
385.719 17.8839
385.805 16.6830
385.890 15.6043
385.976 14.6309
386.061 13.7491
386.147 12.9472
386.232 12.2155
386.310 11.5993
386.389 11.0297
386.467 10.5021
386.546 10.0128
386.624 9.55712
386.702 9.13244
386.781 8.73594
386.859 8.36561
386.937 8.01828
387.016 7.69246
387.094 7.38638
387.173 7.09882
387.251 6.82761
387.329 6.57215
387.408 6.33065
387.486 6.10264
387.643 5.68196
387.799 5.30396
387.956 4.96259
388.113 4.65361
388.270 4.37266
388.426 4.11676
388.583 3.88271
388.740 3.66835
388.868 3.50589
388.996 3.35418
389.125 3.21207
389.253 3.07896
389.381 2.95390
389.509 2.83641
389.638 2.72573
389.766 2.62148
389.894 2.52303
390.022 2.43009
390.151 2.34212
390.279 2.25891
390.535 2.10522
390.792 1.96676
390.949 1.88873
391.105 1.81530
391.262 1.74603
391.419 1.68070
391.576 1.61894
391.732 1.56056
392.046 1.45286
392.359 1.35594
392.673 1.26841
392.986 1.18909
393.300 1.11699
393.642 1.04557
393.984 0.980776
394.326 0.921828
394.668 0.868059
395.010 0.818867
395.352 0.773776
395.694 0.732335
396.036 0.694136
396.349 0.661647
396.663 0.631362
396.976 0.603096
397.290 0.576681
397.603 0.551963
397.917 0.528798
398.230 0.507060
398.544 0.486634
398.857 0.467417
399.171 0.449315
399.484 0.432244
399.798 0.416126
400.111 0.400892
400.425 0.386479
401.052 0.359893
401.679 0.335953
402.306 0.314323
402.933 0.294715
403.559 0.276888
404.186 0.260628
404.813 0.245759
405.440 0.232127
406.067 0.219601
406.580 0.210090
407.093 0.201188
407.606 0.192857
408.119 0.185051
408.632 0.177698
409.145 0.170758
409.658 0.164213
410.171 0.158038
410.684 0.152205
411.197 0.146690
412.223 0.136525
413.249 0.127383
414.275 0.119134
414.902 0.114483
415.529 0.110099
416.156 0.105964
416.783 0.102059
417.410 0.0983676
418.037 0.0948738
419.291 0.0884265
420.545 0.0826188
421.799 0.0773701
423.053 0.0726103
424.307 0.0682813
425.789 0.0636516
427.271 0.0594833
428.753 0.0557167
430.235 0.0523025
431.717 0.0491984
433.198 0.0463900
434.680 0.0437965
436.162 0.0414199
437.416 0.0395648
438.670 0.0378318
439.924 0.0362098
441.178 0.0346978
442.432 0.0332808
443.686 0.0319480
444.940 0.0306993
446.194 0.0295261
447.448 0.0284180
448.702 0.0273751
451.210 0.0254619
453.718 0.0237510
456.226 0.0222130
458.734 0.0208291
461.241 0.0195764
463.749 0.0184400
466.257 0.0174069
468.765 0.0164628
471.273 0.0155998
473.781 0.0148082
476.289 0.0140797
479.253 0.0133005
482.217 0.0125793
485.181 0.0119236
488.145 0.0113262
491.108 0.0107769
494.072 0.0102694
497.036 0.00980009
500.000 0.00936688
504.784 0.00873628
509.567 0.00817671
514.351 0.00767699
519.134 0.00722957
523.917 0.00683242
528.701 0.00646803
533.484 0.00613795
538.268 0.00583888
545.785 0.00542434
549.543 0.00523504
553.302 0.00506116
560.819 0.00474308
568.335 0.00446493
575.852 0.00421682
583.369 0.00399753
590.886 0.00380167
598.403 0.00362519
604.553 0.00349483
610.703 0.00337518
623.004 0.00316480
635.304 0.00298444
647.604 0.00283002
659.905 0.00269782
672.205 0.00258509
684.505 0.00248998
696.806 0.00241175
706.373 0.00236307
715.940 0.00232506
725.507 0.00229846
735.073 0.00228272
740.540 0.00228170
748.057 0.00229082
755.574 0.00231355
763.091 0.00235471
770.608 0.00242204
778.125 0.00252225
785.642 0.00267665
789.400 0.00277858
793.158 0.00291118
796.917 0.00307318
800.675 0.00326898
803.750 0.00347440
806.825 0.00373013
809.901 0.00405034
812.976 0.00445703
816.051 0.00498271
819.126 0.00567574
820.663 0.00609909
822.201 0.00660596
823.738 0.00720694
825.276 0.00792545
826.643 0.00868881
828.009 0.00960113
829.376 0.0107036
830.743 0.0120521
832.109 0.0137124
832.793 0.0146940
833.476 0.0158069
834.160 0.0170720
834.843 0.0185150
835.526 0.0201707
836.210 0.0220824
836.893 0.0243065
837.576 0.0269143
838.260 0.0299991
838.943 0.0336784
839.626 0.0381155
839.968 0.0406893
840.310 0.0435489
840.651 0.0467409
840.993 0.0503174
841.335 0.0543416
841.676 0.0588895
842.061 0.0647545
842.445 0.0715772
842.830 0.0795791
843.214 0.0890499
843.406 0.0944526
843.598 0.100378
843.791 0.106899
843.983 0.114099
844.175 0.122080
844.367 0.130963
844.559 0.140893
844.751 0.152041
844.976 0.166897
845.200 0.184143
845.312 0.193846
845.424 0.204366
845.536 0.215815
845.648 0.228312
845.761 0.242012
845.873 0.257061
845.985 0.273676
846.097 0.292112
846.209 0.312688
846.321 0.335814
846.433 0.362028
846.545 0.392049
846.604 0.409635
846.663 0.428679
846.722 0.449422
846.780 0.472121
846.839 0.497124
846.898 0.524715
846.956 0.555372
847.015 0.589623
847.074 0.628167
847.133 0.671628
847.191 0.720966
847.250 0.777246
847.309 0.841730
847.367 0.915902
847.397 0.957225
847.426 1.00150
847.456 1.04929
847.485 1.10054
847.525 1.17712
847.565 1.26168
847.605 1.35555
847.645 1.45926
847.685 1.57443
847.725 1.70164
847.765 1.84281
847.805 1.99860
847.825 2.08299
847.845 2.17125
847.865 2.26400
847.885 2.36144
847.905 2.46429
847.925 2.57176
847.945 2.68456
847.965 2.80291
847.986 2.92767
848.006 3.05784
848.026 3.19426
848.046 3.33717
848.066 3.48681
848.086 3.64343
848.126 3.97863
848.155 4.24462
848.184 4.52814
848.214 4.83001
848.243 5.14990
848.272 5.49080
848.302 5.85117
848.331 6.23424
848.360 6.63813
848.390 7.06630
848.419 7.51809
848.449 7.99412
848.478 8.49320
848.507 9.01926
848.537 9.56915
848.566 10.1470
848.595 10.7491
848.641 11.7342
848.686 12.7829
848.732 13.8947
848.777 15.0684
848.822 16.3022
848.868 17.5934
848.913 18.9384
848.958 20.3297
849.017 22.1970
849.076 24.1244
849.193 28.0926
849.311 32.0833
849.428 35.9103
849.492 37.8586
849.556 39.6644
849.615 41.1714
849.674 42.5123
849.732 43.6663
849.791 44.6153
849.855 45.3995
849.905 45.8142
849.954 46.0596
850.000 46.1334
850.050 46.0413
850.100 45.7711
850.149 45.3469
850.197 44.7675
850.247 44.0001
850.297 43.0797
850.348 42.0156
850.398 40.8202
850.462 39.1278
850.526 37.2771
850.627 34.1190
850.727 30.7666
850.929 23.9507
851.011 21.2714
851.093 18.7267
851.135 17.5128
851.176 16.3434
851.217 15.2211
851.258 14.1504
851.290 13.3492
851.322 12.5816
851.354 11.8454
851.386 11.1406
851.418 10.4673
851.450 9.82537
851.482 9.21442
851.514 8.63406
851.542 8.15934
851.569 7.70802
851.597 7.27637
851.624 6.86703
851.651 6.47649
851.679 6.10704
851.706 5.75539
851.734 5.42349
851.761 5.10830
851.789 4.81146
851.816 4.53017
851.844 4.26580
851.871 4.01578
851.898 3.78126
851.926 3.56067
851.953 3.35334
851.978 3.17384
852.004 3.00454
852.029 2.84496
852.054 2.69523
852.079 2.55369
852.104 2.42103
852.129 2.29576
852.155 2.17846
852.180 2.06779
852.205 1.96425
852.230 1.86664
852.255 1.77538
852.280 1.68938
852.305 1.60902
852.331 1.53332
852.356 1.46260
852.381 1.39600
852.406 1.33355
852.431 1.27497
852.456 1.22024
852.507 1.12050
852.557 1.03263
852.607 0.955117
852.658 0.886612
852.708 0.825942
852.758 0.772071
852.795 0.736628
852.831 0.703997
852.905 0.646092
852.978 0.596457
853.051 0.553559
853.124 0.516171
853.197 0.483310
853.271 0.454193
853.344 0.428228
853.417 0.404846
853.490 0.383683
853.563 0.364417
853.636 0.346811
853.710 0.330604
853.783 0.315645
853.929 0.288935
854.039 0.271245
854.149 0.255252
854.259 0.240724
854.368 0.227487
854.478 0.215362
854.588 0.204230
854.698 0.193979
854.807 0.184524
855.027 0.167643
855.246 0.153066
855.466 0.140377
855.685 0.129253
855.887 0.120209
856.088 0.112115
856.289 0.104830
856.490 0.0982556
856.692 0.0922946
856.893 0.0868776
857.295 0.0774169
857.698 0.0694642
858.100 0.0627153
858.503 0.0569391
858.905 0.0519558
859.308 0.0476224
859.710 0.0438264
860.113 0.0404800
860.515 0.0375149
860.918 0.0348764
861.320 0.0325189
862.125 0.0284997
862.930 0.0252179
863.735 0.0225033
864.540 0.0202350
865.345 0.0183253
866.297 0.0164246
867.248 0.0148210
868.200 0.0134609
869.151 0.0122996
870.102 0.0112998
871.054 0.0104330
872.005 0.00967634
872.956 0.00901202
874.859 0.00790558
876.762 0.00703980
878.665 0.00632522
880.567 0.00573934
883.056 0.00512021
885.544 0.00462576
888.032 0.00422429
890.520 0.00389362
893.008 0.00362331
895.497 0.00339472
900.473 0.00302192
905.449 0.00274300
910.426 0.00252829
915.402 0.00235896
920.378 0.00222266
925.647 0.00210509
930.916 0.00200821
941.455 0.00185791
951.993 0.00174685
962.531 0.00166179
981.266 0.00155092
1000.00 0.00147176
1021.87 0.00140346
1043.74 0.00135187
1065.60 0.00131173
1087.47 0.00128020
1109.34 0.00125589
1131.20 0.00123826
1153.07 0.00122763
1174.94 0.00122527
1202.27 0.00123921
1215.94 0.00125630
1229.61 0.00128387
1243.27 0.00132920
1256.94 0.00140107
1270.61 0.00151702
1284.27 0.00171558
1289.57 0.00183401
1294.87 0.00199039
1300.16 0.00220087
1305.46 0.00249304
1310.75 0.00291333
1313.40 0.00318679
1316.05 0.00353712
1318.70 0.00398158
1321.35 0.00455686
1323.99 0.00531838
1326.64 0.00633306
1328.18 0.00711357
1329.72 0.00808110
1331.26 0.00930104
1332.79 0.0108675
1334.33 0.0129278
1335.10 0.0142055
1335.87 0.0156905
1336.64 0.0174423
1337.41 0.0195398
1338.17 0.0220809
1338.94 0.0251881
1339.58 0.0283450
1340.22 0.0321667
1340.87 0.0368516
1341.51 0.0426761
1341.83 0.0461562
1342.15 0.0500889
1342.47 0.0545885
1342.79 0.0597379
1343.11 0.0657100
1343.43 0.0726473
1343.75 0.0808014
1344.07 0.0904860
1344.37 0.101296
1344.67 0.114308
1344.97 0.130233
1345.12 0.139638
1345.26 0.150159
1345.41 0.162192
1345.56 0.175922
1345.71 0.192020
1345.86 0.210960
1346.01 0.234010
1346.16 0.262334
1346.24 0.279285
1346.31 0.298225
1346.39 0.320099
1346.46 0.344830
1346.53 0.373708
1346.61 0.407170
1346.68 0.446106
1346.76 0.490911
1346.83 0.544015
1346.91 0.606291
1346.98 0.679399
1347.06 0.764007
1347.10 0.812940
1347.13 0.864545
1347.17 0.921931
1347.21 0.982404
1347.25 1.04959
1347.28 1.12031
1347.32 1.19665
1347.36 1.27898
1347.39 1.37021
1347.43 1.46597
1347.47 1.57188
1347.51 1.68284
1347.54 1.80534
1347.58 1.93342
1347.62 2.07066
1347.66 2.21757
1347.70 2.42785
1347.75 2.65225
1347.80 2.89596
1347.85 3.16008
1347.90 3.44567
1347.94 3.75375
1347.99 4.08529
1348.04 4.44120
1348.09 4.82231
1348.14 5.22932
1348.18 5.66286
1348.23 6.12338
1348.28 6.61120
1348.33 7.12646
1348.38 7.66911
1348.42 8.23889
1348.48 8.97570
1348.54 9.75140
1348.60 10.5640
1348.66 11.3964
1348.72 12.2741
1348.78 13.1794
1348.89 15.0379
1349.15 19.2063
1349.27 21.0547
1349.39 22.7589
1349.46 23.7558
1349.53 24.6487
1349.59 25.2967
1349.65 25.8608
1349.71 26.3388
1349.77 26.7363
1349.85 27.1649
1349.91 27.3385
1349.96 27.4333
1350.00 27.4524
1350.00 27.4521
1350.02 27.4481
1350.03 27.4403
1350.05 27.4115
1350.10 27.3057
1350.16 27.1229
1350.21 26.8744
1350.26 26.5320
1350.32 26.1236
1350.37 25.6378
1350.43 25.0859
1350.50 24.2956
1350.56 23.4302
1350.67 21.9169
1350.78 20.2820
1350.89 18.5280
1351.00 16.7494
1351.11 14.9752
1351.22 13.2449
1351.33 11.5919
1351.38 10.7957
1351.44 10.0424
1351.52 8.98230
1351.58 8.23382
1351.64 7.53837
1351.68 7.09018
1351.72 6.66099
1351.76 6.25082
1351.79 5.86917
1351.83 5.49631
1351.87 5.15068
1351.91 4.81425
1351.95 4.50353
1352.01 4.09356
1352.06 3.72214
1352.09 3.54125
1352.12 3.37415
1352.14 3.21408
1352.17 3.06084
1352.20 2.90895
1352.23 2.76907
1352.25 2.63545
1352.28 2.50790
1352.31 2.38182
1352.33 2.26604
1352.36 2.15573
1352.39 2.05071
1352.42 1.94717
1352.44 1.85232
1352.50 1.67655
1352.55 1.51536
1352.61 1.37315
1352.66 1.24325
1352.72 1.12907
1352.77 1.02512
1352.82 0.933996
1352.88 0.851235
1352.93 0.777575
1352.99 0.712058
1353.04 0.654804
1353.10 0.602901
1353.15 0.557538
1353.21 0.516386
1353.26 0.480371
1353.32 0.447636
1353.37 0.418914
1353.43 0.392725
1353.48 0.369661
1353.59 0.329848
1353.70 0.297323
1353.81 0.270206
1353.92 0.247715
1354.03 0.228621
1354.13 0.212200
1354.24 0.197904
1354.35 0.185321
1354.57 0.164110
1354.77 0.148211
1354.97 0.134826
1355.17 0.123276
1355.36 0.113300
1355.56 0.104518
1355.76 0.0968099
1355.96 0.0899643
1356.16 0.0838519
1356.55 0.0734032
1356.95 0.0648812
1357.35 0.0577984
1357.74 0.0518707
1358.30 0.0450227
1358.85 0.0394938
1359.41 0.0349435
1359.97 0.0311653
1360.52 0.0279840
1361.08 0.0252903
1361.63 0.0229870
1362.19 0.0210042
1363.30 0.0177805
1364.41 0.0152781
1365.52 0.0132882
1366.63 0.0116891
1368.14 0.00997526
1369.64 0.00864603
1371.15 0.00759367
1372.66 0.00675190
1374.17 0.00607101
1375.67 0.00549301
1378.69 0.00459983
1381.70 0.00395038
1384.72 0.00346397
1387.73 0.00310548
1390.74 0.00279944
1395.82 0.00242558
1400.90 0.00215810
1405.98 0.00195996
1411.05 0.00180992
1421.21 0.00159908
1431.36 0.00146062
1441.52 0.00136528
1451.67 0.00129699
1471.98 0.00120737
1492.29 0.00115300
1512.60 0.00111809
1532.90 0.00109502
1573.52 0.00107002
1614.14 0.00106245
1664.91 0.00107072
1715.68 0.00109730
1741.07 0.00111992
1766.45 0.00115043
1791.84 0.00119140
1817.22 0.00124717
1845.15 0.00133779
1859.11 0.00139977
1873.07 0.00147955
1887.04 0.00158152
1901.00 0.00172020
1914.96 0.00191208
1928.92 0.00218452
1939.08 0.00247122
1949.23 0.00287374
1954.62 0.00315854
1960.02 0.00351694
1965.41 0.00397402
1970.81 0.00456969
1976.20 0.00536687
1978.90 0.00585812
1981.60 0.00643596
1984.29 0.00714141
1986.99 0.00799516
1989.69 0.00904188
1992.39 0.0103447
1994.29 0.0114666
1996.19 0.0128012
1998.10 0.0143894
2000.00 0.0163484
2001.57 0.0183213
2003.14 0.0206961
2004.71 0.0235946
2006.29 0.0271661
2007.07 0.0292742
2007.86 0.0316559
2008.64 0.0343637
2009.43 0.0374513
2010.21 0.0409985
2011.00 0.0450885
2011.79 0.0498502
2012.57 0.0554214
2013.25 0.0610638
2013.93 0.0676329
2014.61 0.0753532
2015.29 0.0845094
2015.97 0.0955238
2016.32 0.101893
2016.66 0.108918
2017.00 0.116741
2017.34 0.125436
2017.68 0.135166
2018.02 0.146108
2018.41 0.160546
2018.80 0.177310
2019.20 0.196945
2019.59 0.220117
2019.78 0.233410
2019.98 0.247929
2020.18 0.264008
2020.37 0.281707
2020.57 0.301479
2020.77 0.323457
2020.96 0.348156
2021.16 0.376119
2021.39 0.415154
2021.51 0.437368
2021.63 0.461756
2021.75 0.488686
2021.87 0.518617
2021.98 0.552127
2022.10 0.589605
2022.22 0.632608
2022.34 0.682005
2022.46 0.739279
2022.57 0.805686
2022.69 0.884700
2022.75 0.929631
2022.81 0.978739
2022.87 1.03250
2022.93 1.09146
2022.99 1.15619
2023.04 1.22610
2023.12 1.32397
2023.19 1.43269
2023.26 1.55513
2023.33 1.69310
2023.40 1.84859
2023.48 2.02378
2023.51 2.11951
2023.55 2.22109
2023.58 2.32885
2023.62 2.44312
2023.66 2.56428
2023.69 2.69270
2023.73 2.82876
2023.76 2.97287
2023.80 3.12542
2023.84 3.28685
2023.87 3.45759
2023.91 3.63808
2023.94 3.82878
2023.98 4.03015
2024.02 4.24267
2024.05 4.46682
2024.09 4.70307
2024.12 4.95193
2024.16 5.21389
2024.20 5.48944
2024.24 5.83708
2024.28 6.20565
2024.33 6.59601
2024.37 6.99910
2024.41 7.43490
2024.45 7.88389
2024.50 8.36819
2024.54 8.86594
2024.58 9.40151
2024.62 9.95058
2024.67 10.5399
2024.71 11.1424
2024.75 11.7874
2024.79 12.4451
2024.84 13.1471
2024.88 13.8610
2024.95 15.1499
2025.02 16.5204
2025.09 17.9716
2025.17 19.5011
2025.24 21.1058
2025.31 22.7810
2025.38 24.5214
2025.45 26.3200
2025.62 30.7757
2025.79 35.3513
2025.94 39.2197
2026.08 42.9360
2026.22 46.2929
2026.36 49.2953
2026.43 50.7070
2026.50 51.9864
2026.57 53.1209
2026.64 54.0992
2026.72 54.9115
2026.79 55.5417
2026.87 56.0310
2026.94 56.3020
2027.00 56.3599
2027.01 56.3591
2027.03 56.3479
2027.04 56.3251
2027.08 56.2410
2027.15 55.9298
2027.22 55.5081
2027.28 54.9482
2027.34 54.2666
2027.40 53.4605
2027.47 52.5362
2027.53 51.5004
2027.65 49.1257
2027.78 46.4041
2027.90 43.3852
2028.02 40.1955
2028.36 31.1252
2028.49 27.8625
2028.61 24.7255
2028.67 23.2183
2028.73 21.7581
2028.80 20.3488
2028.86 18.9934
2028.92 17.6946
2028.98 16.4542
2029.04 15.2735
2029.11 14.1534
2029.17 13.0940
2029.23 12.0952
2029.29 11.1563
2029.35 10.2763
2029.42 9.44099
2029.48 8.67533
2029.54 7.96366
2029.60 7.30389
2029.67 6.69376
2029.73 6.13092
2029.79 5.61291
2029.85 5.13721
2029.91 4.70131
2029.94 4.49750
2029.98 4.30269
2030.01 4.11658
2030.04 3.93885
2030.07 3.76921
2030.10 3.60736
2030.13 3.45301
2030.16 3.30585
2030.19 3.16562
2030.22 3.03203
2030.29 2.78370
2030.35 2.55877
2030.39 2.41546
2030.43 2.28482
2030.48 2.16004
2030.52 2.04638
2030.56 1.93788
2030.60 1.83909
2030.64 1.74693
2030.69 1.66098
2030.73 1.57896
2030.77 1.50430
2030.86 1.36966
2030.94 1.25106
2031.02 1.14890
2031.11 1.05860
2031.19 0.979578
2031.28 0.910214
2031.36 0.849783
2031.45 0.795657
2031.53 0.748110
2031.62 0.705148
2031.70 0.667059
2031.83 0.617133
2031.95 0.574192
2032.07 0.536571
2032.20 0.503304
2032.32 0.473638
2032.45 0.446983
2032.57 0.422872
2032.69 0.400935
2032.94 0.362445
2033.19 0.329733
2033.44 0.301572
2033.69 0.277083
2033.87 0.261146
2034.05 0.246689
2034.41 0.221233
2034.77 0.199658
2035.13 0.181187
2035.49 0.165237
2035.85 0.151359
2036.21 0.139204
2036.57 0.128494
2036.94 0.119006
2037.30 0.110560
2037.66 0.103007
2038.02 0.0962224
2038.38 0.0901036
2038.74 0.0845633
2039.46 0.0749393
2040.05 0.0682957
2040.64 0.0625137
2041.22 0.0574514
2041.81 0.0530016
2042.40 0.0490565
2042.98 0.0455540
2044.16 0.0396146
2045.33 0.0348056
2046.50 0.0308644
2047.68 0.0275747
2048.85 0.0247952
2050.20 0.0220987
2051.56 0.0198406
2052.91 0.0179307
2054.26 0.0163019
2055.62 0.0148997
2056.97 0.0136862
2059.68 0.0117176
2062.39 0.0101699
2065.09 0.00893641
2067.80 0.00794223
2070.51 0.00712927
2074.84 0.00610646
2079.17 0.00533410
2084.22 0.00464900
2089.28 0.00412048
2094.33 0.00370730
2099.38 0.00337830
2104.44 0.00311249
2109.49 0.00289550
2119.60 0.00256946
2129.71 0.00234305
2139.81 0.00217896
2149.92 0.00205828
2160.03 0.00196608
2173.02 0.00188769
2186.02 0.00183850
2199.01 0.00181192
2212.01 0.00180470
2230.78 0.00182577
2249.55 0.00188259
2268.32 0.00198840
2287.09 0.00216636
2302.97 0.00241350
2310.91 0.00259153
2318.86 0.00282789
2326.80 0.00314482
2334.74 0.00359418
2338.71 0.00388618
2342.68 0.00425314
2346.65 0.00470611
2350.62 0.00525985
2353.69 0.00580336
2356.76 0.00648304
2359.83 0.00733871
2362.89 0.00843725
2365.96 0.00987961
2369.03 0.0117943
2370.56 0.0130231
2372.10 0.0144933
2373.63 0.0162669
2375.17 0.0184335
2376.52 0.0207718
2377.87 0.0236345
2379.23 0.0271852
2380.58 0.0316463
2381.26 0.0343281
2381.94 0.0373939
2382.61 0.0409242
2383.29 0.0450102
2383.97 0.0497867
2384.64 0.0554078
2385.32 0.0620837
2386.00 0.0700832
2386.58 0.0784064
2387.17 0.0883731
2387.76 0.100467
2388.34 0.115340
2388.64 0.124146
2388.93 0.134022
2389.22 0.145194
2389.52 0.157911
2389.81 0.172548
2390.10 0.189423
2390.40 0.209145
2390.69 0.232510
2390.96 0.258374
2391.23 0.289784
2391.37 0.308302
2391.50 0.329009
2391.64 0.352543
2391.77 0.379567
2391.91 0.411189
2392.04 0.448059
2392.18 0.492182
2392.31 0.544762
2392.45 0.608967
2392.52 0.646219
2392.58 0.686849
2392.65 0.732566
2392.72 0.782567
2392.79 0.838956
2392.85 0.900740
2392.94 0.989159
2393.02 1.09034
2393.11 1.20612
2393.19 1.33687
2393.28 1.48795
2393.36 1.65822
2393.41 1.75427
2393.45 1.85438
2393.49 1.96105
2393.53 2.07465
2393.57 2.19854
2393.62 2.32736
2393.66 2.46766
2393.70 2.61335
2393.74 2.77179
2393.79 2.93607
2393.83 3.11019
2393.87 3.29460
2393.91 3.49452
2393.96 3.70113
2394.00 3.91938
2394.04 4.14973
2394.08 4.39856
2394.12 4.65475
2394.17 4.92438
2394.21 5.20786
2394.26 5.59335
2394.32 6.00328
2394.37 6.43841
2394.42 6.89071
2394.48 7.37789
2394.53 7.88246
2394.58 8.42395
2394.64 8.98265
2394.69 9.57992
2394.75 10.2056
2394.80 10.8598
2394.85 11.5293
2394.91 12.2392
2394.96 12.9627
2395.07 14.5017
2395.13 15.4390
2395.19 16.4076
2395.31 18.4295
2395.44 20.5456
2395.56 22.7289
2395.92 29.1452
2396.05 31.2575
2396.17 33.2254
2396.30 35.0221
2396.42 36.5936
2396.49 37.4219
2396.57 38.1439
2396.69 39.1291
2396.75 39.5091
2396.81 39.8073
2396.89 40.0486
2396.96 40.1739
2397.00 40.1950
2397.07 40.1358
2397.14 39.9640
2397.21 39.7001
2397.28 39.3394
2397.35 38.8621
2397.42 38.2861
2397.49 37.6264
2397.55 36.8921
2397.66 35.6592
2397.76 34.2890
2397.89 32.1778
2398.03 29.8986
2398.17 27.4982
2398.31 25.0367
2398.57 20.3577
2398.70 18.1173
2398.84 15.9877
2398.92 14.7318
2399.00 13.5330
2399.08 12.3948
2399.16 11.3323
2399.25 10.3211
2399.33 9.38641
2399.41 8.50513
2399.49 7.69803
2399.56 7.05030
2399.63 6.45581
2399.70 5.90363
2399.77 5.39225
2399.84 4.91996
2399.90 4.48498
2399.94 4.27799
2399.97 4.08540
2400.01 3.89563
2400.04 3.71928
2400.08 3.54572
2400.11 3.38000
2400.15 3.22185
2400.18 3.07524
2400.25 2.79794
2400.32 2.54618
2400.39 2.31803
2400.46 2.11168
2400.53 1.92536
2400.60 1.75738
2400.66 1.61867
2400.72 1.49278
2400.78 1.37861
2400.85 1.27516
2400.91 1.18147
2400.97 1.09665
2401.04 1.01989
2401.10 0.951464
2401.16 0.888486
2401.22 0.831466
2401.29 0.779814
2401.35 0.733702
2401.41 0.691158
2401.48 0.652516
2401.60 0.585856
2401.73 0.529900
2401.85 0.482989
2401.98 0.443325
2402.10 0.409727
2402.23 0.380528
2402.35 0.355314
2402.48 0.332981
2402.61 0.313339
2402.82 0.284346
2403.03 0.259905
2403.25 0.238949
2403.46 0.220815
2403.67 0.204806
2403.89 0.190684
2404.10 0.178021
2404.31 0.166708
2404.74 0.147170
2405.17 0.131054
2405.60 0.117550
2406.02 0.106108
2406.43 0.0968326
2406.83 0.0887878
2407.23 0.0817445
2407.63 0.0755398
2408.03 0.0700422
2408.44 0.0651450
2409.24 0.0568199
2409.99 0.0504240
2410.75 0.0450854
2411.50 0.0405843
2412.26 0.0367550
2413.01 0.0334714
2413.76 0.0306370
2415.27 0.0260208
2416.78 0.0224295
2418.29 0.0195697
2419.80 0.0172639
2421.30 0.0153801
2423.72 0.0130121
2426.13 0.0112308
2429.15 0.00954527
2432.16 0.00826149
2435.18 0.00727378
2438.19 0.00649806
2441.21 0.00587805
2444.23 0.00537503
2447.24 0.00496238
2450.26 0.00463131
2456.29 0.00409363
2462.32 0.00370358
2468.35 0.00341360
2474.38 0.00319361
2483.23 0.00295938
2492.08 0.00279416
2500.93 0.00267729
2509.77 0.00259567
2527.46 0.00249977
2545.16 0.00246385
2551.59 0.00246128
2569.29 0.00247602
2586.98 0.00251396
2604.67 0.00257168
2622.37 0.00264745
2640.06 0.00273796
2657.75 0.00284475
2675.45 0.00296720
2693.14 0.00310538
2710.83 0.00326297
2728.53 0.00343933
2746.22 0.00363770
2763.91 0.00386249
2781.61 0.00411411
2799.30 0.00440071
2816.99 0.00472602
2834.68 0.00509459
2847.55 0.00539747
2860.42 0.00573304
2873.29 0.00610603
2886.16 0.00652214
2899.02 0.00698749
2911.89 0.00751088
2924.76 0.00810298
2937.63 0.00877542
2946.47 0.00929312
2955.32 0.00986057
2964.17 0.0104860
2973.01 0.0111792
2981.86 0.0119457
2990.71 0.0128018
2999.56 0.0137589
3008.40 0.0148308
3015.64 0.0158118
3022.88 0.0168991
3030.12 0.0181078
3037.35 0.0194560
3044.59 0.0209656
3051.83 0.0226629
3059.07 0.0245744
3066.31 0.0267598
3070.73 0.0282468
3075.15 0.0298644
3079.58 0.0316294
3084.00 0.0335595
3088.42 0.0356765
3092.85 0.0380048
3097.27 0.0405739
3101.69 0.0434179
3106.12 0.0465792
3110.54 0.0501041
3114.96 0.0540521
3119.39 0.0584943
3121.60 0.0609267
3123.81 0.0635164
3126.02 0.0662778
3128.23 0.0692234
3130.45 0.0723735
3132.66 0.0757460
3134.87 0.0793616
3137.08 0.0832260
3138.69 0.0862195
3140.30 0.0893891
3141.91 0.0927440
3143.51 0.0962897
3145.12 0.100043
3145.93 0.102002
3146.73 0.104020
3147.54 0.106103
3148.34 0.108247
3149.14 0.110458
3149.95 0.112738
3150.90 0.115543
3151.86 0.118451
3152.81 0.121472
3153.77 0.124610
3154.72 0.127871
3155.68 0.131262
3156.16 0.133011
3156.63 0.134791
3157.11 0.136611
3157.59 0.138464
3158.19 0.140866
3158.49 0.142091
3158.80 0.143327
3159.10 0.144585
3159.40 0.145855
3159.70 0.147146
3160.00 0.148450
3160.35 0.149997
3160.71 0.151569
3161.06 0.153165
3161.41 0.154783
3161.76 0.156431
3162.11 0.158106
3162.46 0.159808
3162.82 0.161533
3163.42 0.164568
3164.02 0.167684
3164.63 0.170889
3165.23 0.174187
3165.83 0.177587
3166.44 0.181082
3167.04 0.184681
3167.64 0.188390
3168.19 0.191890
3168.75 0.195489
3169.30 0.199191
3169.85 0.202999
3170.41 0.206917
3170.96 0.210951
3171.51 0.215103
3172.06 0.219372
3172.62 0.223778
3173.17 0.228317
3173.72 0.232997
3174.28 0.237822
3174.83 0.242798
3175.38 0.247933
3175.94 0.253232
3176.49 0.258703
3177.04 0.264353
3177.59 0.270191
3178.15 0.276224
3178.70 0.282461
3179.25 0.288911
3179.81 0.295586
3180.36 0.302493
3180.91 0.309633
3181.46 0.317041
3182.02 0.324718
3182.57 0.332677
3183.12 0.340932
3183.68 0.349497
3184.23 0.358388
3184.78 0.367622
3185.33 0.377199
3185.89 0.387172
3186.44 0.397544
3186.99 0.408338
3187.55 0.419575
3188.10 0.431280
3188.65 0.443480
3189.21 0.456203
3189.76 0.469478
3190.31 0.483339
3190.86 0.497818
3191.42 0.512954
3191.97 0.528786
3192.52 0.545358
3193.08 0.562715
3193.63 0.580908
3194.18 0.599955
3194.73 0.619983
3195.29 0.641022
3195.84 0.663140
3196.39 0.686411
3196.95 0.710915
3197.50 0.736741
3198.05 0.763983
3198.61 0.792745
3199.16 0.823141
3199.71 0.855294
3200.26 0.889340
3200.82 0.925429
3201.37 0.963723
3201.92 1.00440
3202.48 1.04766
3203.03 1.09364
3203.58 1.14274
3204.13 1.19515
3204.69 1.25116
3205.24 1.31111
3205.79 1.37536
3206.35 1.44431
3206.90 1.51842
3207.45 1.59805
3208.00 1.68405
3208.56 1.77694
3209.11 1.87741
3209.66 1.98629
3210.22 2.10447
3210.77 2.23299
3211.05 2.30161
3211.32 2.37301
3211.60 2.44788
3211.88 2.52584
3212.15 2.60767
3212.43 2.69296
3212.71 2.78256
3212.98 2.87605
3213.26 2.97434
3213.53 3.07699
3213.81 3.18502
3214.09 3.29793
3214.36 3.41686
3214.64 3.54126
3214.92 3.67240
3215.19 3.80968
3215.47 3.95448
3215.75 4.10617
3216.02 4.26566
3216.30 4.43340
3216.58 4.61049
3216.85 4.79613
3217.13 4.99215
3217.40 5.19762
3217.68 5.41454
3217.96 5.64184
3218.23 5.88076
3218.51 6.13179
3218.79 6.39634
3219.06 6.67291
3219.34 6.96386
3219.62 7.26736
3219.89 7.58581
3220.17 7.91696
3220.44 8.26188
3220.72 8.62031
3221.02 9.01786
3221.31 9.42810
3221.90 10.2870
3222.49 11.1829
3223.08 12.0928
3223.66 12.9908
3224.25 13.8395
3224.84 14.5979
3225.14 14.9295
3225.43 15.2229
3225.82 15.5475
3226.22 15.7855
3226.61 15.9307
3227.00 15.9776
3227.39 15.9251
3227.79 15.7750
3228.10 15.5842
3228.42 15.3357
3228.74 15.0347
3229.06 14.6867
3229.38 14.2983
3229.70 13.8761
3230.02 13.4268
3230.34 12.9571
3230.98 11.9815
3231.61 10.9944
3232.25 10.0310
3232.89 9.11780
3233.32 8.54087
3233.74 7.99673
3234.17 7.48415
3234.59 7.00582
3235.02 6.55899
3235.45 6.14473
3235.87 5.75964
3236.30 5.40386
3236.72 5.08211
3237.13 4.78470
3237.55 4.50915
3237.96 4.25384
3238.38 4.01666
3238.79 3.79728
3239.21 3.59372
3239.62 3.40469
3240.02 3.23636
3240.42 3.07966
3240.81 2.93289
3241.21 2.79599
3241.61 2.66753
3242.00 2.54747
3242.40 2.43487
3242.79 2.32917
3243.19 2.22962
3243.59 2.13623
3243.98 2.04833
3244.38 1.96551
3244.78 1.88723
3245.17 1.81353
3245.57 1.74391
3245.96 1.67808
3246.38 1.61273
3246.79 1.55115
3247.21 1.49292
3247.62 1.43782
3248.46 1.33603
3249.29 1.24453
3250.12 1.16182
3250.95 1.08700
3251.78 1.01905
3252.61 0.957162
3253.51 0.895723
3254.42 0.839924
3255.32 0.789108
3256.23 0.742713
3257.14 0.700260
3258.04 0.661330
3258.95 0.625541
3259.85 0.592544
3260.69 0.564479
3261.52 0.538353
3262.35 0.513944
3263.18 0.491166
3264.01 0.469830
3264.84 0.449867
3265.67 0.431139
3266.50 0.413548
3267.33 0.396985
3268.16 0.381408
3268.99 0.366707
3269.82 0.352851
3270.65 0.339745
3271.48 0.327367
3273.14 0.304545
3274.80 0.284005
3276.46 0.265465
3278.12 0.248675
3279.78 0.233423
3281.45 0.219526
3283.11 0.206830
3284.77 0.195201
3286.43 0.184529
3287.64 0.177302
3288.84 0.170490
3290.05 0.164062
3291.26 0.157993
3292.47 0.152261
3293.68 0.146846
3296.09 0.136842
3298.51 0.127796
3300.92 0.119615
3303.34 0.112194
3305.75 0.105446
3307.41 0.101151
3309.08 0.0971134
3310.74 0.0933129
3312.40 0.0897313
3315.72 0.0831604
3319.04 0.0772879
3322.36 0.0720154
3325.68 0.0672668
3329.01 0.0629726
3332.33 0.0590791
3335.65 0.0555358
3338.97 0.0523031
3342.29 0.0493459
3345.61 0.0466345
3348.94 0.0441409
3352.26 0.0418440
3355.58 0.0397225
3358.90 0.0377675
3362.22 0.0359579
3365.54 0.0342661
3368.87 0.0326891
3372.19 0.0312243
3378.83 0.0285738
3385.47 0.0262539
3392.12 0.0242057
3398.76 0.0223939
3405.40 0.0207818
3412.05 0.0193397
3418.69 0.0180474
3425.33 0.0168829
3431.98 0.0158305
3438.62 0.0148775
3445.26 0.0140098
3451.91 0.0132194
3458.55 0.0124968
3465.19 0.0118342
3476.06 0.0108643
3486.93 0.0100204
3497.80 0.00927455
3508.67 0.00861453
3519.55 0.00802805
3530.42 0.00750525
3541.29 0.00703814
3552.16 0.00662023
3565.44 0.00616885
3578.73 0.00577019
3592.02 0.00541929
3605.30 0.00511223
3618.59 0.00484083
3631.88 0.00460515
3645.16 0.00440139
3658.45 0.00422714
3672.95 0.00407382
3687.44 0.00395655
3701.93 0.00388427
3716.43 0.00386025
3729.71 0.00389810
3743.00 0.00401497
3756.29 0.00424945
3762.93 0.00443197
3769.57 0.00467598
3779.84 0.00522983
3784.98 0.00562346
3790.11 0.00613053
3795.24 0.00679395
3800.38 0.00766134
3805.51 0.00886162
3808.08 0.00963242
3810.64 0.0105555
3813.06 0.0116010
3815.47 0.0128669
3817.89 0.0144182
3820.31 0.0163466
3822.72 0.0187791
3825.14 0.0218880
3827.55 0.0259854
3828.76 0.0285528
3829.97 0.0315680
3831.18 0.0351392
3832.38 0.0394073
3833.44 0.0438698
3834.50 0.0491873
3835.55 0.0555950
3836.61 0.0634280
3837.67 0.0731648
3838.20 0.0789559
3838.73 0.0854893
3839.25 0.0929274
3839.78 0.101414
3840.31 0.111197
3840.84 0.122519
3841.33 0.134759
3841.82 0.149039
3842.31 0.165866
3842.80 0.185879
3843.29 0.210119
3843.54 0.224193
3843.78 0.239881
3844.03 0.257558
3844.27 0.277467
3844.52 0.300186
3844.76 0.326405
3845.07 0.364980
3845.22 0.387580
3845.37 0.412945
3845.52 0.441621
3845.67 0.474281
3845.82 0.511756
3845.97 0.555072
3846.12 0.605486
3846.27 0.664534
3846.43 0.734080
3846.58 0.816366
3846.73 0.914070
3846.88 1.03036
3846.95 1.09707
3847.03 1.16895
3847.10 1.24738
3847.18 1.33294
3847.27 1.45254
3847.37 1.58445
3847.46 1.73292
3847.56 1.89633
3847.65 2.07979
3847.75 2.28110
3847.84 2.50385
3847.93 2.74984
3848.03 3.02394
3848.12 3.32228
3848.22 3.65315
3848.31 4.01146
3848.36 4.20689
3848.41 4.40671
3848.50 4.83237
3848.60 5.29408
3848.69 5.79335
3848.79 6.39111
3848.90 7.03799
3849.00 7.73509
3849.11 8.48307
3849.21 9.28205
3849.31 10.1316
3849.42 11.0304
3849.52 11.9676
3849.68 13.5197
3849.84 15.1555
3850.00 16.8778
3850.16 18.6426
3850.58 23.2682
3850.79 25.4778
3850.89 26.5213
3850.99 27.5014
3851.12 28.6647
3851.26 29.7063
3851.36 30.4296
3851.46 31.0587
3851.57 31.5866
3851.67 32.0039
3851.79 32.3495
3851.91 32.5438
3852.00 32.5884
3852.11 32.5214
3852.22 32.3230
3852.34 31.9596
3852.46 31.4532
3852.59 30.7425
3852.72 29.8792
3852.85 28.8780
3852.98 27.7554
3853.13 26.2930
3853.29 24.7275
3853.55 21.9103
3853.80 19.0117
3854.06 16.1553
3854.19 14.7830
3854.32 13.4635
3854.44 12.3665
3854.55 11.3302
3854.66 10.3480
3854.77 9.42265
3854.89 8.55564
3855.00 7.74769
3855.11 6.99867
3855.17 6.64602
3855.22 6.30775
3855.30 5.86573
3855.38 5.44990
3855.45 5.05954
3855.53 4.69846
3855.61 4.35628
3855.68 4.03700
3855.76 3.73965
3855.84 3.46669
3855.91 3.20991
3855.99 2.97202
3856.07 2.75196
3856.14 2.55126
3856.22 2.36362
3856.30 2.19079
3856.37 2.03180
3856.45 1.88753
3856.51 1.77345
3856.58 1.66739
3856.64 1.56885
3856.71 1.47735
3856.77 1.39242
3856.84 1.31362
3856.97 1.17374
3857.10 1.05246
3857.23 0.948171
3857.36 0.858430
3857.49 0.781647
3857.62 0.714780
3857.75 0.656863
3857.88 0.606521
3858.01 0.562898
3858.14 0.524331
3858.27 0.490344
3858.40 0.460232
3858.53 0.433603
3858.75 0.393514
3858.97 0.359986
3859.20 0.331384
3859.42 0.306654
3859.65 0.284930
3859.87 0.265828
3860.10 0.248810
3860.32 0.233540
3860.77 0.207205
3861.22 0.185409
3861.67 0.167025
3862.11 0.151409
3862.54 0.138623
3862.96 0.127461
3863.39 0.117650
3863.81 0.108975
3864.66 0.0943698
3865.51 0.0826190
3866.36 0.0729896
3867.21 0.0650121
3868.06 0.0583124
3868.91 0.0526437
3870.04 0.0463357
3871.18 0.0411535
3871.93 0.0381966
3873.25 0.0337739
3874.58 0.0301108
3875.90 0.0270420
3877.22 0.0244504
3878.54 0.0222399
3879.86 0.0203404
3882.51 0.0172645
3885.53 0.0146213
3887.60 0.0131859
3889.68 0.0119696
3893.83 0.0100540
3897.99 0.00863320
3902.14 0.00754931
3906.30 0.00670248
3910.45 0.00602757
3914.60 0.00548035
3918.76 0.00503319
3927.07 0.00434419
3935.37 0.00383906
3943.68 0.00345912
3951.99 0.00316627
3968.61 0.00274382
3985.22 0.00245703
4009.39 0.00217441
4033.56 0.00198293
4057.73 0.00184403
4081.90 0.00173901
4107.58 0.00165271
4133.26 0.00158514
4184.61 0.00148994
4235.97 0.00143226
4287.33 0.00140627
4329.63 0.00140983
4371.92 0.00143986
4414.22 0.00151351
4435.37 0.00157606
4456.51 0.00166628
4472.37 0.00176193
4488.23 0.00189383
4504.10 0.00208131
4519.96 0.00235850
4528.26 0.00256091
4536.57 0.00282225
4544.88 0.00316780
4553.19 0.00363806
4562.25 0.00437260
4566.78 0.00487364
4571.31 0.00550437
4575.47 0.00623852
4579.62 0.00717924
4583.78 0.00841265
4587.93 0.0100746
4590.58 0.0114518
4593.22 0.0131745
4595.86 0.0153779
4598.50 0.0182600
4600.58 0.0211957
4602.66 0.0249681
4604.74 0.0299311
4605.77 0.0330250
4606.81 0.0366485
4608.23 0.0426967
4609.65 0.0504517
4610.35 0.0551855
4611.06 0.0606512
4611.77 0.0670115
4612.48 0.0744777
4613.52 0.0880420
4614.04 0.0963205
4614.55 0.105886
4615.07 0.117031
4615.59 0.130144
4616.11 0.145751
4616.63 0.164591
4617.01 0.180952
4617.39 0.200204
4617.76 0.223234
4618.14 0.251297
4618.52 0.286639
4618.71 0.308004
4618.90 0.332447
4619.09 0.360989
4619.27 0.394486
4619.46 0.434180
4619.65 0.481363
4619.78 0.519480
4619.91 0.562953
4620.04 0.612671
4620.17 0.669654
4620.30 0.735068
4620.43 0.810241
4620.56 0.896670
4620.69 0.995215
4620.82 1.10926
4620.95 1.24014
4621.08 1.39011
4621.15 1.47301
4621.21 1.56161
4621.28 1.65624
4621.34 1.75724
4621.41 1.86496
4621.47 1.97975
4621.54 2.10200
4621.60 2.23205
4621.67 2.37029
4621.73 2.51477
4621.82 2.74532
4621.92 2.99339
4622.01 3.26539
4622.11 3.55671
4622.20 3.87461
4622.30 4.21339
4622.39 4.57715
4622.48 4.96670
4622.58 5.38727
4622.67 5.83053
4622.77 6.30630
4622.86 6.80472
4622.96 7.33638
4623.05 7.88982
4623.15 8.46999
4623.24 9.07613
4623.33 9.71405
4623.43 10.3690
4623.52 11.0532
4623.62 11.7504
4623.71 12.4731
4623.81 13.2036
4624.00 14.7068
4624.11 15.6592
4624.12 15.7077
4624.14 15.8858
4624.16 16.0638
4624.21 16.4197
4624.31 17.2822
4624.42 18.1273
4624.66 19.9449
4624.77 20.8035
4624.89 21.6103
4625.02 22.4444
4625.15 23.2024
4625.26 23.7618
4625.36 24.2529
4625.49 24.7629
4625.62 25.1617
4625.79 25.5099
4625.90 25.6283
4626.00 25.6675
4626.06 25.6550
4626.17 25.5575
4626.29 25.3663
4626.41 25.0572
4626.54 24.6455
4626.66 24.1275
4626.79 23.5214
4626.91 22.8312
4627.04 22.0657
4627.22 20.8293
4627.40 19.4915
4627.53 18.5189
4627.66 17.5206
4627.91 15.4961
4628.16 13.4863
4628.28 12.5115
4628.41 11.5634
4628.53 10.6407
4628.66 9.76300
4628.78 8.92025
4628.91 8.12890
4629.04 7.37849
4629.16 6.68226
4629.29 6.02964
4629.35 5.72182
4629.41 5.43085
4629.47 5.14721
4629.54 4.87557
4629.60 4.61573
4629.66 4.37134
4629.73 4.13431
4629.79 3.90840
4629.85 3.69334
4629.91 3.49203
4629.98 3.29765
4630.04 3.11322
4630.10 2.93843
4630.16 2.77550
4630.23 2.61883
4630.29 2.47078
4630.35 2.33102
4630.42 2.20123
4630.51 2.01282
4630.61 1.84119
4630.71 1.68514
4630.80 1.54350
4630.90 1.41512
4631.00 1.29893
4631.09 1.19390
4631.19 1.09997
4631.29 1.01430
4631.38 0.937042
4631.48 0.867406
4631.58 0.804653
4631.68 0.748102
4631.77 0.697126
4631.97 0.610072
4632.09 0.562054
4632.22 0.520203
4632.34 0.483047
4632.47 0.450487
4632.72 0.395722
4632.97 0.352039
4633.22 0.316597
4633.47 0.287334
4633.72 0.262761
4633.97 0.241879
4634.34 0.216286
4634.70 0.195075
4635.07 0.177164
4635.43 0.161820
4635.80 0.148526
4636.16 0.136903
4636.89 0.117590
4637.39 0.106684
4637.90 0.0972853
4638.40 0.0891203
4638.90 0.0819900
4639.90 0.0701293
4640.91 0.0607490
4642.18 0.0513691
4643.46 0.0440743
4644.74 0.0382785
4646.02 0.0335920
4648.02 0.0278466
4650.03 0.0235145
4652.04 0.0201650
4654.04 0.0175212
4656.60 0.0148902
4659.15 0.0128540
4661.71 0.0112446
4664.26 0.00994792
4668.28 0.00836765
4672.29 0.00718424
4676.31 0.00627501
4680.32 0.00556147
4685.06 0.00489999
4689.81 0.00438200
4699.30 0.00363570
4707.33 0.00319849
4715.35 0.00287588
4723.38 0.00263158
4731.41 0.00244320
4748.93 0.00215725
4766.44 0.00197760
4783.96 0.00186059
4801.48 0.00178325
4842.35 0.00169051
4883.22 0.00166572
4941.61 0.00169395
5000.00 0.00176753
5057.75 0.00187780
5115.50 0.00202405
5173.25 0.00221111
5231.00 0.00244925
5278.25 0.00269542
5325.49 0.00300357
5349.12 0.00318823
5372.74 0.00339918
5396.37 0.00364196
5419.99 0.00392914
5444.93 0.00429560
5469.87 0.00475112
5494.80 0.00534096
5507.27 0.00570736
5519.74 0.00614393
5533.52 0.00673491
5547.30 0.00748668
5561.08 0.00847880
5567.97 0.00910500
5574.86 0.00984518
5582.08 0.0107922
5589.30 0.0119706
5596.52 0.0134706
5603.74 0.0154314
5608.33 0.0170170
5612.93 0.0189581
5617.52 0.0213886
5622.11 0.0244906
5625.72 0.0275766
5629.33 0.0314474
5631.14 0.0337661
5632.94 0.0364020
5634.75 0.0394201
5636.55 0.0428955
5638.35 0.0469313
5640.16 0.0516540
5641.96 0.0572310
5643.77 0.0638802
5645.57 0.0719082
5647.38 0.0817178
5648.28 0.0874707
5649.18 0.0938972
5650.08 0.101114
5650.99 0.109255
5652.01 0.119848
5653.04 0.132146
5654.06 0.146583
5655.09 0.163671
5655.60 0.173439
5656.11 0.184159
5656.63 0.195961
5657.14 0.208970
5657.65 0.223417
5658.17 0.239496
5658.68 0.257467
5659.19 0.277609
5659.52 0.291847
5659.85 0.307267
5660.17 0.324009
5660.50 0.342235
5660.79 0.359608
5661.08 0.378348
5661.36 0.398679
5661.65 0.420796
5661.94 0.444925
5662.23 0.471333
5662.51 0.500333
5662.80 0.532303
5663.07 0.565104
5663.20 0.582816
5663.33 0.601302
5663.47 0.620910
5663.60 0.641422
5663.73 0.663065
5663.87 0.685930
5664.00 0.710304
5664.13 0.735938
5664.27 0.763132
5664.40 0.792026
5664.53 0.823012
5664.67 0.855801
5664.80 0.890808
5664.93 0.928246
5665.05 0.962141
5665.16 0.998122
5665.27 1.03637
5665.38 1.07669
5665.50 1.12004
5665.61 1.16627
5665.72 1.21565
5665.83 1.26796
5665.95 1.32444
5666.06 1.38496
5666.17 1.44986
5666.29 1.51888
5666.40 1.59367
5666.51 1.67406
5666.62 1.76052
5666.74 1.85270
5666.80 1.90669
5666.86 1.96292
5666.92 2.02147
5666.98 2.08144
5667.05 2.14489
5667.11 2.20988
5667.17 2.27865
5667.23 2.34907
5667.29 2.42358
5667.35 2.49986
5667.41 2.58055
5667.48 2.66315
5667.54 2.75049
5667.60 2.83985
5667.66 2.93431
5667.72 3.03092
5667.83 3.21994
5667.95 3.42264
5668.06 3.63978
5668.17 3.86996
5668.29 4.11800
5668.40 4.38260
5668.51 4.66439
5668.62 4.96124
5668.74 5.27896
5668.85 5.61541
5668.96 5.97094
5669.07 6.34237
5669.19 6.73645
5669.30 7.14991
5669.41 7.58256
5669.53 8.02999
5669.64 8.49966
5669.75 8.98693
5669.86 9.49090
5669.98 10.0058
5670.20 11.0858
5670.43 12.2042
5670.80 14.0874
5671.17 15.9514
5671.39 17.0386
5671.62 18.0488
5671.86 19.0483
5671.99 19.4934
5672.11 19.8971
5672.30 20.4297
5672.49 20.8428
5672.68 21.1320
5672.87 21.2880
5673.00 21.3174
5673.06 21.3094
5673.27 21.1790
5673.48 20.8934
5673.68 20.4595
5673.89 19.8881
5674.05 19.3581
5674.21 18.7610
5674.37 18.1051
5674.53 17.4036
5674.69 16.6713
5674.84 15.9132
5675.15 14.3348
5675.55 12.2974
5675.75 11.3041
5675.95 10.3422
5676.11 9.61197
5676.26 8.91550
5676.42 8.24693
5676.58 7.61700
5676.73 7.01920
5676.89 6.46200
5677.05 5.93854
5677.20 5.45526
5677.36 5.00525
5677.52 4.59065
5677.67 4.21007
5677.83 3.86398
5677.91 3.70036
5677.99 3.54616
5678.14 3.25875
5678.30 2.99609
5678.46 2.75955
5678.58 2.59161
5678.70 2.43626
5678.82 2.29264
5678.94 2.15991
5679.06 2.03726
5679.18 1.92395
5679.30 1.81923
5679.42 1.72321
5679.54 1.63365
5679.67 1.55077
5679.79 1.47404
5679.91 1.40293
5680.03 1.33697
5680.15 1.27573
5680.39 1.16622
5680.55 1.10275
5680.70 1.04505
5680.86 0.991792
5681.02 0.943150
5681.17 0.898043
5681.33 0.856646
5681.64 0.782516
5681.96 0.718416
5682.27 0.662525
5682.58 0.613418
5682.89 0.569975
5683.21 0.531304
5683.52 0.496692
5683.83 0.465560
5684.15 0.437434
5684.46 0.411920
5684.77 0.388693
5685.09 0.367475
5685.40 0.348035
5686.02 0.313714
5686.65 0.284443
5687.28 0.259256
5687.90 0.237412
5688.53 0.218333
5689.15 0.201565
5689.78 0.186745
5690.41 0.173599
5691.03 0.161845
5691.66 0.151310
5692.28 0.141828
5692.91 0.133263
5694.16 0.118442
5695.41 0.106119
5696.50 0.0970678
5697.58 0.0892272
5698.66 0.0823812
5699.74 0.0763667
5700.82 0.0710500
5701.90 0.0663365
5704.06 0.0583755
5705.32 0.0544949
5706.57 0.0510507
5709.07 0.0452321
5711.58 0.0405372
5714.08 0.0366997
5716.36 0.0337935
5718.63 0.0313257
5720.91 0.0292108
5723.18 0.0273892
5727.74 0.0244385
5732.29 0.0221845
5735.48 0.0209157
5738.66 0.0198470
5745.04 0.0181753
5751.41 0.0169686
5757.78 0.0160859
5765.98 0.0153032
5774.17 0.0148102
5782.37 0.0145328
5790.56 0.0144227
5800.58 0.0144612
5810.59 0.0146571
5820.61 0.0149885
5830.63 0.0154431
5840.64 0.0160093
5850.66 0.0166889
5860.67 0.0174820
5870.69 0.0183920
5875.70 0.0188956
5880.70 0.0194273
5885.71 0.0199977
5890.72 0.0206049
5895.73 0.0212507
5898.23 0.0215888
5900.74 0.0219375
5903.24 0.0222970
5905.74 0.0226674
5908.25 0.0230489
5910.75 0.0234427
5913.26 0.0238493
5915.76 0.0242687
5918.26 0.0247015
5920.77 0.0251479
5923.27 0.0256086
5925.78 0.0260841
5928.28 0.0265750
5930.78 0.0270815
5932.43 0.0274247
5934.08 0.0277750
5935.73 0.0281330
5937.38 0.0284985
5939.04 0.0288721
5939.86 0.0290619
5940.69 0.0292538
5941.51 0.0294478
5942.34 0.0296439
5943.16 0.0298422
5943.99 0.0300426
5944.55 0.0301822
5945.12 0.0303228
5945.69 0.0304645
5946.26 0.0306073
5946.72 0.0307226
5947.17 0.0308383
5947.63 0.0309547
5948.08 0.0310718
5948.99 0.0313085
5949.90 0.0315479
5950.81 0.0317905
5951.72 0.0320358
5952.64 0.0322846
5953.55 0.0325362
5954.63 0.0328395
5955.71 0.0331472
5956.79 0.0334595
5957.87 0.0337766
5960.03 0.0344255
5961.11 0.0347572
5962.20 0.0350941
5963.28 0.0354364
5964.36 0.0357838
5965.44 0.0361366
5966.52 0.0364950
5967.60 0.0368593
5968.68 0.0372291
5969.76 0.0376048
5970.85 0.0379864
5972.67 0.0386433
5974.49 0.0393182
5976.31 0.0400117
5978.13 0.0407244
5979.95 0.0414569
5980.86 0.0418311
5981.77 0.0422102
5982.68 0.0425952
5983.59 0.0429853
5984.50 0.0433817
5985.41 0.0437833
5986.67 0.0443453
5987.92 0.0449185
5989.17 0.0455032
5990.42 0.0460995
5991.67 0.0467081
5992.93 0.0473290
5994.18 0.0479628
5995.43 0.0486098
5996.68 0.0492703
5997.93 0.0499446
5999.19 0.0506332
6000.44 0.0513365
6001.69 0.0520549
6002.94 0.0527888
6004.19 0.0535386
6005.44 0.0543042
6006.70 0.0550873
6007.95 0.0558878
6009.20 0.0567061
6010.45 0.0575427
6011.70 0.0583984
6012.96 0.0592735
6014.21 0.0601687
6015.46 0.0610846
6016.71 0.0620218
6017.96 0.0629810
6019.22 0.0639628
6020.47 0.0649680
6022.97 0.0670514
6025.48 0.0692374
6027.98 0.0715326
6030.48 0.0739444
6032.99 0.0764806
6035.49 0.0791498
6038.00 0.0819611
6040.50 0.0849245
6043.00 0.0880512
6045.51 0.0913515
6048.01 0.0948412
6050.52 0.0985332
6053.02 0.102443
6055.52 0.106587
6058.03 0.110985
6060.53 0.115657
6063.04 0.120625
6065.54 0.125912
6068.04 0.131550
6070.55 0.137567
6073.05 0.143996
6075.55 0.150874
6078.06 0.158242
6080.56 0.166147
6083.07 0.174638
6084.32 0.179121
6085.57 0.183772
6086.82 0.188600
6088.07 0.193613
6089.33 0.198820
6090.58 0.204231
6091.83 0.209856
6093.08 0.215706
6094.33 0.221791
6095.59 0.228124
6096.84 0.234718
6098.09 0.241586
6099.34 0.248743
6100.59 0.256203
6101.85 0.263982
6103.10 0.272098
6104.35 0.280568
6105.60 0.289405
6106.85 0.298642
6108.11 0.308294
6109.36 0.318383
6110.61 0.328934
6111.86 0.339970
6113.11 0.351520
6114.37 0.363610
6115.62 0.376271
6116.87 0.389534
6118.12 0.403430
6119.37 0.417995
6120.63 0.433264
6121.88 0.449274
6123.13 0.466065
6124.38 0.483675
6125.63 0.502132
6126.90 0.521824
6128.18 0.542478
6129.45 0.564171
6130.72 0.586915
6131.99 0.610791
6133.26 0.635803
6134.53 0.662034
6135.80 0.689478
6137.08 0.718212
6138.35 0.748218
6139.62 0.779561
6140.89 0.812198
6142.16 0.846169
6143.43 0.881398
6144.70 0.917870
6145.98 0.955522
6147.42 0.999614
6148.86 1.04493
6151.75 1.13815
6154.64 1.23264
6157.53 1.32454
6160.41 1.40898
6161.86 1.44666
6163.30 1.48035
6164.74 1.50939
6166.19 1.53313
6167.63 1.55101
6169.08 1.56260
6171.00 1.56783
6172.93 1.56116
6174.85 1.54289
6176.42 1.52001
6177.98 1.49062
6179.54 1.45548
6181.11 1.41544
6182.67 1.37142
6184.24 1.32432
6185.80 1.27502
6187.36 1.22436
6190.49 1.12191
6193.62 1.02129
6196.75 0.925595
6198.31 0.880373
6199.88 0.837081
6201.59 0.791880
6203.31 0.749115
6205.02 0.708690
6206.74 0.670615
6208.45 0.634792
6210.17 0.601178
6211.88 0.569636
6213.60 0.540093
6215.32 0.512403
6217.03 0.486485
6218.75 0.462200
6220.46 0.439468
6222.18 0.418161
6223.89 0.398205
6225.61 0.379494
6227.32 0.361943
6229.08 0.345098
6230.83 0.329300
6232.59 0.314475
6234.34 0.300559
6236.10 0.287473
6237.85 0.275172
6239.61 0.263585
6241.36 0.252676
6243.11 0.242386
6244.87 0.232681
6246.62 0.223512
6248.38 0.214852
6250.13 0.206657
6251.89 0.198904
6255.40 0.184596
6258.91 0.171716
6262.41 0.160095
6265.92 0.149577
6269.43 0.140033
6272.94 0.131349
6276.45 0.123429
6279.96 0.116187
6283.47 0.109552
6287.94 0.101880
6292.40 0.0949750
6296.87 0.0887381
6301.33 0.0830905
6305.80 0.0779851
6310.27 0.0733086
6314.73 0.0690322
6319.20 0.0651171
6322.71 0.0622690
6326.22 0.0596026
6333.24 0.0547569
6340.25 0.0504781
6347.27 0.0466835
6354.29 0.0433008
6361.31 0.0402760
6368.33 0.0375601
6375.34 0.0351121
6382.36 0.0328996
6389.38 0.0308931
6396.40 0.0290681
6403.42 0.0274047
6410.44 0.0258834
6417.46 0.0244899
6424.47 0.0232102
6431.49 0.0220324
6443.61 0.0202097
6455.74 0.0186234
6467.86 0.0172236
6479.98 0.0159931
6492.10 0.0149047
6504.23 0.0139376
6516.35 0.0130770
6528.47 0.0123121
6542.51 0.0115339
6556.54 0.0108522
6570.58 0.0102594
6584.62 0.00974986
6598.65 0.00931250
6612.69 0.00894893
6626.73 0.00865594
6640.76 0.00843301
6656.08 0.00828104
6671.39 0.00823089
6689.25 0.00833684
6698.19 0.00845301
6707.12 0.00864774
6716.05 0.00892315
6724.98 0.00929878
6733.92 0.00980176
6742.85 0.0104707
6750.51 0.0112130
6758.16 0.0121716
6765.82 0.0134160
6773.47 0.0150537
6779.54 0.0167354
6785.60 0.0188875
6791.66 0.0216913
6794.69 0.0234144
6797.72 0.0254172
6801.23 0.0281707
6804.74 0.0315096
6808.25 0.0356089
6811.76 0.0407151
6814.95 0.0465294
6816.54 0.0499725
6818.14 0.0538542
6819.73 0.0582511
6821.33 0.0632564
6822.92 0.0689872
6824.52 0.0755951
6826.27 0.0841126
6828.03 0.0942528
6829.78 0.106467
6831.53 0.121344
6832.41 0.130044
6833.29 0.139744
6834.17 0.150615
6835.04 0.162855
6835.92 0.176724
6836.80 0.192488
6837.68 0.210535
6838.55 0.231330
6839.31 0.251971
6840.07 0.275591
6840.83 0.302799
6841.58 0.334328
6842.34 0.371268
6842.72 0.392151
6843.10 0.414842
6843.48 0.439698
6843.86 0.466939
6844.24 0.496888
6844.61 0.529837
6844.95 0.562371
6845.12 0.579872
6845.29 0.598126
6845.46 0.617408
6845.63 0.637556
6845.80 0.658878
6845.97 0.681200
6846.14 0.704870
6846.31 0.729701
6846.48 0.756088
6846.65 0.783829
6846.82 0.813375
6846.99 0.844510
6847.16 0.877751
6847.33 0.912866
6847.48 0.947945
6847.59 0.973457
6847.70 1.00005
6847.81 1.02779
6847.92 1.05647
6848.03 1.08668
6848.14 1.11825
6848.25 1.15124
6848.36 1.18542
6848.47 1.22151
6848.58 1.25929
6848.69 1.29886
6848.80 1.33994
6848.91 1.38339
6849.02 1.42854
6849.13 1.47633
6849.24 1.52603
6849.32 1.56406
6849.40 1.60348
6849.48 1.64433
6849.56 1.68613
6849.64 1.73001
6849.72 1.77551
6849.80 1.82268
6849.88 1.87097
6849.96 1.92168
6850.04 1.97427
6850.12 2.02880
6850.20 2.08464
6850.28 2.14327
6850.36 2.20407
6850.44 2.26711
6850.52 2.33164
6850.63 2.42540
6850.74 2.52391
6850.85 2.62735
6850.95 2.73492
6851.06 2.84881
6851.17 2.96713
6851.28 3.09224
6851.39 3.22206
6851.50 3.35914
6851.61 3.50250
6851.72 3.65228
6851.83 3.80718
6851.94 3.97015
6852.05 4.13834
6852.16 4.31490
6852.27 4.49668
6852.38 4.68704
6852.49 4.88432
6852.60 5.08850
6852.71 5.29754
6852.82 5.51516
6852.93 5.73931
6853.04 5.96978
6853.15 6.20415
6853.26 6.44641
6853.37 6.69410
6853.59 7.20172
6853.81 7.72542
6854.02 8.26058
6854.24 8.80430
6854.46 9.34548
6854.90 10.4001
6855.17 10.9977
6855.43 11.5481
6855.69 12.0404
6855.95 12.4622
6856.22 12.8012
6856.48 13.0492
6856.74 13.2011
6857.00 13.2517
6857.18 13.2284
6857.35 13.1600
6857.52 13.0466
6857.70 12.8908
6857.87 12.6929
6858.05 12.4574
6858.22 12.1845
6858.40 11.8806
6858.57 11.5476
6858.74 11.1891
6858.94 10.7597
6859.14 10.3084
6859.33 9.84087
6859.53 9.36494
6859.92 8.39613
6860.31 7.44405
6860.51 6.97258
6860.71 6.51824
6860.91 6.08125
6861.11 5.66363
6861.31 5.26498
6861.51 4.89029
6861.71 4.53811
6861.90 4.20862
6862.10 3.90015
6862.30 3.61534
6862.50 3.35189
6862.70 3.10891
6862.90 2.88431
6863.10 2.67921
6863.30 2.49127
6863.50 2.31927
6863.64 2.20330
6863.79 2.09471
6863.93 1.99304
6864.08 1.89786
6864.22 1.80875
6864.37 1.72532
6864.51 1.64717
6864.66 1.57396
6864.95 1.44095
6865.24 1.32380
6865.53 1.22031
6865.82 1.12889
6866.02 1.07161
6866.22 1.01895
6866.42 0.969937
6866.62 0.924710
6867.01 0.843365
6867.41 0.772822
6867.81 0.710933
6868.21 0.656574
6868.61 0.608314
6869.01 0.565460
6869.41 0.527030
6869.80 0.492506
6870.20 0.461365
6870.60 0.433236
6871.00 0.407612
6871.40 0.384312
6871.80 0.362953
6872.20 0.343419
6872.92 0.311762
6873.65 0.284383
6874.37 0.260533
6875.09 0.239648
6875.82 0.221203
6876.54 0.204871
6877.27 0.190301
6877.99 0.177280
6878.79 0.164452
6879.59 0.153011
6880.38 0.142751
6881.18 0.133515
6882.78 0.117601
6884.37 0.104440
6885.53 0.0962437
6886.69 0.0890125
6887.85 0.0825892
6889.01 0.0768652
6891.33 0.0671165
6893.65 0.0591698
6895.24 0.0545288
6896.83 0.0504405
6900.02 0.0435928
6903.21 0.0381174
6906.40 0.0336718
6910.17 0.0294148
6913.94 0.0259750
6917.70 0.0231595
6921.47 0.0208180
6924.66 0.0191297
6927.85 0.0176629
6934.23 0.0152502
6940.60 0.0133620
6946.98 0.0118547
6955.10 0.0103369
6963.21 0.00914559
6971.33 0.00819394
6979.44 0.00741485
6992.20 0.00645018
7004.95 0.00571121
7017.71 0.00512984
7030.46 0.00466211
7052.49 0.00404176
7074.52 0.00357916
7096.55 0.00322209
7118.58 0.00293749
7155.68 0.00257006
7192.78 0.00229561
7229.88 0.00208150
7266.98 0.00190971
7331.91 0.00167886
7396.84 0.00150704
7461.77 0.00137673
7526.70 0.00127418
7628.73 0.00115739
7730.76 0.00107953
7832.79 0.00103209
7934.82 0.00101098
7971.92 0.00100966
8083.23 0.00102592
8194.53 0.00107614
8305.84 0.00116914
8361.49 0.00123741
8417.15 0.00132220
8468.16 0.00142071
8519.18 0.00154356
8570.19 0.00169744
8621.21 0.00189243
8667.59 0.00211865
8713.96 0.00240576
8760.34 0.00278154
8783.53 0.00301166
8806.72 0.00327769
8832.23 0.00362506
8857.73 0.00404219
8883.24 0.00454859
8908.75 0.00517191
8933.10 0.00591261
8945.27 0.00634988
8957.45 0.00684361
8969.62 0.00740250
8981.79 0.00803708
8993.97 0.00876505
9006.14 0.00959890
9018.90 0.0106208
9031.65 0.0118251
9044.40 0.0132580
9057.16 0.0149810
9064.11 0.0160722
9071.07 0.0172914
9078.03 0.0186596
9084.98 0.0202018
9091.94 0.0219523
9098.90 0.0239768
9105.85 0.0262226
9112.81 0.0288480
9116.00 0.0301862
9119.19 0.0316170
9122.38 0.0331587
9125.56 0.0348198
9127.16 0.0356988
9128.75 0.0366112
9130.35 0.0375594
9131.94 0.0385452
9133.54 0.0395708
9135.13 0.0406370
9136.72 0.0417470
9138.32 0.0429038
9139.62 0.0438877
9140.93 0.0449057
9142.23 0.0459607
9143.54 0.0470526
9144.84 0.0481848
9146.14 0.0493576
9146.80 0.0499602
9147.45 0.0505739
9148.10 0.0511990
9148.75 0.0518359
9149.48 0.0525582
9150.20 0.0532958
9150.57 0.0536710
9150.93 0.0540492
9151.29 0.0544314
9151.65 0.0548176
9152.16 0.0553667
9152.67 0.0559230
9153.17 0.0564878
9153.68 0.0570612
9154.19 0.0576446
9154.70 0.0582358
9155.20 0.0588362
9155.71 0.0594460
9156.36 0.0602455
9157.01 0.0610600
9157.67 0.0618912
9158.32 0.0627394
9159.62 0.0644889
9160.93 0.0663123
9162.23 0.0682152
9163.54 0.0701993
9164.19 0.0712238
9164.84 0.0722708
9165.49 0.0733409
9166.14 0.0744348
9167.16 0.0761867
9168.17 0.0780007
9169.19 0.0798797
9170.20 0.0818250
9171.22 0.0838439
9172.23 0.0859361
9173.25 0.0881094
9174.26 0.0903635
9175.06 0.0921960
9175.85 0.0940844
9176.65 0.0960309
9177.45 0.0980378
9178.25 0.100108
9179.04 0.102243
9179.84 0.104447
9180.64 0.106721
9181.43 0.109073
9182.23 0.111500
9183.03 0.114007
9183.83 0.116598
9184.62 0.119277
9185.42 0.122049
9186.22 0.124917
9187.01 0.127885
9187.59 0.130112
9188.17 0.132396
9188.75 0.134740
9189.33 0.137141
9189.91 0.139611
9190.49 0.142146
9191.65 0.147419
9192.81 0.152989
9193.97 0.158866
9195.13 0.165078
9196.29 0.171652
9197.05 0.176178
9197.81 0.180879
9198.57 0.185766
9199.33 0.190847
9200.09 0.196133
9200.85 0.201633
9201.62 0.207360
9202.38 0.213324
9203.14 0.219540
9203.90 0.226020
9204.66 0.232777
9205.42 0.239828
9206.18 0.247189
9206.94 0.254876
9207.70 0.262910
9208.46 0.271298
9209.26 0.280511
9210.06 0.290176
9210.85 0.300322
9211.65 0.310977
9212.45 0.322173
9213.25 0.333945
9214.04 0.346327
9214.84 0.359360
9215.64 0.373102
9216.43 0.387562
9217.23 0.402806
9218.03 0.418883
9218.83 0.435869
9219.62 0.453779
9220.42 0.472694
9221.22 0.492678
9222.02 0.513827
9222.81 0.536157
9223.61 0.559770
9224.41 0.584743
9225.20 0.611155
9226.00 0.639090
9226.80 0.668631
9227.59 0.699860
9228.45 0.735334
9229.30 0.772898
9230.16 0.812733
9231.01 0.854821
9231.87 0.899321
9232.72 0.946165
9233.58 0.995404
9234.43 1.04700
9235.14 1.09189
9235.86 1.13828
9236.57 1.18606
9237.28 1.23502
9238.71 1.33596
9240.14 1.43884
9241.57 1.54085
9242.99 1.63811
9244.42 1.72631
9245.14 1.76557
9245.85 1.80077
9246.89 1.84370
9247.92 1.87547
9248.96 1.89491
9250.00 1.90127
9250.78 1.89728
9251.56 1.88586
9252.34 1.86726
9253.12 1.84191
9253.89 1.81027
9254.67 1.77300
9255.45 1.73079
9256.23 1.68447
9257.01 1.63469
9257.79 1.58233
9259.34 1.47249
9260.90 1.36014
9262.46 1.24937
9264.02 1.14316
9265.57 1.04347
9266.69 0.976689
9267.80 0.913953
9268.92 0.855296
9270.03 0.800705
9271.15 0.749959
9272.26 0.702973
9273.38 0.659454
9274.49 0.619251
9275.43 0.587699
9276.37 0.558166
9277.31 0.530517
9278.25 0.504620
9279.19 0.480357
9280.13 0.457616
9281.07 0.436292
9282.01 0.416289
9282.95 0.397512
9283.89 0.379877
9285.77 0.347711
9287.65 0.319212
9289.53 0.293884
9291.50 0.270287
9293.47 0.249294
9295.44 0.230557
9297.41 0.213786
9299.38 0.198711
9301.35 0.185135
9303.32 0.172858
9305.29 0.161738
9307.26 0.151627
9309.23 0.142419
9311.20 0.134004
9313.16 0.126304
9315.13 0.119234
9317.10 0.112736
9319.07 0.106745
9321.04 0.101220
9324.62 0.0922164
9328.20 0.0843474
9331.79 0.0774250
9335.37 0.0713147
9338.95 0.0658971
9342.53 0.0610725
9346.11 0.0567581
9349.69 0.0528851
9353.63 0.0490652
9357.57 0.0456466
9361.51 0.0425745
9365.45 0.0398041
9369.39 0.0372972
9373.33 0.0350218
9381.20 0.0310594
9386.22 0.0288818
9391.23 0.0269288
9396.24 0.0251703
9401.26 0.0235828
9411.28 0.0208421
9421.31 0.0185553
9429.19 0.0170197
9437.07 0.0156728
9444.95 0.0144853
9452.82 0.0134332
9460.70 0.0124964
9468.58 0.0116592
9484.34 0.0102311
9500.09 0.00906508
9515.85 0.00810132
9531.61 0.00729600
9547.36 0.00661677
9562.40 0.00606582
9577.44 0.00558758
9607.52 0.00481123
9637.60 0.00421410
9667.68 0.00374659
9699.20 0.00336128
9730.71 0.00305602
9762.22 0.00281222
9793.74 0.00261722
9845.30 0.00237945
9896.87 0.00221734
9948.43 0.00211309
10000.0 0.00205635
10031.9 0.00204233
10107.6 0.00207254
10183.3 0.00217304
10259.0 0.00236600
10296.8 0.00250251
10334.7 0.00267019
10378.5 0.00291200
10422.4 0.00321619
10466.2 0.00359933
10510.0 0.00408603
10547.9 0.00461895
10566.8 0.00493395
10585.7 0.00528735
10604.6 0.00568660
10623.6 0.00614090
10642.5 0.00665651
10661.4 0.00724926
10683.3 0.00805092
10705.2 0.00900443
10727.2 0.0101506
10749.1 0.0115431
10767.0 0.0129185
10784.9 0.0145651
10793.9 0.0155128
10802.9 0.0165562
10807.4 0.0171165
10811.8 0.0177085
10816.3 0.0183331
10820.8 0.0189918
10824.0 0.0194909
10827.3 0.0200097
10830.5 0.0205493
10833.7 0.0211101
10837.0 0.0216967
10840.2 0.0223083
10843.5 0.0229465
10845.1 0.0232760
10846.7 0.0236105
10849.1 0.0241164
10851.4 0.0246388
10853.8 0.0251785
10856.2 0.0257337
10858.5 0.0263101
10860.9 0.0269034
10862.1 0.0272101
10863.3 0.0275195
10864.4 0.0278342
10865.6 0.0281544
10866.6 0.0284302
10867.6 0.0287072
10868.6 0.0289740
10869.5 0.0292417
10870.4 0.0295161
10871.4 0.0297914
10872.3 0.0300736
10873.2 0.0303568
10875.1 0.0309354
10877.0 0.0315338
10878.8 0.0321496
10880.7 0.0327835
10882.6 0.0334326
10884.6 0.0341523
10886.5 0.0348914
10888.5 0.0356547
10890.5 0.0364429
10892.5 0.0372571
10893.5 0.0376765
10894.5 0.0380988
10895.5 0.0385325
10896.5 0.0389692
10897.5 0.0394178
10898.5 0.0398697
10899.9 0.0405077
10901.2 0.0411611
10902.6 0.0418302
10904.0 0.0425156
10905.3 0.0432177
10906.7 0.0439371
10908.1 0.0446744
10909.4 0.0454302
10911.1 0.0463485
10912.7 0.0472945
10914.3 0.0482694
10915.9 0.0492745
10917.5 0.0503110
10919.2 0.0513800
10920.8 0.0524827
10922.4 0.0536131
10923.8 0.0546032
10925.1 0.0556203
10926.5 0.0566654
10927.9 0.0577395
10929.2 0.0588437
10930.6 0.0599791
10932.0 0.0611468
10933.4 0.0623480
10934.7 0.0635840
10936.1 0.0648560
10937.5 0.0661655
10938.8 0.0675138
10940.2 0.0689025
10941.6 0.0703330
10942.9 0.0718071
10944.3 0.0733264
10945.7 0.0748926
10947.1 0.0765078
10948.4 0.0781738
10949.8 0.0798926
10951.2 0.0816665
10952.5 0.0834976
10953.9 0.0853883
10955.3 0.0873412
10956.6 0.0893586
10958.0 0.0914435
10959.4 0.0935986
10960.8 0.0958269
10962.1 0.0981315
10963.5 0.100516
10964.9 0.102983
10966.2 0.105518
10967.6 0.108162
10969.0 0.110900
10970.3 0.113737
10971.7 0.116677
10973.1 0.119725
10974.4 0.122885
10975.8 0.126162
10977.2 0.129563
10978.6 0.133092
10979.9 0.136755
10981.3 0.140558
10982.7 0.144509
10984.0 0.148612
10985.4 0.152877
10986.8 0.157309
10988.1 0.161882
10989.5 0.166672
10990.9 0.171654
10992.2 0.176836
10993.6 0.182228
10995.0 0.187839
10996.4 0.193678
10997.7 0.199755
10999.1 0.206081
11000.5 0.212667
11001.8 0.219522
11003.2 0.226658
11004.6 0.234086
11005.9 0.241817
11007.3 0.249862
11008.7 0.258232
11010.1 0.266938
11011.5 0.276259
11012.9 0.285887
11014.3 0.295968
11015.7 0.306368
11017.1 0.317242
11018.5 0.328441
11019.9 0.340045
11021.3 0.352059
11022.7 0.364569
11024.1 0.377388
11025.5 0.390587
11026.9 0.404150
11028.3 0.418154
11029.7 0.432376
11032.5 0.461619
11034.2 0.479981
11035.9 0.498513
11039.4 0.535527
11042.8 0.571331
11046.3 0.604197
11048.0 0.619044
11049.7 0.632485
11051.4 0.644292
11053.1 0.654251
11054.9 0.662173
11056.6 0.667900
11058.3 0.671317
11060.0 0.672351
11061.9 0.670746
11063.8 0.666339
11065.6 0.659191
11067.5 0.649549
11069.4 0.637531
11071.3 0.623528
11073.1 0.607681
11075.0 0.590463
11076.9 0.571994
11078.8 0.552769
11082.5 0.512752
11086.3 0.472352
11090.0 0.432852
11093.8 0.395291
11097.5 0.360341
11100.0 0.338607
11102.4 0.318798
11104.8 0.300202
11107.3 0.282790
11109.7 0.266515
11112.1 0.251324
11114.5 0.237159
11116.9 0.223960
11119.4 0.211717
11121.4 0.201785
11123.5 0.192457
11127.7 0.175472
11131.9 0.160348
11136.1 0.146945
11140.2 0.134994
11144.4 0.124363
11148.6 0.114859
11152.7 0.106340
11157.6 0.0975265
11162.4 0.0897282
11167.3 0.0827751
11172.1 0.0765803
11176.9 0.0710198
11181.8 0.0660333
11186.6 0.0615382
11191.4 0.0574739
11196.3 0.0537817
11201.1 0.0504322
11205.9 0.0473732
11210.8 0.0445840
11215.6 0.0420243
11220.4 0.0396796
11230.1 0.0355299
11238.4 0.0324445
11246.8 0.0297488
11255.1 0.0273614
11263.5 0.0252482
11271.8 0.0233688
11280.2 0.0216899
11288.5 0.0201844
11296.9 0.0188312
11306.6 0.0174259
11316.2 0.0161714
11325.9 0.0150473
11335.6 0.0140378
11345.2 0.0131252
11354.9 0.0122992
11374.2 0.0108658
11385.7 0.0101336
11397.1 0.00947314
11419.9 0.00833363
11442.8 0.00739360
11465.6 0.00659954
11485.0 0.00602713
11504.3 0.00552507
11523.7 0.00508382
11543.0 0.00469572
11581.7 0.00404152
11620.3 0.00351717
11659.0 0.00309090
11697.7 0.00273915
11736.3 0.00244527
11775.0 0.00219746
11831.3 0.00190132
11887.5 0.00166272
11943.8 0.00146784
11971.9 0.00138353
11985.9 0.00134485
11989.5 0.00135325
11990.3 0.00139193
11990.8 0.00143500
11991.2 0.00150714
11991.7 0.00162456
11992.1 0.00181064
11992.5 0.00209809
11993.0 0.00251934
11993.2 0.00280556
11993.4 0.00315067
11993.6 0.00356427
11993.8 0.00405694
11994.1 0.00464024
11994.3 0.00532667
11994.5 0.00612959
11994.7 0.00706310
11995.2 0.00938111
11995.6 0.0124017
11996.0 0.0162441
11996.5 0.0210156
11996.9 0.0267998
11997.4 0.0336448
11997.8 0.0415525
11998.2 0.0504706
11999.1 0.0708418
12000.0 0.0929963
12000.0 0.185184
12750.0 0.178358
13500.0 0.172153
14250.0 0.166483
15000.0 0.161276
16000.0 0.154757
17000.0 0.148873
18500.0 0.140696
20000.0 0.133556
21250.0 0.127964
22500.0 0.122906
23750.0 0.118306
25000.0 0.114102
26250.0 0.110268
27500.0 0.106733
28750.0 0.103461
30000.0 0.100423
32500.0 0.0949931
35000.0 0.0902281
37500.0 0.0859776
40000.0 0.0821830
42500.0 0.0787099
45000.0 0.0755699
47500.0 0.0727150
50000.0 0.0701064
52500.0 0.0679680
55000.0 0.0659898
60000.0 0.0624430
65000.0 0.0599434
70000.0 0.0577183
75000.0 0.0556065
80000.0 0.0537011
85000.0 0.0521745
90000.0 0.0507750
99999.9 0.0482928
100000 0.0481543
112500 0.0462248
125000 0.0445644
137500 0.0431138
150000 0.0418308
175000 0.0406220
200000 0.0396032
250000 0.0390167
300000 0.0391955
350000 0.0399695
400000 0.0406523
450000 0.0412642
500000 0.0418194
507609 0.0419515
515218 0.0420820
522827 0.0422110
530437 0.0423385
538046 0.0424646
545655 0.0425893
553264 0.0427126
560873 0.0428346
568482 0.0429553
576091 0.0430747
583700 0.0431928
591310 0.0433098
598919 0.0434256
606528 0.0435402
614137 0.0436536
621746 0.0437660
624192 0.0429335
626637 0.0421200
631528 0.0405479
636419 0.0390460
641310 0.0376106
651091 0.0349257
660873 0.0324684
670655 0.0302163
680437 0.0281498
690218 0.0262511
700000 0.0245045
706250 0.0242545
712500 0.0240092
718750 0.0237685
725000 0.0235322
731250 0.0233003
737500 0.0230726
743750 0.0228491
750000 0.0226295
756250 0.0224139
762500 0.0222021
768750 0.0219939
775000 0.0217894
781250 0.0215884
787500 0.0213909
793750 0.0211967
800000 0.0210057
806250 0.0209293
812500 0.0208538
818750 0.0207791
825000 0.0207053
831250 0.0206322
837500 0.0205600
843750 0.0204886
850000 0.0204179
856250 0.0203480
862500 0.0202788
868750 0.0202104
875000 0.0201427
881250 0.0200757
887500 0.0200094
893750 0.0199438
900000 0.0198788
906250 0.0198634
912500 0.0198480
918750 0.0198328
925000 0.0198177
931250 0.0198028
937500 0.0197879
943750 0.0197731
950000 0.0197585
956250 0.0197439
962500 0.0197295
968750 0.0197152
975000 0.0197009
981250 0.0196868
987500 0.0196728
993750 0.0196588
1.00000E+06 0.0196450
1.00781E+06 0.0196922
1.01563E+06 0.0197391
1.02344E+06 0.0197858
1.03125E+06 0.0198322
1.03906E+06 0.0198784
1.04688E+06 0.0199244
1.05469E+06 0.0199701
1.06250E+06 0.0200155
1.07031E+06 0.0200608
1.07813E+06 0.0201058
1.08594E+06 0.0201506
1.09375E+06 0.0201952
1.10156E+06 0.0202395
1.10938E+06 0.0202837
1.11719E+06 0.0203276
1.12500E+06 0.0203713
1.13281E+06 0.0204148
1.14063E+06 0.0204581
1.14844E+06 0.0205012
1.15625E+06 0.0205441
1.16406E+06 0.0205867
1.17188E+06 0.0206292
1.17969E+06 0.0206715
1.18750E+06 0.0207136
1.19531E+06 0.0207555
1.20313E+06 0.0207972
1.21094E+06 0.0208388
1.21875E+06 0.0208801
1.22656E+06 0.0209213
1.23438E+06 0.0209623
1.24219E+06 0.0210031
1.25000E+06 0.0210437
1.25944E+06 0.0211294
1.26889E+06 0.0212148
1.27833E+06 0.0212999
1.28777E+06 0.0213847
1.29721E+06 0.0214692
1.30666E+06 0.0215535
1.31610E+06 0.0216374
1.32554E+06 0.0217211
1.32554E+06 0.0217211
1.32827E+06 0.0216720
1.33099E+06 0.0216231
1.33645E+06 0.0215259
1.34735E+06 0.0213340
1.35825E+06 0.0211453
1.36916E+06 0.0209598
1.38006E+06 0.0207774
1.39096E+06 0.0205980
1.40187E+06 0.0204215
1.41277E+06 0.0202479
1.42367E+06 0.0200771
1.43458E+06 0.0199089
1.44548E+06 0.0197435
1.45639E+06 0.0195807
1.46729E+06 0.0194204
1.47819E+06 0.0192626
1.48910E+06 0.0191072
1.50000E+06 0.0189542
1.50900E+06 0.0189413
1.51800E+06 0.0189284
1.51800E+06 0.0189284
1.52205E+06 0.0188222
1.52205E+06 0.0188222
1.52561E+06 0.0187650
1.52918E+06 0.0187081
1.53630E+06 0.0185952
1.54342E+06 0.0184835
1.55054E+06 0.0183729
1.55767E+06 0.0182636
1.56479E+06 0.0181554
1.57192E+06 0.0180483
1.57904E+06 0.0179423
1.58616E+06 0.0178374
1.59329E+06 0.0177336
1.60041E+06 0.0176309
1.60753E+06 0.0175292
1.61466E+06 0.0174285
1.62178E+06 0.0173289
1.62890E+06 0.0172302
1.63603E+06 0.0171326
1.64315E+06 0.0170359
1.65027E+06 0.0169402
1.65740E+06 0.0168454
1.66452E+06 0.0167516
1.67164E+06 0.0166587
1.67877E+06 0.0165667
1.68589E+06 0.0164756
1.69301E+06 0.0163853
1.70014E+06 0.0162960
1.70726E+06 0.0162075
1.71438E+06 0.0161198
1.72151E+06 0.0160330
1.72863E+06 0.0159470
1.73575E+06 0.0158618
1.74288E+06 0.0157774
1.75000E+06 0.0156938
1.75787E+06 0.0156850
1.76574E+06 0.0156762
1.77360E+06 0.0156674
1.78147E+06 0.0156587
1.78750E+06 0.0156497
1.79354E+06 0.0156408
1.79957E+06 0.0156319
1.80560E+06 0.0156230
1.81164E+06 0.0156142
1.81767E+06 0.0156054
1.82370E+06 0.0155967
1.82974E+06 0.0155879
1.83577E+06 0.0155792
1.84180E+06 0.0155706
1.84784E+06 0.0155619
1.85387E+06 0.0155534
1.85990E+06 0.0155448
1.86593E+06 0.0155363
1.87197E+06 0.0155278
1.87800E+06 0.0155193
1.87800E+06 0.0155193
1.88182E+06 0.0154923
1.88563E+06 0.0154655
1.89325E+06 0.0154120
1.90088E+06 0.0153590
1.90850E+06 0.0153064
1.91613E+06 0.0152541
1.92375E+06 0.0152023
1.93138E+06 0.0151508
1.93900E+06 0.0150997
1.94663E+06 0.0150490
1.95425E+06 0.0149986
1.96188E+06 0.0149486
1.96950E+06 0.0148990
1.97713E+06 0.0148497
1.98475E+06 0.0148007
1.99238E+06 0.0147521
2.00000E+06 0.0147039
2.01092E+06 0.0146847
2.02184E+06 0.0146656
2.02832E+06 0.0146223
2.03479E+06 0.0145793
2.04127E+06 0.0145365
2.04775E+06 0.0144940
2.05422E+06 0.0144517
2.06070E+06 0.0144097
2.06717E+06 0.0143679
2.07365E+06 0.0143264
2.08013E+06 0.0142852
2.08660E+06 0.0142442
2.09308E+06 0.0142034
2.09956E+06 0.0141629
2.10603E+06 0.0141226
2.11251E+06 0.0140826
2.11898E+06 0.0140428
2.12546E+06 0.0140032
2.12546E+06 0.0140032
2.13081E+06 0.0139713
2.13616E+06 0.0139396
2.14686E+06 0.0138767
2.15756E+06 0.0138144
2.16826E+06 0.0137527
2.17896E+06 0.0136915
2.18966E+06 0.0136309
2.20036E+06 0.0135708
2.21106E+06 0.0135114
2.22176E+06 0.0134524
2.23245E+06 0.0133940
2.24315E+06 0.0133361
2.25385E+06 0.0132788
2.26455E+06 0.0132220
2.27525E+06 0.0131656
2.28595E+06 0.0131098
2.29665E+06 0.0130545
2.29665E+06 0.0130545
2.30488E+06 0.0129901
2.31311E+06 0.0129262
2.32134E+06 0.0128629
2.32957E+06 0.0128001
2.32957E+06 0.0128001
2.33654E+06 0.0127500
2.34350E+06 0.0127003
2.35047E+06 0.0126509
2.35743E+06 0.0126019
2.36492E+06 0.0124853
2.36492E+06 0.0124853
2.37138E+06 0.0124273
2.37784E+06 0.0123698
2.38429E+06 0.0123126
2.39075E+06 0.0122559
2.39076E+06 0.0122559
2.40009E+06 0.0121999
2.40941E+06 0.0121444
2.41875E+06 0.0120893
2.42808E+06 0.0120347
2.43741E+06 0.0119806
2.44674E+06 0.0119268
2.45607E+06 0.0118736
2.46541E+06 0.0118208
2.47474E+06 0.0117684
2.48407E+06 0.0117164
2.49340E+06 0.0116649
2.50273E+06 0.0116138
2.51207E+06 0.0115631
2.52140E+06 0.0115128
2.53073E+06 0.0114629
2.54006E+06 0.0114134
2.54006E+06 0.0114134
2.54761E+06 0.0113644
2.55516E+06 0.0113158
2.56270E+06 0.0112676
2.57025E+06 0.0112197
2.57156E+06 0.0112054
2.57157E+06 0.0112054
2.57846E+06 0.0111633
2.58535E+06 0.0111214
2.59224E+06 0.0110799
2.59914E+06 0.0110385
2.60603E+06 0.0109975
2.61293E+06 0.0109567
2.61982E+06 0.0109162
2.62672E+06 0.0108759
2.63361E+06 0.0108359
2.64050E+06 0.0107961
2.64740E+06 0.0107566
2.65429E+06 0.0107173
2.66119E+06 0.0106782
2.66808E+06 0.0106395
2.67498E+06 0.0106009
2.68187E+06 0.0105626
2.68188E+06 0.0105626
2.69010E+06 0.0105312
2.69833E+06 0.0105000
2.70656E+06 0.0104689
2.71479E+06 0.0104381
2.71480E+06 0.0104381
2.71682E+06 0.0104198
2.71682E+06 0.0104198
2.72622E+06 0.0103720
2.73561E+06 0.0103245
2.74501E+06 0.0102774
2.75440E+06 0.0102307
2.75440E+06 0.0102307
2.76159E+06 0.0101851
2.76879E+06 0.0101399
2.77598E+06 0.0100950
2.78317E+06 0.0100504
2.78995E+06 0.0100146
2.79672E+06 0.00997906
2.80350E+06 0.00994370
2.81027E+06 0.00990856
2.81705E+06 0.00987363
2.82383E+06 0.00983890
2.83060E+06 0.00980438
2.83738E+06 0.00977006
2.84415E+06 0.00973594
2.85093E+06 0.00970202
2.85771E+06 0.00966830
2.86448E+06 0.00963478
2.87126E+06 0.00960145
2.87803E+06 0.00956832
2.88481E+06 0.00953537
2.89159E+06 0.00950263
2.89836E+06 0.00947006
2.90514E+06 0.00943768
2.91191E+06 0.00940549
2.91869E+06 0.00937349
2.92547E+06 0.00934166
2.93224E+06 0.00931002
2.93902E+06 0.00927856
2.94579E+06 0.00924727
2.95257E+06 0.00921617
2.95935E+06 0.00918524
2.96612E+06 0.00915448
2.97290E+06 0.00912389
2.97967E+06 0.00909348
2.98645E+06 0.00906324
2.99323E+06 0.00903316
3.00000E+06 0.00900326
3.00866E+06 0.00896211
3.01733E+06 0.00892127
3.02599E+06 0.00888073
3.03465E+06 0.00884049
3.04332E+06 0.00880055
3.05198E+06 0.00876090
3.06064E+06 0.00872154
3.06931E+06 0.00868247
3.07797E+06 0.00864368
3.08663E+06 0.00860518
3.09530E+06 0.00856696
3.10396E+06 0.00852901
3.11262E+06 0.00849133
3.12129E+06 0.00845392
3.12995E+06 0.00841678
3.13861E+06 0.00837991
3.14728E+06 0.00834329
3.15594E+06 0.00830694
3.16460E+06 0.00827085
3.17327E+06 0.00823501
3.18193E+06 0.00819942
3.19059E+06 0.00816409
3.19926E+06 0.00812900
3.20792E+06 0.00809416
3.21658E+06 0.00805955
3.22525E+06 0.00802519
3.23391E+06 0.00799107
3.24257E+06 0.00795718
3.25124E+06 0.00792353
3.25990E+06 0.00789010
3.26856E+06 0.00785691
3.27723E+06 0.00782395
3.28589E+06 0.00779120
3.29455E+06 0.00775868
3.30322E+06 0.00772638
3.31188E+06 0.00769430
3.32054E+06 0.00766244
3.32921E+06 0.00763079
3.33787E+06 0.00759935
3.34653E+06 0.00756813
3.35520E+06 0.00753711
3.36386E+06 0.00750630
3.37252E+06 0.00747569
3.38119E+06 0.00744529
3.38985E+06 0.00741509
3.39851E+06 0.00738509
3.40718E+06 0.00735528
3.41584E+06 0.00732567
3.42450E+06 0.00729625
3.43317E+06 0.00726703
3.44183E+06 0.00723800
3.45049E+06 0.00720915
3.45916E+06 0.00718049
3.46782E+06 0.00715202
3.47648E+06 0.00712373
3.48514E+06 0.00709562
3.49381E+06 0.00706769
3.50247E+06 0.00703994
3.51113E+06 0.00701237
3.51980E+06 0.00698497
3.52846E+06 0.00695775
3.53712E+06 0.00693070
3.54579E+06 0.00690382
3.55445E+06 0.00687711
3.56837E+06 0.00683453
3.58230E+06 0.00679239
3.59622E+06 0.00675066
3.61014E+06 0.00670935
3.62407E+06 0.00666845
3.63799E+06 0.00662796
3.65192E+06 0.00658786
3.66584E+06 0.00654816
3.67976E+06 0.00650884
3.69369E+06 0.00646991
3.70761E+06 0.00643136
3.72153E+06 0.00639318
3.73546E+06 0.00635537
3.74938E+06 0.00631792
3.76330E+06 0.00628083
3.77723E+06 0.00624409
3.79115E+06 0.00620770
3.80507E+06 0.00617166
3.81900E+06 0.00613596
3.83292E+06 0.00610059
3.84684E+06 0.00606555
3.86077E+06 0.00603084
3.87469E+06 0.00599645
3.88861E+06 0.00596238
3.90254E+06 0.00592862
3.91646E+06 0.00589518
3.93038E+06 0.00586204
3.94431E+06 0.00582921
3.95823E+06 0.00579667
3.97215E+06 0.00576442
3.98608E+06 0.00573247
4.00000E+06 0.00570081
4.01563E+06 0.00566166
4.03125E+06 0.00562293
4.04688E+06 0.00558461
4.06250E+06 0.00554669
4.07813E+06 0.00550918
4.09375E+06 0.00547207
4.10938E+06 0.00543534
4.12500E+06 0.00539900
4.14063E+06 0.00536304
4.15625E+06 0.00532745
4.17188E+06 0.00529223
4.18750E+06 0.00525737
4.20313E+06 0.00522288
4.21875E+06 0.00518873
4.23438E+06 0.00515493
4.25000E+06 0.00512148
4.26563E+06 0.00508837
4.28125E+06 0.00505558
4.29688E+06 0.00502313
4.31250E+06 0.00499101
4.32813E+06 0.00495920
4.34375E+06 0.00492771
4.35938E+06 0.00489653
4.37500E+06 0.00486566
4.39063E+06 0.00483510
4.40625E+06 0.00480483
4.42188E+06 0.00477486
4.43750E+06 0.00474518
4.45313E+06 0.00471579
4.46875E+06 0.00468668
4.48438E+06 0.00465785
4.50000E+06 0.00462930
4.51563E+06 0.00460102
4.53125E+06 0.00457302
4.54688E+06 0.00454527
4.56250E+06 0.00451779
4.57813E+06 0.00449057
4.59375E+06 0.00446361
4.60938E+06 0.00443690
4.62500E+06 0.00441043
4.64063E+06 0.00438422
4.65625E+06 0.00435825
4.67188E+06 0.00433251
4.68750E+06 0.00430702
4.70313E+06 0.00428176
4.71875E+06 0.00425673
4.73438E+06 0.00423192
4.75000E+06 0.00420735
4.76563E+06 0.00418299
4.78125E+06 0.00415886
4.79688E+06 0.00413494
4.81250E+06 0.00411124
4.82813E+06 0.00408775
4.84375E+06 0.00406447
4.85938E+06 0.00404140
4.87500E+06 0.00401853
4.89063E+06 0.00399586
4.90625E+06 0.00397340
4.92188E+06 0.00395113
4.93750E+06 0.00392905
4.95313E+06 0.00390717
4.96875E+06 0.00388547
4.98438E+06 0.00386397
5.00000E+06 0.00384265
5.00781E+06 0.00382990
5.01563E+06 0.00381722
5.02344E+06 0.00380460
5.03125E+06 0.00379203
5.03906E+06 0.00377953
5.04688E+06 0.00376709
5.05469E+06 0.00375471
5.06250E+06 0.00374239
5.07031E+06 0.00373013
5.07813E+06 0.00371793
5.08594E+06 0.00370579
5.09375E+06 0.00369370
5.10156E+06 0.00368167
5.10938E+06 0.00366970
5.11719E+06 0.00365779
5.12500E+06 0.00364593
5.13281E+06 0.00363413
5.14063E+06 0.00362239
5.14844E+06 0.00361070
5.15625E+06 0.00359907
5.16406E+06 0.00358749
5.17188E+06 0.00357597
5.17969E+06 0.00356450
5.18750E+06 0.00355309
5.19531E+06 0.00354172
5.20313E+06 0.00353042
5.21094E+06 0.00351916
5.21875E+06 0.00350796
5.22656E+06 0.00349681
5.23438E+06 0.00348571
5.24219E+06 0.00347467
5.25000E+06 0.00346367
5.25781E+06 0.00345273
5.26563E+06 0.00344184
5.27344E+06 0.00343099
5.28125E+06 0.00342020
5.28906E+06 0.00340946
5.29688E+06 0.00339877
5.30469E+06 0.00338812
5.31250E+06 0.00337753
5.32031E+06 0.00336698
5.32813E+06 0.00335648
5.33594E+06 0.00334603
5.34375E+06 0.00333563
5.35156E+06 0.00332528
5.35938E+06 0.00331497
5.36719E+06 0.00330471
5.37500E+06 0.00329450
5.38281E+06 0.00328433
5.39063E+06 0.00327421
5.39844E+06 0.00326413
5.40625E+06 0.00325410
5.41406E+06 0.00324411
5.42188E+06 0.00323418
5.42969E+06 0.00322428
5.43750E+06 0.00321443
5.44531E+06 0.00320462
5.45313E+06 0.00319486
5.46094E+06 0.00318514
5.46875E+06 0.00317546
5.47656E+06 0.00316583
5.48438E+06 0.00315624
5.49219E+06 0.00314669
5.50000E+06 0.00313719
5.50781E+06 0.00312773
5.51563E+06 0.00311831
5.52344E+06 0.00310893
5.53125E+06 0.00309959
5.53906E+06 0.00309029
5.54688E+06 0.00308104
5.55469E+06 0.00307182
5.56250E+06 0.00306265
5.57031E+06 0.00305352
5.57813E+06 0.00304442
5.58594E+06 0.00303537
5.59375E+06 0.00302635
5.60156E+06 0.00301738
5.60938E+06 0.00300844
5.61719E+06 0.00299954
5.62500E+06 0.00299068
5.63281E+06 0.00298186
5.64063E+06 0.00297308
5.64844E+06 0.00296434
5.65625E+06 0.00295563
5.66406E+06 0.00294696
5.67188E+06 0.00293833
5.67969E+06 0.00292973
5.68750E+06 0.00292118
5.69531E+06 0.00291265
5.70313E+06 0.00290417
5.71094E+06 0.00289572
5.71875E+06 0.00288731
5.72656E+06 0.00287893
5.73438E+06 0.00287059
5.74219E+06 0.00286229
5.75000E+06 0.00285402
5.75781E+06 0.00284578
5.76563E+06 0.00283758
5.77344E+06 0.00282942
5.78125E+06 0.00282129
5.78906E+06 0.00281319
5.79688E+06 0.00280513
5.80469E+06 0.00279710
5.81250E+06 0.00278910
5.82031E+06 0.00278114
5.82813E+06 0.00277321
5.83594E+06 0.00276532
5.84375E+06 0.00275746
5.85156E+06 0.00274963
5.85938E+06 0.00274183
5.86719E+06 0.00273407
5.87500E+06 0.00272634
5.88281E+06 0.00271864
5.89063E+06 0.00271097
5.89844E+06 0.00270333
5.90625E+06 0.00269573
5.91406E+06 0.00268816
5.92188E+06 0.00268062
5.92969E+06 0.00267310
5.93750E+06 0.00266563
5.94531E+06 0.00265818
5.95313E+06 0.00265076
5.96094E+06 0.00264337
5.96875E+06 0.00263601
5.97656E+06 0.00262868
5.98438E+06 0.00262139
5.99219E+06 0.00261412
6.00000E+06 0.00260688
6.01367E+06 0.00259016
6.02734E+06 0.00257358
6.04101E+06 0.00255714
6.05468E+06 0.00254085
6.06835E+06 0.00252469
6.08202E+06 0.00250868
6.09569E+06 0.00249280
6.10936E+06 0.00247706
6.13625E+06 0.00244648
6.16313E+06 0.00241642
6.19002E+06 0.00238685
6.21691E+06 0.00235778
6.24379E+06 0.00232917
6.27068E+06 0.00230104
6.29756E+06 0.00227337
6.32445E+06 0.00224614
6.35134E+06 0.00221935
6.37822E+06 0.00219300
6.40511E+06 0.00216706
6.43200E+06 0.00214154
6.45888E+06 0.00211643
6.48577E+06 0.00209171
6.51265E+06 0.00206738
6.53954E+06 0.00204343
6.56783E+06 0.00201864
6.59612E+06 0.00199425
6.62441E+06 0.00197026
6.65270E+06 0.00194665
6.68098E+06 0.00192343
6.70927E+06 0.00190059
6.73756E+06 0.00187810
6.76585E+06 0.00185598
6.79512E+06 0.00183346
6.82439E+06 0.00181131
6.85366E+06 0.00178952
6.88293E+06 0.00176808
6.91219E+06 0.00174699
6.94146E+06 0.00172623
6.97073E+06 0.00170581
7.00000E+06 0.00168572
7.00743E+06 0.00167952
7.01485E+06 0.00167334
7.02228E+06 0.00166719
7.02970E+06 0.00166108
7.03713E+06 0.00165499
7.04455E+06 0.00164893
7.05198E+06 0.00164290
7.05941E+06 0.00163690
7.06683E+06 0.00163093
7.07426E+06 0.00162498
7.08168E+06 0.00161906
7.08911E+06 0.00161317
7.09653E+06 0.00160731
7.10396E+06 0.00160147
7.11139E+06 0.00159567
7.11881E+06 0.00158988
7.12624E+06 0.00158413
7.13366E+06 0.00157840
7.14109E+06 0.00157270
7.14851E+06 0.00156703
7.15594E+06 0.00156138
7.16336E+06 0.00155576
7.17079E+06 0.00155016
7.17822E+06 0.00154459
7.18564E+06 0.00153905
7.19307E+06 0.00153353
7.20049E+06 0.00152804
7.20792E+06 0.00152257
7.21534E+06 0.00151713
7.22277E+06 0.00151171
7.23020E+06 0.00150632
7.23762E+06 0.00150095
7.24530E+06 0.00149543
7.25298E+06 0.00148993
7.26065E+06 0.00148446
7.26833E+06 0.00147901
7.27601E+06 0.00147359
7.28369E+06 0.00146819
7.29137E+06 0.00146282
7.29904E+06 0.00145748
7.30672E+06 0.00145216
7.31440E+06 0.00144687
7.32208E+06 0.00144160
7.32975E+06 0.00143635
7.33743E+06 0.00143113
7.34511E+06 0.00142594
7.35279E+06 0.00142076
7.36047E+06 0.00141562
7.36814E+06 0.00141049
7.37582E+06 0.00140539
7.38350E+06 0.00140032
7.39118E+06 0.00139527
7.39886E+06 0.00139024
7.40653E+06 0.00138523
7.41421E+06 0.00138025
7.42189E+06 0.00137529
7.42957E+06 0.00137035
7.43724E+06 0.00136544
7.44492E+06 0.00136055
7.45260E+06 0.00135568
7.46028E+06 0.00135083
7.46796E+06 0.00134601
7.47563E+06 0.00134121
7.48331E+06 0.00133643
7.49125E+06 0.00133151
7.49919E+06 0.00132662
7.50713E+06 0.00132174
7.51506E+06 0.00131689
7.52300E+06 0.00131207
7.53094E+06 0.00130726
7.53888E+06 0.00130248
7.54682E+06 0.00129772
7.55476E+06 0.00129299
7.56270E+06 0.00128827
7.57063E+06 0.00128358
7.57857E+06 0.00127891
7.58651E+06 0.00127426
7.59445E+06 0.00126964
7.60239E+06 0.00126503
7.61033E+06 0.00126045
7.61826E+06 0.00125589
7.62620E+06 0.00125135
7.63414E+06 0.00124683
7.64208E+06 0.00124233
7.65002E+06 0.00123785
7.65796E+06 0.00123340
7.66590E+06 0.00122896
7.67383E+06 0.00122454
7.68177E+06 0.00122015
7.68971E+06 0.00121577
7.69765E+06 0.00121142
7.70559E+06 0.00120708
7.71353E+06 0.00120277
7.72146E+06 0.00119847
7.72940E+06 0.00119420
7.73734E+06 0.00118994
7.74555E+06 0.00118556
7.75376E+06 0.00118120
7.76197E+06 0.00117687
7.77017E+06 0.00117255
7.77838E+06 0.00116825
7.78659E+06 0.00116397
7.79480E+06 0.00115972
7.80301E+06 0.00115548
7.81121E+06 0.00115126
7.81942E+06 0.00114707
7.82763E+06 0.00114289
7.83584E+06 0.00113873
7.84405E+06 0.00113459
7.85225E+06 0.00113047
7.86046E+06 0.00112637
7.86867E+06 0.00112229
7.87688E+06 0.00111823
7.88509E+06 0.00111419
7.89330E+06 0.00111016
7.90150E+06 0.00110616
7.90971E+06 0.00110217
7.91792E+06 0.00109820
7.92613E+06 0.00109425
7.93434E+06 0.00109032
7.94254E+06 0.00108641
7.95075E+06 0.00108251
7.95896E+06 0.00107863
7.96717E+06 0.00107477
7.97538E+06 0.00107093
7.98358E+06 0.00106711
7.99179E+06 0.00106330
8.00000E+06 0.00105951
8.00638E+06 0.00105649
8.01276E+06 0.00105349
8.01914E+06 0.00105050
8.02552E+06 0.00104751
8.03190E+06 0.00104454
8.03828E+06 0.00104158
8.04466E+06 0.00103863
8.05104E+06 0.00103569
8.05742E+06 0.00103276
8.06380E+06 0.00102985
8.07018E+06 0.00102694
8.07656E+06 0.00102404
8.08295E+06 0.00102115
8.08933E+06 0.00101828
8.09571E+06 0.00101541
8.10209E+06 0.00101256
8.10847E+06 0.00100971
8.11485E+06 0.00100688
8.12123E+06 0.00100405
8.12761E+06 0.00100124
8.13399E+06 0.000998430
8.14037E+06 0.000995635
8.14675E+06 0.000992850
8.15313E+06 0.000990076
8.15951E+06 0.000987311
8.16589E+06 0.000984556
8.17227E+06 0.000981811
8.17865E+06 0.000979076
8.18503E+06 0.000976350
8.19141E+06 0.000973634
8.19779E+06 0.000970928
8.20417E+06 0.000968231
8.21296E+06 0.000964534
8.22174E+06 0.000960855
8.23053E+06 0.000957193
8.23931E+06 0.000953550
8.24809E+06 0.000949925
8.25688E+06 0.000946316
8.26566E+06 0.000942726
8.27445E+06 0.000939153
8.28323E+06 0.000935597
8.29202E+06 0.000932058
8.30080E+06 0.000928537
8.30959E+06 0.000925033
8.31837E+06 0.000921545
8.32716E+06 0.000918075
8.33594E+06 0.000914621
8.34473E+06 0.000911183
8.35351E+06 0.000907762
8.36230E+06 0.000904358
8.37108E+06 0.000900970
8.37986E+06 0.000897598
8.38865E+06 0.000894242
8.39743E+06 0.000890902
8.40622E+06 0.000887578
8.41500E+06 0.000884271
8.42379E+06 0.000880978
8.43257E+06 0.000877702
8.44136E+06 0.000874441
8.45014E+06 0.000871195
8.45893E+06 0.000867965
8.46771E+06 0.000864751
8.47650E+06 0.000861551
8.48528E+06 0.000858367
8.49321E+06 0.000855816
8.50113E+06 0.000853275
8.50905E+06 0.000850744
8.51698E+06 0.000848223
8.52490E+06 0.000845712
8.53283E+06 0.000843210
8.54075E+06 0.000840718
8.54867E+06 0.000838236
8.55660E+06 0.000835764
8.56452E+06 0.000833301
8.57245E+06 0.000830847
8.58037E+06 0.000828403
8.58829E+06 0.000825969
8.59622E+06 0.000823544
8.60414E+06 0.000821128
8.61207E+06 0.000818721
8.61999E+06 0.000816324
8.62791E+06 0.000813936
8.63584E+06 0.000811557
8.64376E+06 0.000809187
8.65169E+06 0.000806827
8.65961E+06 0.000804475
8.66753E+06 0.000802132
8.67546E+06 0.000799799
8.68338E+06 0.000797474
8.69131E+06 0.000795158
8.69923E+06 0.000792851
8.70715E+06 0.000790553
8.71508E+06 0.000788263
8.72300E+06 0.000785983
8.73093E+06 0.000783710
8.73885E+06 0.000781447
8.74701E+06 0.000779125
8.75517E+06 0.000776811
8.76333E+06 0.000774507
8.77149E+06 0.000772212
8.77966E+06 0.000769926
8.78782E+06 0.000767648
8.79598E+06 0.000765380
8.80414E+06 0.000763120
8.81230E+06 0.000760869
8.82046E+06 0.000758627
8.82862E+06 0.000756393
8.83678E+06 0.000754168
8.84494E+06 0.000751952
8.85310E+06 0.000749744
8.86127E+06 0.000747544
8.86943E+06 0.000745354
8.87759E+06 0.000743171
8.88575E+06 0.000740997
8.89391E+06 0.000738831
8.90207E+06 0.000736674
8.91023E+06 0.000734525
8.91839E+06 0.000732384
8.92655E+06 0.000730251
8.93471E+06 0.000728127
8.94287E+06 0.000726010
8.95104E+06 0.000723902
8.95920E+06 0.000721801
8.96736E+06 0.000719709
8.97552E+06 0.000717625
8.98368E+06 0.000715548
8.99184E+06 0.000713480
9.00000E+06 0.000711419
9.00761E+06 0.000710318
9.01521E+06 0.000709219
9.02282E+06 0.000708123
9.03043E+06 0.000707030
9.03803E+06 0.000705939
9.04564E+06 0.000704851
9.05325E+06 0.000703766
9.06085E+06 0.000702683
9.06846E+06 0.000701602
9.07607E+06 0.000700524
9.08368E+06 0.000699449
9.09128E+06 0.000698377
9.09889E+06 0.000697306
9.10650E+06 0.000696239
9.11410E+06 0.000695173
9.12171E+06 0.000694111
9.12932E+06 0.000693051
9.13692E+06 0.000691993
9.14453E+06 0.000690938
9.15214E+06 0.000689886
9.15974E+06 0.000688835
9.16735E+06 0.000687788
9.17496E+06 0.000686743
9.18256E+06 0.000685700
9.19017E+06 0.000684660
9.19778E+06 0.000683622
9.20538E+06 0.000682586
9.21299E+06 0.000681553
9.22060E+06 0.000680523
9.22820E+06 0.000679494
9.23581E+06 0.000678469
9.24342E+06 0.000677445
9.25102E+06 0.000676424
9.25863E+06 0.000675406
9.26624E+06 0.000674389
9.27384E+06 0.000673375
9.28145E+06 0.000672364
9.28906E+06 0.000671355
9.29666E+06 0.000670348
9.30427E+06 0.000669343
9.31188E+06 0.000668341
9.31948E+06 0.000667341
9.32709E+06 0.000666343
9.33470E+06 0.000665348
9.34230E+06 0.000664355
9.34991E+06 0.000663364
9.35752E+06 0.000662376
9.36512E+06 0.000661390
9.37273E+06 0.000660406
9.38034E+06 0.000659424
9.38794E+06 0.000658445
9.39555E+06 0.000657468
9.40316E+06 0.000656493
9.41076E+06 0.000655520
9.41837E+06 0.000654550
9.42598E+06 0.000653582
9.43358E+06 0.000652616
9.44119E+06 0.000651652
9.44880E+06 0.000650690
9.45640E+06 0.000649731
9.46401E+06 0.000648774
9.47162E+06 0.000647819
9.47922E+06 0.000646866
9.48683E+06 0.000645915
9.49485E+06 0.000645414
9.50287E+06 0.000644913
9.51089E+06 0.000644413
9.51890E+06 0.000643914
9.52692E+06 0.000643416
9.53494E+06 0.000642919
9.54296E+06 0.000642422
9.55098E+06 0.000641926
9.55900E+06 0.000641431
9.56701E+06 0.000640937
9.57503E+06 0.000640444
9.58305E+06 0.000639951
9.59107E+06 0.000639459
9.59909E+06 0.000638968
9.60711E+06 0.000638478
9.61512E+06 0.000637989
9.62314E+06 0.000637500
9.63116E+06 0.000637012
9.63918E+06 0.000636525
9.64720E+06 0.000636039
9.65522E+06 0.000635553
9.66323E+06 0.000635068
9.67125E+06 0.000634584
9.67927E+06 0.000634101
9.68729E+06 0.000633619
9.69531E+06 0.000633137
9.70332E+06 0.000632656
9.71134E+06 0.000632176
9.71936E+06 0.000631696
9.72738E+06 0.000631218
9.73540E+06 0.000630740
9.74342E+06 0.000630263
9.75143E+06 0.000629786
9.75945E+06 0.000629311
9.76747E+06 0.000628836
9.77549E+06 0.000628362
9.78351E+06 0.000627888
9.79153E+06 0.000627416
9.79954E+06 0.000626944
9.80756E+06 0.000626472
9.81558E+06 0.000626002
9.82360E+06 0.000625532
9.83162E+06 0.000625063
9.83964E+06 0.000624595
9.84765E+06 0.000624128
9.85567E+06 0.000623661
9.86369E+06 0.000623195
9.87171E+06 0.000622730
9.87973E+06 0.000622265
9.88775E+06 0.000621801
9.89576E+06 0.000621338
9.90378E+06 0.000620876
9.91180E+06 0.000620414
9.91982E+06 0.000619953
9.92784E+06 0.000619493
9.93585E+06 0.000619033
9.94387E+06 0.000618574
9.95189E+06 0.000618116
9.95991E+06 0.000617659
9.96793E+06 0.000617202
9.97595E+06 0.000616746
9.98396E+06 0.000616291
9.99198E+06 0.000615836
1.00000E+07 0.000615382
1.00076E+07 0.000615775
1.00153E+07 0.000616168
1.00229E+07 0.000616561
1.00305E+07 0.000616954
1.00381E+07 0.000617347
1.00458E+07 0.000617740
1.00534E+07 0.000618132
1.00610E+07 0.000618525
1.00687E+07 0.000618917
1.00763E+07 0.000619310
1.00839E+07 0.000619703
1.00915E+07 0.000620095
1.00992E+07 0.000620487
1.01068E+07 0.000620879
1.01144E+07 0.000621272
1.01220E+07 0.000621664
1.01297E+07 0.000622056
1.01373E+07 0.000622448
1.01449E+07 0.000622840
1.01525E+07 0.000623232
1.01602E+07 0.000623624
1.01678E+07 0.000624016
1.01754E+07 0.000624408
1.01830E+07 0.000624799
1.01907E+07 0.000625191
1.01983E+07 0.000625583
1.02059E+07 0.000625975
1.02136E+07 0.000626367
1.02212E+07 0.000626758
1.02288E+07 0.000627150
1.02364E+07 0.000627541
1.02441E+07 0.000627932
1.02517E+07 0.000628324
1.02593E+07 0.000628715
1.02669E+07 0.000629107
1.02746E+07 0.000629498
1.02822E+07 0.000629889
1.02898E+07 0.000630281
1.02975E+07 0.000630672
1.03051E+07 0.000631063
1.03127E+07 0.000631454
1.03203E+07 0.000631845
1.03280E+07 0.000632236
1.03356E+07 0.000632627
1.03432E+07 0.000633018
1.03508E+07 0.000633408
1.03585E+07 0.000633799
1.03661E+07 0.000634189
1.03737E+07 0.000634580
1.03813E+07 0.000634971
1.03890E+07 0.000635362
1.03966E+07 0.000635752
1.04042E+07 0.000636143
1.04118E+07 0.000636533
1.04195E+07 0.000636923
1.04271E+07 0.000637313
1.04347E+07 0.000637704
1.04424E+07 0.000638094
1.04500E+07 0.000638484
1.04576E+07 0.000638874
1.04652E+07 0.000639265
1.04729E+07 0.000639654
1.04805E+07 0.000640044
1.04881E+07 0.000640434
1.04951E+07 0.000641344
1.05021E+07 0.000642253
1.05091E+07 0.000643162
1.05162E+07 0.000644073
1.05232E+07 0.000644985
1.05302E+07 0.000645897
1.05372E+07 0.000646809
1.05442E+07 0.000647722
1.05559E+07 0.000649241
1.05675E+07 0.000650762
1.05792E+07 0.000652284
1.05908E+07 0.000653809
1.06025E+07 0.000655335
1.06141E+07 0.000656864
1.06258E+07 0.000658394
1.06374E+07 0.000659926
1.06375E+07 0.000659934
1.06484E+07 0.000661371
1.06593E+07 0.000662809
1.06702E+07 0.000664248
1.06811E+07 0.000665690
1.06920E+07 0.000667133
1.07029E+07 0.000668578
1.07138E+07 0.000670024
1.07247E+07 0.000671471
1.07356E+07 0.000672921
1.07466E+07 0.000674372
1.07575E+07 0.000675825
1.07684E+07 0.000677280
1.07793E+07 0.000678736
1.07902E+07 0.000680194
1.08011E+07 0.000681654
1.08120E+07 0.000683113
1.08238E+07 0.000684689
1.08355E+07 0.000686267
1.08473E+07 0.000687846
1.08590E+07 0.000689428
1.08708E+07 0.000691011
1.08825E+07 0.000692596
1.08943E+07 0.000694183
1.09060E+07 0.000695772
1.09178E+07 0.000697363
1.09295E+07 0.000698956
1.09413E+07 0.000700551
1.09530E+07 0.000702148
1.09648E+07 0.000703746
1.09765E+07 0.000705347
1.09883E+07 0.000706950
1.10000E+07 0.000708554
1.10239E+07 0.000713840
1.10479E+07 0.000719154
1.10718E+07 0.000724497
1.10957E+07 0.000729867
1.11197E+07 0.000735265
1.11436E+07 0.000740691
1.11675E+07 0.000746146
1.11914E+07 0.000751627
1.12154E+07 0.000757138
1.12393E+07 0.000762678
1.12632E+07 0.000768247
1.12871E+07 0.000773842
1.13111E+07 0.000779468
1.13350E+07 0.000785123
1.13589E+07 0.000790807
1.13829E+07 0.000796518
1.14068E+07 0.000802260
1.14307E+07 0.000808031
1.14546E+07 0.000813832
1.14786E+07 0.000819662
1.15025E+07 0.000825522
1.15264E+07 0.000831411
1.15504E+07 0.000837330
1.15743E+07 0.000843276
1.15982E+07 0.000849255
1.16221E+07 0.000855263
1.16461E+07 0.000861301
1.16700E+07 0.000867367
1.16939E+07 0.000873466
1.17179E+07 0.000879595
1.17418E+07 0.000885755
1.17657E+07 0.000891942
1.17730E+07 0.000893844
1.17804E+07 0.000895746
1.17877E+07 0.000897651
1.17950E+07 0.000899560
1.18023E+07 0.000901473
1.18096E+07 0.000903387
1.18170E+07 0.000905304
1.18243E+07 0.000907223
1.18316E+07 0.000909148
1.18389E+07 0.000911074
1.18463E+07 0.000913002
1.18536E+07 0.000914933
1.18609E+07 0.000916867
1.18682E+07 0.000918804
1.18755E+07 0.000920744
1.18829E+07 0.000922687
1.18902E+07 0.000924635
1.18975E+07 0.000926583
1.19048E+07 0.000928535
1.19121E+07 0.000930489
1.19195E+07 0.000932449
1.19268E+07 0.000934409
1.19341E+07 0.000936372
1.19414E+07 0.000938338
1.19488E+07 0.000940310
1.19561E+07 0.000942282
1.19634E+07 0.000944256
1.19707E+07 0.000946234
1.19780E+07 0.000948215
1.19854E+07 0.000950198
1.19927E+07 0.000952185
1.20000E+07 0.000954174
1.20076E+07 0.000954922
1.20153E+07 0.000955669
1.20229E+07 0.000956416
1.20305E+07 0.000957164
1.20381E+07 0.000957912
1.20458E+07 0.000958659
1.20534E+07 0.000959407
1.20610E+07 0.000960155
1.20686E+07 0.000960903
1.20763E+07 0.000961651
1.20839E+07 0.000962400
1.20915E+07 0.000963148
1.20991E+07 0.000963897
1.21068E+07 0.000964645
1.21144E+07 0.000965394
1.21220E+07 0.000966143
1.21296E+07 0.000966892
1.21373E+07 0.000967641
1.21449E+07 0.000968390
1.21525E+07 0.000969139
1.21601E+07 0.000969889
1.21678E+07 0.000970638
1.21754E+07 0.000971388
1.21830E+07 0.000972137
1.21906E+07 0.000972888
1.21983E+07 0.000973637
1.22059E+07 0.000974388
1.22135E+07 0.000975137
1.22211E+07 0.000975888
1.22288E+07 0.000976638
1.22364E+07 0.000977389
1.22440E+07 0.000978139
1.22516E+07 0.000978890
1.22593E+07 0.000979641
1.22669E+07 0.000980392
1.22745E+07 0.000981143
1.22821E+07 0.000981894
1.22898E+07 0.000982645
1.22974E+07 0.000983397
1.23050E+07 0.000984148
1.23126E+07 0.000984900
1.23203E+07 0.000985651
1.23279E+07 0.000986403
1.23355E+07 0.000987155
1.23431E+07 0.000987907
1.23508E+07 0.000988659
1.23584E+07 0.000989412
1.23660E+07 0.000990163
1.23736E+07 0.000990916
1.23813E+07 0.000991668
1.23889E+07 0.000992422
1.23965E+07 0.000993174
1.24041E+07 0.000993927
1.24118E+07 0.000994680
1.24194E+07 0.000995433
1.24270E+07 0.000996186
1.24346E+07 0.000996940
1.24423E+07 0.000997693
1.24499E+07 0.000998447
1.24575E+07 0.000999200
1.24651E+07 0.000999954
1.24728E+07 0.00100071
1.24804E+07 0.00100146
1.24880E+07 0.00100222
1.25040E+07 0.00100380
1.25200E+07 0.00100538
1.25360E+07 0.00100696
1.25520E+07 0.00100855
1.25680E+07 0.00101013
1.25840E+07 0.00101172
1.26000E+07 0.00101330
1.26160E+07 0.00101489
1.26320E+07 0.00101648
1.26480E+07 0.00101806
1.26640E+07 0.00101965
1.26800E+07 0.00102124
1.26960E+07 0.00102283
1.27120E+07 0.00102441
1.27280E+07 0.00102600
1.27440E+07 0.00102759
1.27600E+07 0.00102918
1.27760E+07 0.00103077
1.27920E+07 0.00103237
1.28080E+07 0.00103396
1.28240E+07 0.00103555
1.28400E+07 0.00103714
1.28560E+07 0.00103873
1.28720E+07 0.00104033
1.28880E+07 0.00104192
1.29040E+07 0.00104352
1.29200E+07 0.00104511
1.29360E+07 0.00104671
1.29520E+07 0.00104830
1.29680E+07 0.00104990
1.29840E+07 0.00105149
1.30000E+07 0.00105309
1.30078E+07 0.00105278
1.30156E+07 0.00105246
1.30234E+07 0.00105215
1.30313E+07 0.00105183
1.30391E+07 0.00105152
1.30469E+07 0.00105121
1.30547E+07 0.00105090
1.30625E+07 0.00105058
1.30703E+07 0.00105027
1.30781E+07 0.00104996
1.30859E+07 0.00104965
1.30938E+07 0.00104934
1.31016E+07 0.00104902
1.31094E+07 0.00104871
1.31172E+07 0.00104840
1.31250E+07 0.00104809
1.31328E+07 0.00104778
1.31406E+07 0.00104747
1.31484E+07 0.00104716
1.31563E+07 0.00104685
1.31641E+07 0.00104655
1.31719E+07 0.00104624
1.31797E+07 0.00104593
1.31875E+07 0.00104562
1.31953E+07 0.00104531
1.32031E+07 0.00104500
1.32109E+07 0.00104470
1.32188E+07 0.00104439
1.32266E+07 0.00104408
1.32344E+07 0.00104378
1.32422E+07 0.00104347
1.32500E+07 0.00104317
1.32578E+07 0.00104286
1.32656E+07 0.00104255
1.32734E+07 0.00104225
1.32813E+07 0.00104194
1.32891E+07 0.00104164
1.32969E+07 0.00104134
1.33047E+07 0.00104103
1.33125E+07 0.00104073
1.33203E+07 0.00104042
1.33281E+07 0.00104012
1.33359E+07 0.00103982
1.33438E+07 0.00103952
1.33516E+07 0.00103921
1.33594E+07 0.00103891
1.33672E+07 0.00103861
1.33750E+07 0.00103831
1.33828E+07 0.00103801
1.33906E+07 0.00103771
1.33984E+07 0.00103740
1.34063E+07 0.00103710
1.34141E+07 0.00103680
1.34219E+07 0.00103650
1.34297E+07 0.00103620
1.34375E+07 0.00103590
1.34453E+07 0.00103560
1.34531E+07 0.00103531
1.34609E+07 0.00103501
1.34688E+07 0.00103471
1.34766E+07 0.00103441
1.34844E+07 0.00103411
1.34922E+07 0.00103381
1.35000E+07 0.00103352
1.35078E+07 0.00103322
1.35156E+07 0.00103292
1.35234E+07 0.00103263
1.35313E+07 0.00103233
1.35391E+07 0.00103203
1.35469E+07 0.00103174
1.35547E+07 0.00103144
1.35625E+07 0.00103115
1.35703E+07 0.00103085
1.35781E+07 0.00103056
1.35859E+07 0.00103026
1.35938E+07 0.00102997
1.36016E+07 0.00102967
1.36094E+07 0.00102938
1.36172E+07 0.00102909
1.36250E+07 0.00102879
1.36328E+07 0.00102850
1.36406E+07 0.00102821
1.36484E+07 0.00102791
1.36563E+07 0.00102762
1.36641E+07 0.00102733
1.36719E+07 0.00102704
1.36797E+07 0.00102675
1.36875E+07 0.00102645
1.36953E+07 0.00102616
1.37031E+07 0.00102587
1.37109E+07 0.00102558
1.37188E+07 0.00102529
1.37266E+07 0.00102500
1.37344E+07 0.00102471
1.37422E+07 0.00102442
1.37500E+07 0.00102413
1.37578E+07 0.00102384
1.37656E+07 0.00102355
1.37734E+07 0.00102327
1.37813E+07 0.00102298
1.37891E+07 0.00102269
1.37969E+07 0.00102240
1.38047E+07 0.00102211
1.38125E+07 0.00102183
1.38203E+07 0.00102154
1.38281E+07 0.00102125
1.38359E+07 0.00102097
1.38438E+07 0.00102068
1.38516E+07 0.00102039
1.38594E+07 0.00102011
1.38672E+07 0.00101982
1.38750E+07 0.00101954
1.38828E+07 0.00101925
1.38906E+07 0.00101897
1.38984E+07 0.00101868
1.39063E+07 0.00101840
1.39141E+07 0.00101811
1.39219E+07 0.00101783
1.39297E+07 0.00101754
1.39375E+07 0.00101726
1.39453E+07 0.00101698
1.39531E+07 0.00101669
1.39609E+07 0.00101641
1.39688E+07 0.00101613
1.39766E+07 0.00101585
1.39844E+07 0.00101556
1.39922E+07 0.00101528
1.40000E+07 0.00101500
1.40078E+07 0.00101442
1.40156E+07 0.00101383
1.40234E+07 0.00101325
1.40313E+07 0.00101267
1.40391E+07 0.00101209
1.40469E+07 0.00101151
1.40547E+07 0.00101093
1.40625E+07 0.00101035
1.40703E+07 0.00100978
1.40781E+07 0.00100920
1.40859E+07 0.00100862
1.40938E+07 0.00100805
1.41016E+07 0.00100747
1.41094E+07 0.00100690
1.41172E+07 0.00100632
1.41250E+07 0.00100575
1.41328E+07 0.00100518
1.41406E+07 0.00100461
1.41484E+07 0.00100403
1.41563E+07 0.00100346
1.41641E+07 0.00100289
1.41719E+07 0.00100232
1.41797E+07 0.00100175
1.41875E+07 0.00100119
1.41953E+07 0.00100062
1.42031E+07 0.00100005
1.42109E+07 0.000999486
1.42188E+07 0.000998920
1.42266E+07 0.000998355
1.42344E+07 0.000997791
1.42422E+07 0.000997227
1.42500E+07 0.000996664
1.42578E+07 0.000996101
1.42656E+07 0.000995539
1.42734E+07 0.000994978
1.42813E+07 0.000994418
1.42891E+07 0.000993857
1.42969E+07 0.000993298
1.43047E+07 0.000992740
1.43125E+07 0.000992182
1.43203E+07 0.000991624
1.43281E+07 0.000991067
1.43359E+07 0.000990511
1.43438E+07 0.000989955
1.43516E+07 0.000989400
1.43594E+07 0.000988845
1.43672E+07 0.000988292
1.43750E+07 0.000987739
1.43828E+07 0.000987186
1.43906E+07 0.000986634
1.43984E+07 0.000986083
1.44063E+07 0.000985532
1.44141E+07 0.000984981
1.44219E+07 0.000984432
1.44297E+07 0.000983883
1.44375E+07 0.000983335
1.44453E+07 0.000982787
1.44531E+07 0.000982240
1.44609E+07 0.000981693
1.44688E+07 0.000981148
1.44766E+07 0.000980602
1.44844E+07 0.000980057
1.44922E+07 0.000979513
1.45000E+07 0.000978970
1.45156E+07 0.000977884
1.45313E+07 0.000976801
1.45469E+07 0.000975720
1.45625E+07 0.000974642
1.45781E+07 0.000973566
1.45938E+07 0.000972493
1.46094E+07 0.000971421
1.46250E+07 0.000970353
1.46406E+07 0.000969286
1.46563E+07 0.000968222
1.46719E+07 0.000967159
1.46875E+07 0.000966100
1.47031E+07 0.000965042
1.47188E+07 0.000963987
1.47344E+07 0.000962934
1.47500E+07 0.000961884
1.47656E+07 0.000960835
1.47813E+07 0.000959789
1.47969E+07 0.000958745
1.48125E+07 0.000957704
1.48281E+07 0.000956664
1.48438E+07 0.000955627
1.48594E+07 0.000954592
1.48750E+07 0.000953560
1.48906E+07 0.000952529
1.49063E+07 0.000951501
1.49219E+07 0.000950474
1.49375E+07 0.000949450
1.49531E+07 0.000948428
1.49688E+07 0.000947409
1.49844E+07 0.000946391
1.50000E+07 0.000945376
1.50156E+07 0.000944447
1.50313E+07 0.000943520
1.50469E+07 0.000942594
1.50625E+07 0.000941671
1.50781E+07 0.000940749
1.50938E+07 0.000939829
1.51094E+07 0.000938911
1.51250E+07 0.000937995
1.51406E+07 0.000937081
1.51563E+07 0.000936169
1.51719E+07 0.000935258
1.51875E+07 0.000934349
1.52031E+07 0.000933442
1.52188E+07 0.000932537
1.52344E+07 0.000931634
1.52500E+07 0.000930733
1.52656E+07 0.000929832
1.52813E+07 0.000928935
1.52969E+07 0.000928038
1.53125E+07 0.000927144
1.53281E+07 0.000926251
1.53438E+07 0.000925361
1.53594E+07 0.000924471
1.53750E+07 0.000923584
1.53906E+07 0.000922699
1.54063E+07 0.000921815
1.54219E+07 0.000920933
1.54375E+07 0.000920053
1.54531E+07 0.000919174
1.54688E+07 0.000918297
1.54844E+07 0.000917422
1.55000E+07 0.000916548
1.55156E+07 0.000915676
1.55313E+07 0.000914807
1.55469E+07 0.000913938
1.55625E+07 0.000913072
1.55781E+07 0.000912206
1.55938E+07 0.000911343
1.56094E+07 0.000910482
1.56250E+07 0.000909622
1.56406E+07 0.000908763
1.56563E+07 0.000907907
1.56719E+07 0.000907052
1.56875E+07 0.000906199
1.57031E+07 0.000905347
1.57188E+07 0.000904497
1.57344E+07 0.000903649
1.57500E+07 0.000902802
1.57656E+07 0.000901957
1.57813E+07 0.000901114
1.57969E+07 0.000900272
1.58125E+07 0.000899432
1.58281E+07 0.000898593
1.58438E+07 0.000897756
1.58594E+07 0.000896921
1.58750E+07 0.000896087
1.58906E+07 0.000895255
1.59063E+07 0.000894424
1.59219E+07 0.000893595
1.59375E+07 0.000892768
1.59531E+07 0.000891942
1.59688E+07 0.000891118
1.59844E+07 0.000890295
1.60000E+07 0.000889474
1.60313E+07 0.000888334
1.60625E+07 0.000887198
1.60938E+07 0.000886066
1.61250E+07 0.000884937
1.61563E+07 0.000883812
1.61875E+07 0.000882690
1.62188E+07 0.000881572
1.62500E+07 0.000880457
1.62813E+07 0.000879347
1.63125E+07 0.000878239
1.63438E+07 0.000877135
1.63750E+07 0.000876035
1.64063E+07 0.000874938
1.64375E+07 0.000873845
1.64688E+07 0.000872754
1.65000E+07 0.000871668
1.65313E+07 0.000870585
1.65625E+07 0.000869505
1.65938E+07 0.000868428
1.66250E+07 0.000867355
1.66563E+07 0.000866286
1.66875E+07 0.000865219
1.67188E+07 0.000864156
1.67500E+07 0.000863096
1.67813E+07 0.000862040
1.68125E+07 0.000860986
1.68438E+07 0.000859936
1.68750E+07 0.000858889
1.69063E+07 0.000857846
1.69375E+07 0.000856805
1.69688E+07 0.000855768
1.70000E+07 0.000854734
1.70625E+07 0.000853650
1.71250E+07 0.000852571
1.71875E+07 0.000851498
1.72500E+07 0.000850430
1.73125E+07 0.000849367
1.73750E+07 0.000848309
1.74375E+07 0.000847256
1.75000E+07 0.000846209
1.75625E+07 0.000845166
1.76250E+07 0.000844128
1.76875E+07 0.000843096
1.77500E+07 0.000842068
1.78125E+07 0.000841045
1.78750E+07 0.000840027
1.79375E+07 0.000839014
1.80000E+07 0.000838005
1.80310E+07 0.000837930
1.80938E+07 0.000837778
1.81565E+07 0.000837627
1.81566E+07 0.000837627
1.82620E+07 0.000837374
1.83674E+07 0.000837123
1.84729E+07 0.000836874
1.85783E+07 0.000836626
1.86837E+07 0.000836379
1.87891E+07 0.000836134
1.88946E+07 0.000835890
1.90000E+07 0.000835648
1.90968E+07 0.000836513
1.91935E+07 0.000837375
1.92943E+07 0.000838269
1.93951E+07 0.000839159
1.94959E+07 0.000840046
1.95968E+07 0.000840929
1.96976E+07 0.000841809
1.97984E+07 0.000842685
1.98992E+07 0.000843557
2.00000E+07 0.000844426
