Se-74(n,g) ENDFB-8.0
Energy(eV) XS(b)
1.00000E-05 2601.99
1.03125E-05 2562.27
1.06250E-05 2524.30
1.09375E-05 2487.98
1.12500E-05 2453.18
1.15625E-05 2419.81
1.18750E-05 2387.75
1.21875E-05 2356.94
1.25000E-05 2327.29
1.28125E-05 2298.74
1.31250E-05 2271.21
1.34375E-05 2244.64
1.37500E-05 2218.99
1.43750E-05 2170.21
1.50000E-05 2124.52
1.56250E-05 2081.60
1.62500E-05 2041.17
1.68750E-05 2003.02
1.75000E-05 1966.92
1.81250E-05 1932.71
1.87500E-05 1900.23
1.93750E-05 1869.33
2.00000E-05 1839.89
2.09375E-05 1798.23
2.18750E-05 1759.27
2.28125E-05 1722.74
2.37500E-05 1688.40
2.46875E-05 1656.03
2.56250E-05 1625.45
2.65625E-05 1596.51
2.75000E-05 1569.06
2.84375E-05 1542.98
2.93750E-05 1518.16
3.03125E-05 1494.50
3.12500E-05 1471.91
3.21875E-05 1450.32
3.31250E-05 1429.65
3.40625E-05 1409.84
3.50000E-05 1390.83
3.59375E-05 1372.57
3.68750E-05 1355.01
3.78125E-05 1338.10
3.87500E-05 1321.82
3.96875E-05 1306.11
4.06250E-05 1290.95
4.25000E-05 1262.15
4.43750E-05 1235.20
4.62500E-05 1209.91
4.81250E-05 1186.10
5.00000E-05 1163.65
5.15625E-05 1145.88
5.31250E-05 1128.91
5.46875E-05 1112.66
5.62500E-05 1097.10
5.78125E-05 1082.17
5.93750E-05 1067.84
6.09375E-05 1054.06
6.25000E-05 1040.80
6.40625E-05 1028.03
6.56250E-05 1015.72
6.71875E-05 1003.84
6.87500E-05 992.365
7.18750E-05 970.552
7.50000E-05 950.117
7.81250E-05 930.921
8.12500E-05 912.843
8.43750E-05 895.780
8.75000E-05 879.638
9.06250E-05 864.339
9.37500E-05 849.812
9.68750E-05 835.993
0.000100000 822.827
0.000103125 810.264
0.000106250 798.260
0.000109375 786.773
0.000112500 775.769
0.000115625 765.214
0.000118750 755.078
0.000121875 745.335
0.000125000 735.960
0.000128125 726.929
0.000131250 718.223
0.000134375 709.823
0.000137500 701.711
0.000143750 686.287
0.000150000 671.837
0.000156250 658.264
0.000162500 645.481
0.000168750 633.415
0.000175000 622.001
0.000181250 611.183
0.000187500 600.911
0.000193750 591.139
0.000200000 581.830
0.000209375 568.655
0.000218750 556.336
0.000228125 544.785
0.000237500 533.925
0.000246875 523.689
0.000256250 514.020
0.000265625 504.868
0.000275000 496.188
0.000284375 487.941
0.000293750 480.092
0.000303125 472.610
0.000312500 465.467
0.000321875 458.638
0.000331250 452.102
0.000340625 445.837
0.000350000 439.826
0.000359375 434.051
0.000368750 428.498
0.000378125 423.153
0.000387500 418.003
0.000396875 413.037
0.000406250 408.244
0.000425000 399.137
0.000443750 390.614
0.000462500 382.615
0.000481250 375.088
0.000500000 367.988
0.000515625 362.370
0.000531250 357.001
0.000546875 351.865
0.000562500 346.944
0.000578125 342.223
0.000593750 337.691
0.000609375 333.334
0.000625000 329.141
0.000640625 325.103
0.000656250 321.209
0.000671875 317.453
0.000687500 313.825
0.000718750 306.927
0.000750000 300.465
0.000781250 294.395
0.000812500 288.679
0.000843750 283.283
0.000875000 278.179
0.000906250 273.341
0.000937500 268.747
0.000968750 264.378
0.00100000 260.215
0.00103125 256.242
0.00106250 252.446
0.00109375 248.814
0.00112500 245.334
0.00115625 241.997
0.00118750 238.792
0.00121875 235.711
0.00125000 232.746
0.00128125 229.891
0.00131250 227.138
0.00134375 224.482
0.00137500 221.917
0.00143750 217.039
0.00150000 212.470
0.00156250 208.178
0.00162500 204.136
0.00168750 200.321
0.00175000 196.712
0.00181250 193.291
0.00187500 190.043
0.00193750 186.954
0.00200000 184.010
0.00209375 179.844
0.00218750 175.949
0.00228125 172.296
0.00237500 168.862
0.00246875 165.626
0.00256250 162.569
0.00265625 159.675
0.00275000 156.930
0.00284375 154.323
0.00293750 151.841
0.00303125 149.475
0.00312500 147.217
0.00321875 145.058
0.00331250 142.991
0.00340625 141.010
0.00350000 139.109
0.00359375 137.284
0.00368750 135.528
0.00378125 133.838
0.00387500 132.210
0.00396875 130.640
0.00406250 129.124
0.00425000 126.245
0.00443750 123.550
0.00462500 121.021
0.00481250 118.642
0.00500000 116.397
0.00515625 114.621
0.00531250 112.924
0.00546875 111.300
0.00562500 109.744
0.00578125 108.252
0.00593750 106.819
0.00609375 105.441
0.00625000 104.116
0.00640625 102.839
0.00656250 101.609
0.00671875 100.421
0.00687500 99.2741
0.00718750 97.0937
0.00750000 95.0510
0.00781250 93.1322
0.00812500 91.3252
0.00843750 89.6195
0.00875000 88.0061
0.00906250 86.4769
0.00937500 85.0249
0.00968750 83.6437
0.0100000 82.3278
0.0103125 81.0722
0.0106250 79.8724
0.0109375 78.7245
0.0112500 77.6248
0.0115625 76.5700
0.0118750 75.5571
0.0121875 74.5835
0.0125000 73.6467
0.0128125 72.7443
0.0131250 71.8744
0.0134375 71.0351
0.0137500 70.2245
0.0143750 68.6834
0.0150000 67.2397
0.0156250 65.8835
0.0162500 64.6063
0.0168750 63.4008
0.0175000 62.2604
0.0181250 61.1796
0.0187500 60.1533
0.0193750 59.1771
0.0200000 58.2470
0.0206625 57.3076
0.0213250 56.4124
0.0219875 55.5580
0.0226500 54.7414
0.0233125 53.9599
0.0239750 53.2110
0.0246375 52.4927
0.0253000 51.8027
0.0264578 50.6599
0.0276156 49.5899
0.0287734 48.5852
0.0299313 47.6395
0.0310891 46.7473
0.0322469 45.9036
0.0334047 45.1042
0.0345625 44.3454
0.0355274 43.7415
0.0364922 43.1618
0.0374570 42.6046
0.0384219 42.0685
0.0393867 41.5523
0.0403516 41.0547
0.0413164 40.5746
0.0422813 40.1110
0.0442109 39.2299
0.0461406 38.4048
0.0480703 37.6299
0.0500000 36.9005
0.0515625 36.3401
0.0531250 35.8048
0.0546875 35.2926
0.0562500 34.8020
0.0578125 34.3314
0.0593750 33.8797
0.0609375 33.4455
0.0625000 33.0278
0.0640625 32.6255
0.0656250 32.2377
0.0671875 31.8636
0.0687500 31.5024
0.0718750 30.8157
0.0750000 30.1723
0.0781250 29.5679
0.0812500 28.9987
0.0843750 28.4615
0.0875000 27.9534
0.0906250 27.4719
0.0937500 27.0148
0.0968750 26.5801
0.100000 26.1659
0.103125 25.7709
0.106250 25.3934
0.109375 25.0324
0.112500 24.6865
0.115625 24.3549
0.118750 24.0365
0.121875 23.7305
0.125000 23.4362
0.128125 23.1528
0.131250 22.8797
0.134375 22.6162
0.137500 22.3619
0.143750 21.8784
0.150000 21.4254
0.156250 20.9999
0.162500 20.5993
0.168750 20.2212
0.175000 19.8638
0.181250 19.5251
0.187500 19.2038
0.193750 18.8983
0.200000 18.6074
0.209375 18.1959
0.218750 17.8112
0.228125 17.4506
0.237500 17.1116
0.246875 16.7924
0.256250 16.4910
0.265625 16.2059
0.275000 15.9357
0.284375 15.6791
0.293750 15.4350
0.303125 15.2025
0.312500 14.9806
0.321875 14.7687
0.331250 14.5659
0.340625 14.3717
0.350000 14.1855
0.359375 14.0067
0.368750 13.8349
0.378125 13.6696
0.387500 13.5106
0.396875 13.3574
0.406250 13.2097
0.425000 12.9292
0.443750 12.6667
0.462500 12.4206
0.500000 11.9722
0.531250 11.6362
0.562500 11.3285
0.625000 10.7857
0.687500 10.3208
0.750000 9.91726
0.812500 9.56290
0.875000 9.24969
0.937500 8.96966
1.00000 8.71668
1.06250 8.48757
1.12500 8.27896
1.25000 7.91274
1.37500 7.60128
1.50000 7.33289
1.62500 7.09907
1.75000 6.89410
1.87500 6.71251
2.00000 6.54984
2.18750 6.33680
2.37500 6.15439
2.56250 5.99674
2.75000 5.86000
2.93750 5.74046
3.12500 5.63524
3.50000 5.46124
3.87500 5.32631
4.25000 5.22229
4.62500 5.14347
5.00000 5.08594
5.46875 5.03964
5.93750 5.01630
6.25000 5.01300
6.87500 5.03226
7.50000 5.08337
8.12500 5.16451
8.75000 5.27551
9.37500 5.41649
10.0000 5.58844
10.6250 5.79399
11.2500 6.03636
11.8750 6.31981
12.5000 6.64899
12.8125 6.83273
13.1250 7.03161
13.4375 7.24604
13.7500 7.47737
14.0625 7.72706
14.3750 7.99679
14.6875 8.28847
15.0000 8.60425
15.3125 8.94656
15.6250 9.31819
15.9375 9.72232
16.2500 10.1626
16.5625 10.6432
16.8750 11.1691
17.1875 11.7439
17.3438 12.0517
17.5000 12.3760
17.6367 12.6731
17.7734 12.9833
17.9102 13.3071
18.0469 13.6454
18.1152 13.8204
18.1836 13.9996
18.2520 14.1829
18.3203 14.3706
18.3887 14.5626
18.4570 14.7591
18.5254 14.9604
18.5938 15.1663
18.6450 15.3241
18.6963 15.4848
18.7476 15.6484
18.7988 15.8150
18.8501 15.9847
18.8757 16.0708
18.9014 16.1576
18.9270 16.2453
18.9526 16.3338
18.9783 16.4231
19.0039 16.5132
19.0308 16.6086
19.0576 16.7049
19.0845 16.8022
19.1113 16.9004
19.1382 16.9997
19.1650 17.0999
19.1919 17.2011
19.2188 17.3034
19.2456 17.4067
19.2725 17.5111
19.2993 17.6165
19.3262 17.7230
19.3530 17.8307
19.3799 17.9394
19.4068 18.0492
19.4336 18.1602
19.4531 18.2416
19.4727 18.3237
19.4922 18.4064
19.5117 18.4897
19.5386 18.6054
19.5654 18.7222
19.5923 18.8403
19.6192 18.9597
19.6460 19.0803
19.6729 19.2022
19.6997 19.3254
19.7266 19.4500
19.7534 19.5759
19.7803 19.7032
19.8071 19.8319
19.8340 19.9620
19.8609 20.0935
19.8877 20.2265
19.9146 20.3610
19.9414 20.4969
19.9561 20.5717
19.9707 20.6470
19.9854 20.7227
20.0000 20.7988
20.0186 20.8960
20.0371 20.9940
20.0557 21.0927
20.0742 21.1921
20.0928 21.2924
20.1114 21.3934
20.1299 21.4953
20.1485 21.5979
20.1670 21.7014
20.1856 21.8057
20.2227 22.0167
20.2598 22.2312
20.2969 22.4492
20.3340 22.6707
20.3712 22.8958
20.4083 23.1247
20.4454 23.3573
20.4825 23.5939
20.5196 23.8344
20.5567 24.0790
20.5938 24.3277
20.6276 24.5575
20.6613 24.7909
20.6951 25.0279
20.7288 25.2686
20.7625 25.5132
20.7963 25.7616
20.8300 26.0140
20.8638 26.2704
20.8975 26.5310
20.9312 26.7958
20.9650 27.0649
20.9987 27.3384
21.0325 27.6165
21.0662 27.8991
21.1337 28.4788
21.1708 28.8060
21.2079 29.1392
21.2450 29.4788
21.2821 29.8247
21.3193 30.1774
21.3564 30.5367
21.3935 30.9030
21.4306 31.2764
21.5048 32.0454
21.5791 32.8453
21.6533 33.6776
21.7275 34.5442
21.8017 35.4471
21.8760 36.3884
21.9502 37.3701
22.0244 38.3947
22.0987 39.4647
22.1729 40.5829
22.2471 41.7522
22.3213 42.9758
22.3956 44.2571
22.4698 45.5998
22.5440 47.0080
22.6183 48.4857
22.6925 50.0382
22.7667 51.6703
22.8409 53.3876
22.9152 55.1960
22.9894 57.1024
23.0636 59.1140
23.1379 61.2387
23.2121 63.4851
23.2863 65.8627
23.3605 68.3821
23.4348 71.0548
23.5090 73.8932
23.5832 76.9122
23.6575 80.1270
23.7317 83.5552
23.8059 87.2160
23.8801 91.1312
23.9544 95.3250
24.0286 99.8247
24.1028 104.660
24.1771 109.867
24.2513 115.485
24.3255 121.557
24.3626 124.779
24.3997 128.134
24.4369 131.631
24.4740 135.275
24.5111 139.078
24.5482 143.046
24.5853 147.192
24.6224 151.524
24.6595 156.054
24.6967 160.796
24.7338 165.763
24.7709 170.968
24.8080 176.428
24.8451 182.159
24.8822 188.182
24.9193 194.512
24.9565 201.174
24.9936 208.191
25.0307 215.591
25.0678 223.398
25.1049 231.646
25.1420 240.365
25.1791 249.596
25.2163 259.375
25.2534 269.749
25.2905 280.767
25.3310 293.591
25.3715 307.329
25.4119 322.072
25.4524 337.922
25.4929 354.995
25.5334 373.418
25.5739 393.339
25.6144 414.920
25.6515 436.335
25.6886 459.471
25.7257 484.533
25.7628 511.726
25.8000 541.318
25.8371 573.580
25.8742 608.868
25.9113 647.552
25.9484 690.109
25.9670 712.999
25.9855 737.049
26.0041 762.366
26.0227 789.028
26.0412 817.131
26.0598 846.765
26.0783 878.079
26.0969 911.184
26.1154 946.219
26.1340 983.319
26.1526 1022.69
26.1711 1064.48
26.1897 1108.94
26.2082 1156.24
26.2226 1194.94
26.2369 1235.63
26.2512 1278.46
26.2656 1323.57
26.2799 1371.14
26.2943 1421.34
26.3086 1474.37
26.3229 1530.45
26.3373 1589.81
26.3516 1652.71
26.3660 1719.44
26.3803 1790.29
26.3946 1865.62
26.4090 1945.80
26.4233 2031.23
26.4377 2122.37
26.4562 2249.61
26.4748 2388.42
26.4933 2540.15
26.5119 2706.18
26.5304 2888.38
26.5490 3088.37
26.5676 3308.42
26.5861 3550.50
26.6047 3817.26
26.6139 3960.63
26.6232 4111.11
26.6325 4269.02
26.6418 4434.70
26.6511 4608.49
26.6603 4790.72
26.6696 4981.74
26.6789 5181.85
26.6882 5391.37
26.6975 5610.59
26.7160 6079.20
26.7346 6589.22
26.7531 7142.38
26.7717 7738.45
26.7902 8377.42
26.8088 9056.67
26.8274 9773.55
26.8459 10522.3
26.8830 12088.1
26.9224 13776.2
26.9421 14593.8
26.9618 15371.2
26.9815 16090.9
27.0012 16734.4
27.0209 17285.2
27.0406 17728.2
27.0555 17983.2
27.0703 18165.4
27.0852 18272.0
27.1000 18301.1
27.1193 18222.5
27.1386 18014.6
27.1579 17683.4
27.1772 17238.3
27.1965 16691.1
27.2158 16056.3
27.2351 15349.7
27.2544 14588.6
27.2855 13288.2
27.3166 11954.4
27.3476 10642.8
27.3632 10010.1
27.3787 9398.31
27.3940 8821.67
27.4092 8270.89
27.4245 7747.63
27.4397 7253.25
27.4550 6787.54
27.4702 6350.81
27.4855 5942.63
27.5007 5562.45
27.5160 5208.76
27.5312 4880.59
27.5465 4576.58
27.5617 4295.47
27.5769 4035.43
27.5922 3795.17
27.6074 3573.23
27.6227 3368.35
27.6379 3178.91
27.6532 3003.79
27.6684 2841.79
27.6837 2691.90
27.6989 2552.91
27.7142 2423.97
27.7294 2304.22
27.7447 2192.95
27.7599 2089.28
27.7752 1992.65
27.7904 1902.46
27.8057 1818.22
27.8209 1739.35
27.8361 1665.50
27.8514 1596.17
27.8666 1531.10
27.8819 1469.87
27.8971 1412.22
27.9124 1357.89
27.9276 1306.67
27.9429 1258.25
27.9581 1212.46
27.9886 1128.11
28.0191 1052.23
28.0496 983.777
28.0801 921.773
28.1106 865.471
28.1314 829.971
28.1522 796.628
28.1730 765.255
28.1938 735.699
28.2146 707.823
28.2353 681.502
28.2561 656.621
28.2769 633.077
28.3185 589.619
28.3601 550.485
28.4017 515.110
28.4433 483.025
28.4738 461.349
28.5042 441.100
28.5347 422.142
28.5652 404.381
28.5957 387.706
28.6262 372.042
28.6567 357.299
28.6872 343.416
28.7177 330.318
28.7482 317.956
28.7787 306.268
28.8092 295.213
28.8702 274.812
28.9312 256.445
28.9922 239.848
29.0532 224.803
29.1141 211.121
29.1751 198.646
29.2361 187.236
29.2971 176.776
29.3581 167.165
29.4191 158.316
29.4745 150.864
29.5300 143.924
29.5854 137.446
29.6409 131.393
29.6963 125.724
29.7517 120.409
29.8072 115.420
29.8626 110.731
29.9181 106.318
29.9735 102.162
30.0290 98.2421
30.0844 94.5419
30.1399 91.0441
30.1953 87.7356
30.3062 81.6324
30.3672 78.5403
30.4282 75.6188
30.4892 72.8557
30.5501 70.2397
30.6721 65.4090
30.7941 61.0553
30.9161 57.1175
31.0381 53.5447
31.1600 50.2933
31.2820 47.3264
31.4262 44.1426
31.5703 41.2664
31.7145 38.6592
31.8586 36.2898
32.0028 34.1320
32.1469 32.1616
32.2911 30.3533
32.4352 28.6892
32.5572 27.3838
32.6792 26.1645
32.8012 25.0239
32.9232 23.9556
33.0451 22.9535
33.1671 22.0123
33.2891 21.1273
33.4111 20.2941
33.5330 19.5087
33.6550 18.7676
33.7770 18.0675
33.8990 17.4056
34.1429 16.1854
34.3869 15.0882
34.6308 14.0980
34.8748 13.2016
35.1188 12.3876
35.3627 11.6461
35.6067 10.9690
35.8506 10.3491
36.0946 9.78013
36.3385 9.25675
36.5270 8.88052
36.7156 8.52678
36.9041 8.19384
37.0926 7.88057
37.2811 7.58612
37.4696 7.30744
37.6581 7.04296
37.8466 6.79257
38.2236 6.33044
38.6007 5.91433
38.9777 5.53837
39.3547 5.19762
39.5987 4.99391
39.8426 4.80213
40.0866 4.62138
40.3305 4.45091
40.5745 4.28991
40.8184 4.13768
41.3063 3.85725
41.7943 3.60519
42.2822 3.37788
42.7701 3.17221
43.2580 2.98554
43.8346 2.78640
44.4112 2.60755
44.9878 2.44636
45.5645 2.30061
46.1411 2.16842
46.7177 2.04925
47.2943 1.93925
47.8709 1.83876
48.4032 1.75370
48.9355 1.67500
49.4677 1.60184
50.0000 1.53401
50.5371 1.47073
51.0742 1.41159
51.6113 1.35626
52.1484 1.30492
52.6856 1.25689
53.2227 1.21169
53.7598 1.16952
54.2969 1.13000
54.8340 1.09266
55.3711 1.05762
56.4453 0.993556
57.5195 0.936481
58.5938 0.885328
59.5703 0.843473
60.5469 0.805416
61.5234 0.770669
62.5000 0.738914
63.2813 0.715462
64.0625 0.693637
65.6250 0.654066
67.1875 0.619235
68.7500 0.588501
70.3125 0.561268
71.8750 0.537049
73.4375 0.515435
75.0000 0.496089
76.5625 0.478725
78.1250 0.463104
79.6875 0.449021
81.2500 0.436303
82.8125 0.424800
84.3750 0.414384
85.9375 0.404946
87.5000 0.396411
90.6250 0.381636
93.7500 0.369488
96.8750 0.359574
100.000 0.351567
102.344 0.346749
104.688 0.342713
107.031 0.339363
109.375 0.336703
114.063 0.333557
118.750 0.332573
121.875 0.333183
125.000 0.334712
128.125 0.337137
131.250 0.340447
134.375 0.344646
137.500 0.349746
140.625 0.355772
143.750 0.362759
146.875 0.370752
150.000 0.379813
153.125 0.390010
156.250 0.401432
159.375 0.414180
162.500 0.428376
165.625 0.444161
168.750 0.461701
171.875 0.481194
175.000 0.502867
178.125 0.526993
181.250 0.553892
184.375 0.583943
187.500 0.617599
190.625 0.655402
193.750 0.697937
195.313 0.721210
196.875 0.746054
198.438 0.772536
200.000 0.800765
200.945 0.818760
201.890 0.837527
202.836 0.857076
203.781 0.877390
204.253 0.887901
204.726 0.898639
205.198 0.909609
205.671 0.920815
206.144 0.932267
206.616 0.943970
207.089 0.955930
207.561 0.968147
207.933 0.977939
208.304 0.987908
208.675 0.998057
209.046 1.00839
209.418 1.01890
209.789 1.02961
209.975 1.03504
210.160 1.04051
210.346 1.04604
210.532 1.05161
210.700 1.05672
210.869 1.06188
211.038 1.06708
211.207 1.07232
211.376 1.07761
211.544 1.08294
211.713 1.08831
211.882 1.09373
212.051 1.09920
212.219 1.10471
212.388 1.11028
212.557 1.11588
212.726 1.12154
212.895 1.12724
213.063 1.13300
213.232 1.13880
213.384 1.14406
213.536 1.14937
213.688 1.15472
213.840 1.16011
213.992 1.16555
214.143 1.17102
214.295 1.17655
214.447 1.18211
214.633 1.18897
214.819 1.19590
215.004 1.20290
215.190 1.20996
215.376 1.21710
215.561 1.22431
215.747 1.23159
215.932 1.23893
216.118 1.24636
216.304 1.25386
216.489 1.26143
216.675 1.26908
216.861 1.27681
217.046 1.28462
217.232 1.29250
217.418 1.30047
217.603 1.30852
217.789 1.31665
217.975 1.32487
218.160 1.33317
218.346 1.34156
218.532 1.35003
218.717 1.35860
218.903 1.36725
219.072 1.37520
219.240 1.38323
219.409 1.39133
219.578 1.39951
219.747 1.40777
219.916 1.41611
220.084 1.42453
220.253 1.43303
220.422 1.44162
220.591 1.45029
220.759 1.45905
220.928 1.46789
221.266 1.48585
221.603 1.50417
221.789 1.51440
221.975 1.52475
222.346 1.54579
222.717 1.56731
223.089 1.58932
223.460 1.61184
223.831 1.63489
224.202 1.65847
224.574 1.68260
224.945 1.70731
225.316 1.73262
225.688 1.75853
226.059 1.78507
226.430 1.81227
226.802 1.84014
227.173 1.86872
227.544 1.89803
227.915 1.92809
228.287 1.95890
228.658 1.99050
229.029 2.02291
229.401 2.05618
229.772 2.09032
230.143 2.12538
230.515 2.16138
230.886 2.19837
231.257 2.23637
231.628 2.27542
232.000 2.31557
232.371 2.35685
232.742 2.39930
233.114 2.44298
233.485 2.48793
233.856 2.53421
234.228 2.58185
234.599 2.63092
234.970 2.68147
235.342 2.73356
235.713 2.78726
236.084 2.84264
236.455 2.89976
236.827 2.95871
237.198 3.01955
237.569 3.08237
237.941 3.14726
238.312 3.21431
238.683 3.28361
239.055 3.35528
239.426 3.42941
239.797 3.50613
240.168 3.58555
240.540 3.66780
240.911 3.75302
241.282 3.84135
241.654 3.93295
242.025 4.02799
242.396 4.12663
242.768 4.22905
243.139 4.33547
243.510 4.44608
243.881 4.56111
244.253 4.68080
244.624 4.80541
244.995 4.93520
245.367 5.07047
245.738 5.21158
246.109 5.35877
246.481 5.51246
246.852 5.67302
247.223 5.84087
247.595 6.01647
247.966 6.20029
248.337 6.39285
248.708 6.59473
249.080 6.80652
249.451 7.02890
249.822 7.26257
250.194 7.50832
250.565 7.76699
250.936 8.03950
251.308 8.32684
251.746 8.68701
252.185 9.07081
252.624 9.48061
253.063 9.91976
253.502 10.3912
253.941 10.8975
254.379 11.4421
254.818 12.0291
255.189 12.5621
255.561 13.1316
255.932 13.7411
256.303 14.3943
256.675 15.0956
257.046 15.8496
257.417 16.6618
257.789 17.5384
258.160 18.4861
258.531 19.5129
258.902 20.6278
259.274 21.8409
259.645 23.1641
260.016 24.6109
260.202 25.3857
260.388 26.1970
260.573 27.0481
260.759 27.9405
260.945 28.8781
261.130 29.8628
261.316 30.8989
261.502 31.9886
261.687 33.1371
261.873 34.3472
262.059 35.6247
262.244 36.9731
262.430 38.3992
262.615 39.9072
262.801 41.5052
262.987 43.1985
263.172 44.9963
263.358 46.9052
263.544 48.9360
263.729 51.0965
263.949 53.8353
264.168 56.7912
264.388 59.9894
264.607 63.4571
264.826 67.2247
265.046 71.3258
265.265 75.7980
265.485 80.6840
265.670 85.1789
265.856 90.0359
266.042 95.2974
266.227 101.000
266.413 107.195
266.599 113.928
266.784 121.261
266.970 129.256
267.155 137.989
267.341 147.534
267.527 157.975
267.712 169.399
267.898 181.913
268.084 195.607
268.269 210.600
268.455 226.975
268.553 236.195
268.651 245.828
268.748 255.904
268.846 266.409
269.042 288.765
269.237 312.867
269.432 338.641
269.628 365.860
269.823 394.163
270.019 423.007
270.204 450.210
270.389 476.494
270.574 501.004
270.759 522.754
270.945 540.804
271.037 548.155
271.130 554.255
271.222 559.033
271.315 562.416
271.408 564.359
271.500 564.831
271.648 562.523
271.769 557.919
271.889 550.989
272.009 541.878
272.130 530.803
272.250 517.977
272.370 503.678
272.491 488.150
272.611 471.685
272.852 436.915
273.092 401.222
273.333 366.081
273.574 332.547
273.735 311.319
273.896 291.233
274.058 272.351
274.219 254.701
274.380 238.248
274.541 222.975
274.703 208.810
274.864 195.711
275.016 184.273
275.168 173.662
275.319 163.815
275.471 154.676
275.623 146.191
275.775 138.312
275.927 130.991
276.078 124.182
276.230 117.841
276.382 111.937
276.534 106.430
276.686 101.290
276.838 96.4835
276.989 91.9912
277.141 87.7860
277.293 83.8458
277.445 80.1481
277.597 76.6792
277.749 73.4197
277.900 70.3539
278.052 67.4658
278.204 64.7460
278.356 62.1807
278.508 59.7589
278.660 57.4691
278.811 55.3049
278.963 53.2565
279.115 51.3160
279.419 47.7304
279.722 44.4972
280.026 41.5721
280.329 38.9197
280.633 36.5072
280.937 34.3072
281.268 32.1210
281.599 30.1337
281.930 28.3212
282.262 26.6650
282.593 25.1476
282.924 23.7556
283.255 22.4750
283.587 21.2934
283.890 20.2877
284.194 19.3500
284.498 18.4742
284.801 17.6560
285.105 16.8899
285.409 16.1722
285.712 15.4984
286.016 14.8655
286.320 14.2699
286.623 13.7091
286.927 13.1801
287.230 12.6810
287.534 12.2091
287.838 11.7630
288.445 10.9402
289.052 10.1998
289.660 9.53123
290.267 8.92563
290.874 8.37537
291.481 7.87395
292.089 7.41578
292.696 6.99607
293.303 6.61071
293.745 6.34984
294.187 6.10396
294.628 5.87195
295.070 5.65287
295.512 5.44593
295.953 5.25065
296.837 4.88956
297.720 4.56312
298.603 4.26798
299.486 4.00031
300.370 3.75684
300.977 3.60201
301.584 3.45646
302.192 3.31948
302.799 3.19042
303.406 3.06867
304.014 2.95369
304.621 2.84501
305.228 2.74218
306.443 2.55239
307.657 2.38150
308.872 2.22708
310.086 2.08711
311.301 1.95982
312.515 1.84375
313.730 1.73762
314.945 1.64034
316.159 1.55094
317.374 1.46862
318.588 1.39264
319.803 1.32263
321.017 1.25793
322.232 1.19744
323.447 1.14102
324.661 1.08872
325.876 1.03989
327.090 0.994077
328.305 0.951366
329.519 0.911389
330.734 0.873715
331.949 0.838392
333.163 0.805247
334.378 0.773913
335.592 0.744379
336.807 0.716595
338.021 0.690262
339.236 0.665331
341.665 0.619474
344.094 0.578153
346.523 0.540837
348.952 0.507079
351.382 0.476344
353.811 0.448369
356.240 0.422806
358.669 0.399357
360.436 0.383531
362.202 0.368637
363.969 0.354603
365.735 0.341365
367.502 0.328864
369.269 0.317081
372.802 0.295338
376.335 0.275759
379.869 0.258098
383.402 0.242115
386.935 0.227604
389.364 0.218450
391.793 0.209801
394.223 0.201609
396.652 0.193988
401.510 0.179942
403.939 0.173526
406.368 0.167476
408.797 0.161696
411.226 0.156243
416.085 0.146187
420.943 0.137113
425.801 0.128866
431.543 0.120136
437.284 0.112287
443.026 0.105230
448.768 0.0988773
454.509 0.0931026
457.380 0.0904253
460.251 0.0879363
465.992 0.0831336
471.734 0.0787504
478.800 0.0738871
485.867 0.0695072
492.934 0.0655494
500.000 0.0619625
505.371 0.0594853
510.742 0.0571502
516.113 0.0549459
521.484 0.0529273
532.227 0.0492294
537.598 0.0475629
542.969 0.0460030
548.340 0.0445187
553.711 0.0431295
564.453 0.0406012
569.824 0.0394355
575.195 0.0383533
585.938 0.0363384
595.703 0.0347109
605.469 0.0332393
615.234 0.0319053
625.000 0.0306991
632.324 0.0298768
639.649 0.0291171
654.297 0.0277691
668.945 0.0266289
683.594 0.0256907
698.242 0.0249183
705.567 0.0245865
712.891 0.0243140
720.215 0.0240591
727.539 0.0238743
734.863 0.0236950
742.188 0.0235779
750.000 0.0235012
757.813 0.0234751
768.555 0.0235308
779.297 0.0236888
790.039 0.0239648
800.781 0.0243807
811.524 0.0249375
822.266 0.0256792
827.637 0.0261174
833.008 0.0266272
838.379 0.0271896
843.750 0.0278100
851.563 0.0288647
859.375 0.0301071
867.188 0.0315686
871.094 0.0323943
875.000 0.0332948
880.371 0.0346688
885.742 0.0362108
891.113 0.0379525
896.484 0.0399326
901.856 0.0421724
907.227 0.0447398
909.912 0.0461541
912.598 0.0476841
915.283 0.0493179
917.969 0.0510665
921.631 0.0536839
925.293 0.0565903
928.955 0.0598285
932.617 0.0634476
934.448 0.0653885
936.279 0.0674731
939.942 0.0720416
941.773 0.0745461
943.604 0.0772142
945.435 0.0800604
947.266 0.0831008
949.951 0.0879500
952.637 0.0933196
955.322 0.0992882
958.008 0.105948
960.694 0.113407
962.036 0.117480
963.379 0.121802
964.722 0.126398
966.065 0.131293
967.407 0.136510
968.750 0.142078
970.581 0.150299
972.412 0.159330
974.243 0.169282
976.074 0.180259
977.905 0.192389
979.736 0.205955
980.652 0.213324
981.568 0.221123
982.483 0.229385
983.399 0.238148
984.741 0.251997
986.084 0.267163
987.427 0.283819
988.770 0.302166
990.112 0.322443
991.455 0.344930
992.798 0.369960
993.469 0.383551
994.141 0.397932
994.873 0.414600
995.606 0.432372
996.338 0.451352
997.070 0.471651
997.803 0.493395
998.535 0.516721
999.268 0.541783
1000.00 0.568753
1000.76 0.598860
1001.51 0.631452
1002.27 0.666884
1003.03 0.705353
1003.78 0.747344
1004.16 0.769768
1004.54 0.793249
1004.92 0.817853
1005.30 0.843645
1005.67 0.870703
1006.05 0.899109
1006.35 0.922516
1006.65 0.946784
1006.94 0.972041
1007.24 0.998341
1007.54 1.02574
1007.83 1.05430
1007.98 1.06909
1008.13 1.08409
1008.28 1.09952
1008.43 1.11517
1008.62 1.13578
1008.81 1.15685
1009.00 1.17852
1009.19 1.20081
1009.37 1.22375
1009.56 1.24737
1009.75 1.27168
1009.94 1.29672
1010.09 1.31700
1010.24 1.33775
1010.39 1.35901
1010.54 1.38064
1010.69 1.40295
1010.83 1.42565
1010.98 1.44908
1011.13 1.47293
1011.28 1.49754
1011.43 1.52262
1011.58 1.54851
1011.72 1.57489
1011.87 1.60215
1012.02 1.62994
1012.17 1.65866
1012.32 1.68795
1012.47 1.71824
1012.62 1.74915
1012.76 1.78112
1012.91 1.81377
1013.06 1.84756
1013.21 1.88207
1013.36 1.91781
1013.51 1.95434
1013.66 1.99219
1013.80 2.03116
1013.95 2.07129
1014.10 2.11236
1014.25 2.15495
1014.40 2.19856
1014.55 2.24383
1014.70 2.29020
1014.84 2.33837
1014.99 2.38808
1015.14 2.43941
1015.29 2.49206
1015.44 2.54683
1015.59 2.60304
1015.74 2.66156
1015.88 2.72167
1016.03 2.78428
1016.18 2.84866
1016.33 2.91577
1016.48 2.98482
1016.63 3.05687
1016.78 3.13107
1016.92 3.20855
1017.07 3.28840
1017.22 3.37187
1017.37 3.45857
1017.52 3.54867
1017.67 3.64172
1017.82 3.73916
1017.96 3.83988
1018.11 3.94546
1018.26 4.05473
1018.41 4.16940
1018.56 4.28820
1018.71 4.41302
1018.86 4.54251
1019.00 4.67874
1019.15 4.82023
1019.30 4.96930
1019.45 5.12435
1019.60 5.28793
1019.75 5.45833
1019.90 5.63839
1020.04 5.82626
1020.19 6.02509
1020.34 6.23288
1020.49 6.45319
1020.64 6.68385
1020.79 6.92884
1020.94 7.18761
1021.08 7.46122
1021.23 7.74881
1021.38 8.05554
1021.53 8.37867
1021.68 8.72409
1021.83 9.08885
1021.98 9.47975
1022.12 9.89648
1022.27 10.3414
1022.42 10.8138
1022.57 11.3228
1022.72 11.8650
1022.87 12.4512
1023.02 13.0775
1023.16 13.7571
1023.31 14.4859
1023.46 15.2796
1023.61 16.1343
1023.76 17.0690
1023.91 18.0797
1023.98 18.6263
1024.06 19.1901
1024.13 19.7797
1024.20 20.3966
1024.28 21.0513
1024.35 21.7284
1024.43 22.4479
1024.50 23.1929
1024.58 23.9856
1024.65 24.8074
1024.72 25.6712
1024.80 26.5796
1024.87 27.5487
1024.95 28.5560
1025.02 29.6174
1025.10 30.7364
1025.17 31.9332
1025.24 33.1800
1025.32 34.4968
1025.39 35.8880
1025.46 37.2973
1025.53 38.7841
1025.61 40.3532
1025.68 42.0096
1025.75 43.7583
1025.82 45.6047
1025.89 47.5543
1025.96 49.5829
1026.03 51.7541
1026.10 54.0455
1026.17 56.4626
1026.24 59.0112
1026.31 61.6965
1026.39 64.5237
1026.46 67.4975
1026.53 70.5771
1026.60 74.0432
1026.68 77.6350
1026.75 81.3997
1026.82 85.3379
1026.90 89.5055
1026.97 93.7888
1027.05 98.2376
1027.12 102.845
1027.20 107.864
1027.28 113.036
1027.43 123.770
1027.59 134.872
1027.74 146.113
1028.00 163.842
1028.12 172.140
1028.25 179.757
1028.37 186.630
1028.50 192.477
1028.62 197.234
1028.75 200.696
1028.88 202.818
1029.00 203.507
1029.08 203.164
1029.15 202.402
1029.22 201.233
1029.29 199.658
1029.36 197.692
1029.49 192.655
1029.63 186.284
1029.77 178.778
1029.90 170.360
1030.04 161.265
1030.17 151.723
1030.41 134.680
1030.65 117.955
1030.77 109.924
1030.88 102.295
1031.00 94.9903
1031.12 88.1639
1031.24 81.6668
1031.36 75.6735
1031.48 70.1240
1031.60 65.0064
1031.72 60.3025
1031.84 55.9901
1031.96 52.0441
1032.07 48.4382
1032.19 45.1191
1032.31 42.1155
1032.43 39.3733
1032.55 36.8683
1032.67 34.5783
1032.79 32.4825
1032.91 30.5620
1033.03 28.7998
1033.13 27.3903
1033.23 26.0786
1033.34 24.8564
1033.44 23.7162
1033.54 22.6512
1033.65 21.6551
1033.75 20.7223
1033.85 19.8478
1033.95 19.0269
1034.06 18.2554
1034.16 17.5295
1034.26 16.8458
1034.37 16.2010
1034.47 15.5923
1034.57 15.0172
1034.67 14.4783
1034.79 13.8804
1034.91 13.3233
1035.03 12.7990
1035.15 12.3050
1035.27 11.8389
1035.39 11.3989
1035.51 10.9829
1035.63 10.5892
1035.87 9.85990
1036.10 9.20604
1036.34 8.61515
1036.58 8.07942
1036.84 7.54942
1037.10 7.06998
1037.36 6.63490
1037.62 6.23889
1037.88 5.87740
1038.14 5.54654
1038.40 5.24292
1038.66 4.96463
1038.90 4.72704
1039.14 4.50700
1039.38 4.30112
1039.61 4.10980
1039.85 3.93022
1040.09 3.76284
1040.33 3.60593
1040.57 3.45864
1040.81 3.31964
1041.04 3.18940
1041.28 3.06669
1041.52 2.95095
1041.76 2.84120
1042.00 2.73790
1042.47 2.54755
1042.95 2.37608
1043.43 2.22171
1043.90 2.08168
1044.38 1.95477
1044.86 1.83892
1045.33 1.73333
1045.81 1.63661
1046.28 1.54782
1046.67 1.48039
1047.06 1.41733
1047.45 1.35827
1047.84 1.30285
1048.23 1.25078
1048.62 1.20176
1049.01 1.15555
1049.40 1.11206
1049.79 1.07088
1050.18 1.03195
1050.96 0.960240
1051.74 0.895807
1052.52 0.837768
1053.00 0.804995
1053.48 0.774126
1053.95 0.745016
1054.43 0.717590
1054.91 0.691614
1055.38 0.667090
1056.33 0.621796
1057.29 0.580976
1058.24 0.544136
1059.19 0.510740
1060.15 0.480373
1061.27 0.447887
1062.40 0.418670
1063.53 0.392275
1064.65 0.368352
1065.78 0.346613
1066.91 0.326856
1068.03 0.308746
1069.16 0.292109
1070.11 0.279071
1071.06 0.266928
1072.02 0.255586
1072.97 0.244978
1073.92 0.235041
1074.88 0.225721
1075.83 0.216967
1076.78 0.208734
1077.74 0.200974
1078.69 0.193668
1079.64 0.186772
1080.60 0.180258
1082.50 0.168264
1084.41 0.157495
1086.31 0.147786
1088.22 0.139011
1090.13 0.131050
1092.03 0.123808
1093.94 0.117200
1095.84 0.111154
1097.75 0.105611
1099.66 0.100515
1101.39 0.0962345
1103.12 0.0922849
1104.86 0.0885778
1106.59 0.0851222
1108.32 0.0818818
1110.05 0.0788608
1111.79 0.0760297
1113.52 0.0733704
1115.25 0.0708813
1116.99 0.0685348
1120.45 0.0642533
1123.92 0.0604427
1127.38 0.0570430
1131.20 0.0537147
1135.01 0.0507544
1138.82 0.0481142
1142.63 0.0457553
1146.44 0.0436376
1150.26 0.0417364
1154.07 0.0400254
1157.88 0.0384866
1161.69 0.0371123
1165.50 0.0358553
1169.32 0.0347075
1173.13 0.0336907
1176.94 0.0327714
1180.75 0.0319317
1184.57 0.0311889
1188.38 0.0305282
1192.19 0.0299291
1196.00 0.0294040
1203.63 0.0285502
1207.44 0.0282082
1211.25 0.0279323
1218.88 0.0275274
1224.42 0.0273715
1229.97 0.0273281
1236.55 0.0274278
1243.14 0.0276978
1246.43 0.0278913
1249.72 0.0281463
1253.01 0.0284382
1256.31 0.0287906
1262.89 0.0296603
1269.48 0.0307999
1272.77 0.0314880
1276.06 0.0322396
1279.35 0.0331013
1282.65 0.0340686
1286.46 0.0353382
1290.27 0.0367879
1294.08 0.0384474
1297.90 0.0403529
1301.71 0.0425438
1303.61 0.0437651
1305.52 0.0450772
1307.43 0.0464903
1309.33 0.0480182
1311.24 0.0496670
1313.14 0.0514494
1315.57 0.0539401
1318.00 0.0567099
1320.42 0.0597965
1322.85 0.0632222
1325.27 0.0671006
1327.70 0.0714797
1328.91 0.0738832
1330.13 0.0764461
1331.34 0.0791824
1332.55 0.0821081
1334.46 0.0871340
1336.37 0.0927492
1338.27 0.0990523
1339.22 0.102497
1340.18 0.106160
1341.13 0.110063
1342.08 0.114219
1343.04 0.118655
1343.99 0.123397
1344.94 0.128473
1345.90 0.133915
1346.85 0.139761
1347.80 0.146050
1348.93 0.154119
1350.06 0.162932
1351.18 0.172596
1352.31 0.183266
1353.43 0.195090
1354.56 0.208202
1355.69 0.222804
1356.25 0.230735
1356.81 0.239131
1357.77 0.254524
1358.72 0.271545
1359.67 0.290453
1360.63 0.311538
1361.10 0.323016
1361.58 0.335150
1362.06 0.348045
1362.53 0.361709
1363.01 0.376265
1363.48 0.391728
1363.96 0.408244
1364.44 0.425837
1365.09 0.451837
1365.74 0.480386
1366.39 0.511816
1367.04 0.546529
1367.69 0.585026
1368.34 0.627908
1368.66 0.651208
1368.99 0.675876
1369.31 0.702018
1369.64 0.729664
1370.11 0.773525
1370.59 0.821468
1371.07 0.874247
1371.54 0.932283
1372.02 0.996579
1372.50 1.06776
1372.97 1.14701
1373.21 1.19005
1373.45 1.23560
1373.73 1.29310
1374.01 1.35479
1374.29 1.42110
1374.43 1.45613
1374.57 1.49223
1374.72 1.52999
1374.86 1.56923
1375.00 1.61003
1375.14 1.65248
1375.28 1.69665
1375.42 1.74266
1375.56 1.79060
1375.70 1.84023
1375.83 1.88821
1375.96 1.93813
1376.09 1.99010
1376.22 2.04422
1376.35 2.10063
1376.48 2.15944
1376.61 2.22081
1376.74 2.28438
1376.83 2.32884
1376.98 2.40975
1377.13 2.49446
1377.21 2.53883
1377.28 2.58442
1377.36 2.63127
1377.43 2.67878
1377.55 2.75759
1377.67 2.83929
1377.79 2.92475
1377.91 3.01421
1378.03 3.10793
1378.15 3.20618
1378.27 3.30927
1378.33 3.36318
1378.39 3.41752
1378.45 3.47417
1378.51 3.53227
1378.57 3.59187
1378.63 3.65200
1378.69 3.71475
1378.74 3.77807
1378.80 3.84419
1378.86 3.91095
1378.92 3.98068
1378.98 4.05113
1379.04 4.12476
1379.10 4.19919
1379.16 4.27701
1379.22 4.35572
1379.28 4.43808
1379.34 4.52142
1379.40 4.60867
1379.46 4.69855
1379.52 4.79115
1379.58 4.88498
1379.64 4.98334
1379.70 5.08307
1379.76 5.18769
1379.82 5.29384
1379.88 5.40528
1379.94 5.52038
1380.00 5.63933
1380.06 5.76020
1380.12 5.88729
1380.17 6.01656
1380.23 6.15259
1380.29 6.29107
1380.35 6.43692
1380.41 6.58810
1380.47 6.74489
1380.53 6.90480
1380.59 7.07357
1380.65 7.24589
1380.71 7.42795
1380.77 7.61404
1380.83 7.81089
1380.89 8.01233
1380.95 8.22568
1381.01 8.44428
1381.07 8.67610
1381.13 8.91395
1381.19 9.16653
1381.25 9.42605
1381.31 9.70204
1381.37 9.99097
1381.43 10.2937
1381.49 10.6057
1381.55 10.9385
1381.60 11.2821
1381.66 11.6493
1381.72 12.0290
1381.78 12.4354
1381.84 12.8564
1381.90 13.3077
1381.96 13.7761
1382.02 14.2791
1382.08 14.8020
1382.14 15.3644
1382.20 15.9500
1382.26 16.5810
1382.32 17.2388
1382.38 17.9486
1382.44 18.6896
1382.50 19.4901
1382.56 20.3268
1382.62 21.2315
1382.68 22.1779
1382.74 23.2020
1382.79 24.2737
1382.85 25.4338
1382.91 26.6481
1382.97 27.9625
1383.03 29.3378
1383.09 30.8259
1383.15 32.3820
1383.21 34.0640
1383.27 35.8516
1383.33 37.7500
1383.39 39.7297
1383.45 41.8627
1383.51 44.0825
1383.57 46.4687
1383.63 48.9455
1383.69 51.6005
1383.75 54.3958
1383.81 57.3337
1383.87 60.3632
1383.93 63.5876
1383.99 66.8992
1384.05 70.4090
1384.11 73.9974
1384.17 77.7825
1384.22 81.6331
1384.28 85.6733
1384.34 89.7608
1384.46 98.3123
1384.58 107.195
1384.70 116.293
1384.82 125.465
1385.06 143.377
1385.20 153.170
1385.34 161.971
1385.41 165.960
1385.48 169.605
1385.55 172.872
1385.62 175.693
1385.71 178.939
1385.81 181.270
1385.90 182.681
1386.00 183.145
1386.05 183.014
1386.13 182.281
1386.21 180.933
1386.28 178.981
1386.36 176.451
1386.44 173.371
1386.52 169.779
1386.60 165.716
1386.67 161.228
1386.75 156.302
1386.83 151.045
1386.99 139.762
1387.15 127.827
1387.31 115.738
1387.47 103.270
1387.63 91.3795
1387.71 85.6724
1387.80 80.2497
1387.88 74.9970
1387.96 70.0567
1388.04 65.3166
1388.12 60.8978
1388.20 56.6929
1388.28 52.8026
1388.37 49.1262
1388.45 45.7466
1388.53 42.5711
1388.61 39.6667
1388.67 37.7879
1388.72 36.0100
1388.78 34.3289
1388.83 32.7680
1388.89 31.2664
1388.95 29.8490
1389.00 28.5116
1389.06 27.2719
1389.11 26.0809
1389.17 24.9579
1389.22 23.8989
1389.28 22.9175
1389.34 21.9747
1389.39 21.1008
1389.45 20.2607
1389.50 19.4816
1389.58 18.3984
1389.67 17.4015
1389.75 16.4829
1389.83 15.6454
1389.91 14.8617
1389.99 14.1451
1390.07 13.4726
1390.15 12.8557
1390.24 12.2749
1390.32 11.7405
1390.40 11.2357
1390.48 10.7698
1390.56 10.3283
1390.64 9.91955
1390.73 9.53107
1390.81 9.17031
1390.89 8.82649
1390.97 8.50250
1391.05 8.19678
1391.13 7.91137
1391.30 7.38215
1391.46 6.90622
1391.62 6.47392
1391.79 6.08456
1391.95 5.73036
1392.11 5.40710
1392.25 5.14965
1392.39 4.91064
1392.54 4.68830
1392.68 4.48109
1392.82 4.28764
1392.96 4.10672
1393.10 3.93726
1393.24 3.77937
1393.38 3.62995
1393.52 3.48938
1393.66 3.35696
1393.80 3.23293
1393.94 3.11495
1394.08 3.00342
1394.37 2.79857
1394.53 2.68870
1394.69 2.58588
1394.86 2.48894
1395.02 2.39744
1395.18 2.31045
1395.35 2.22866
1395.67 2.07779
1396.00 1.94154
1396.32 1.81882
1396.65 1.70721
1396.98 1.60601
1397.36 1.49757
1397.75 1.39992
1398.14 1.31167
1398.52 1.23185
1398.91 1.15905
1399.29 1.09279
1399.68 1.03200
1400.06 0.976354
1400.39 0.932602
1400.72 0.891891
1401.04 0.853717
1401.37 0.818090
1401.70 0.784590
1402.02 0.753241
1402.35 0.723773
1402.67 0.696040
1403.00 0.669830
1403.33 0.645183
1403.65 0.621835
1403.98 0.599830
1404.63 0.559216
1405.28 0.522754
1405.94 0.489800
1406.59 0.459961
1407.24 0.432857
1407.90 0.408201
1408.55 0.385638
1409.20 0.365002
1409.85 0.346026
1410.51 0.328595
1411.10 0.313905
1411.69 0.300260
1412.29 0.287509
1412.88 0.275608
1413.47 0.264448
1414.07 0.254006
1414.66 0.244210
1415.25 0.235008
1415.85 0.226340
1416.44 0.218192
1417.03 0.210499
1417.63 0.203252
1418.81 0.189918
1420.00 0.177979
1421.31 0.166214
1422.61 0.155706
1423.92 0.146271
1425.22 0.137780
1426.53 0.130102
1427.83 0.123147
1429.14 0.116825
1430.44 0.111060
1431.51 0.106714
1432.58 0.102671
1433.65 0.0989114
1434.71 0.0954120
1435.78 0.0921327
1436.85 0.0890540
1437.92 0.0861670
1438.99 0.0834586
1441.12 0.0785227
1443.26 0.0741502
1445.39 0.0702620
1447.53 0.0667940
1448.95 0.0646847
1450.38 0.0627245
1451.80 0.0608992
1453.23 0.0591980
1456.07 0.0561284
1458.92 0.0534469
1461.77 0.0510978
1464.62 0.0490355
1467.47 0.0472422
1470.31 0.0456419
1472.93 0.0443502
1475.54 0.0431964
1478.15 0.0421664
1480.76 0.0412610
1483.37 0.0404593
1485.98 0.0397478
1488.59 0.0391290
1491.20 0.0385925
1496.42 0.0377296
1501.64 0.0371298
1506.87 0.0367592
1512.09 0.0365927
1517.31 0.0366216
1522.53 0.0368287
1527.75 0.0372108
1532.97 0.0377687
1538.19 0.0384987
1543.42 0.0394135
1548.64 0.0405219
1553.86 0.0418374
1558.37 0.0431640
1562.88 0.0446867
1567.39 0.0464318
1571.90 0.0484350
1576.41 0.0507513
1580.92 0.0534572
1583.17 0.0549867
1585.43 0.0566333
1587.68 0.0584617
1589.93 0.0604823
1592.07 0.0626071
1594.21 0.0649774
1596.34 0.0676467
1598.48 0.0706868
1600.61 0.0741954
1601.68 0.0761639
1602.75 0.0782957
1603.82 0.0806182
1604.89 0.0831780
1605.95 0.0860145
1607.02 0.0891688
1608.15 0.0929183
1609.28 0.0971807
1610.40 0.102083
1611.53 0.107775
1612.66 0.114476
1613.22 0.118286
1613.79 0.122450
1614.35 0.127036
1614.91 0.132104
1615.48 0.137738
1616.04 0.144023
1616.66 0.151890
1617.29 0.160902
1617.91 0.171306
1618.53 0.183424
1618.85 0.190264
1619.16 0.197676
1619.47 0.205782
1619.78 0.214619
1620.09 0.224345
1620.40 0.235019
1620.71 0.246856
1621.03 0.259951
1621.38 0.276799
1621.74 0.296000
1622.09 0.318032
1622.27 0.330295
1622.45 0.343508
1622.75 0.367961
1623.04 0.395948
1623.19 0.411549
1623.34 0.428223
1623.49 0.446201
1623.64 0.465631
1623.79 0.486835
1623.93 0.509731
1624.08 0.534695
1624.23 0.562008
1624.38 0.592225
1624.53 0.625363
1624.67 0.662134
1624.82 0.703199
1624.99 0.754751
1625.07 0.783358
1625.15 0.813772
1625.23 0.847024
1625.31 0.882630
1625.39 0.921861
1625.48 0.964217
1625.56 1.01130
1625.64 1.06260
1625.72 1.12017
1625.80 1.18351
1625.88 1.25530
1625.96 1.33505
1626.05 1.42626
1626.13 1.52850
1626.19 1.61914
1626.25 1.71811
1626.32 1.82797
1626.38 1.95014
1626.44 2.08615
1626.51 2.23774
1626.57 2.40681
1626.60 2.50005
1626.63 2.59547
1626.66 2.69954
1626.70 2.80957
1626.73 2.92590
1626.76 3.04495
1626.79 3.17475
1626.82 3.30754
1626.85 3.45228
1626.89 3.60029
1626.92 3.76156
1626.95 3.92640
1626.98 4.10589
1627.01 4.28925
1627.04 4.48878
1627.07 4.69247
1627.11 4.91396
1627.14 5.13987
1627.18 5.45665
1627.22 5.79496
1627.26 6.15596
1627.30 6.53116
1627.34 6.94047
1627.38 7.37602
1627.42 7.83903
1627.46 8.31837
1627.50 8.83916
1627.55 9.39099
1627.59 9.97500
1627.63 10.5769
1627.67 11.2278
1627.71 11.9141
1627.75 12.6368
1627.79 13.3779
1627.83 14.1354
1627.87 14.9281
1627.91 15.7565
1627.95 16.6211
1627.98 17.5223
1628.02 18.4603
1628.10 20.4472
1628.18 22.5814
1628.26 24.8602
1628.34 27.2784
1628.41 29.7946
1628.49 32.6033
1628.58 35.4930
1628.74 41.5751
1629.07 54.0962
1629.20 58.9291
1629.33 63.3781
1629.41 65.8608
1629.50 68.1022
1629.58 70.0695
1629.66 71.7150
1629.74 73.0256
1629.82 74.0042
1629.90 74.6305
1629.98 74.9097
1630.00 74.9250
1630.07 74.7679
1630.15 74.3127
1630.22 73.5773
1630.29 72.5664
1630.37 71.2531
1630.44 69.6782
1630.51 67.8350
1630.59 65.7950
1630.69 62.6679
1630.79 59.2726
1630.94 53.8680
1631.09 48.1922
1631.24 42.4582
1631.39 36.8923
1631.45 34.4220
1631.52 32.0590
1631.59 29.7432
1631.66 27.5514
1631.72 25.4252
1631.79 23.4326
1631.86 21.5180
1631.93 19.7401
1632.00 17.8790
1632.08 16.1761
1632.11 15.3526
1632.15 14.5835
1632.19 13.8463
1632.22 13.1405
1632.26 12.4476
1632.30 11.8035
1632.34 11.1889
1632.37 10.6030
1632.41 10.0451
1632.45 9.51437
1632.48 9.00996
1632.52 8.53104
1632.57 7.91109
1632.62 7.33563
1632.67 6.80232
1632.72 6.31817
1632.78 5.86153
1632.83 5.44021
1632.88 5.05197
1632.93 4.70137
1632.98 4.37232
1633.03 4.07011
1633.08 3.79280
1633.13 3.54332
1633.18 3.30994
1633.23 3.10022
1633.28 2.90423
1633.33 2.72824
1633.37 2.60436
1633.41 2.49137
1633.44 2.38543
1633.48 2.28608
1633.52 2.19048
1633.56 2.10323
1633.59 2.02136
1633.63 1.94452
1633.67 1.87047
1633.71 1.80281
1633.78 1.67940
1633.85 1.57014
1633.93 1.47315
1634.00 1.38569
1634.08 1.30864
1634.15 1.23956
1634.22 1.17738
1634.30 1.12048
1634.37 1.06957
1634.45 1.02320
1634.52 0.980786
1634.63 0.924526
1634.74 0.874963
1634.85 0.830549
1634.95 0.790486
1635.06 0.754131
1635.17 0.720966
1635.28 0.690570
1635.39 0.662596
1635.50 0.636529
1635.60 0.612603
1635.71 0.590370
1635.82 0.569657
1636.04 0.532219
1636.25 0.499323
1636.41 0.477049
1636.58 0.456796
1636.74 0.438209
1636.90 0.421103
1637.06 0.405228
1637.23 0.390644
1637.55 0.364584
1637.87 0.341978
1638.20 0.322356
1638.52 0.305116
1638.85 0.289979
1639.15 0.277597
1639.44 0.266522
1639.74 0.256517
1640.04 0.247511
1640.34 0.239327
1640.63 0.231923
1640.93 0.225187
1641.23 0.219045
1641.82 0.208288
1642.42 0.199264
1643.01 0.191659
1643.61 0.185237
1644.12 0.180471
1644.63 0.176328
1645.15 0.172721
1645.66 0.169586
1646.17 0.166855
1646.69 0.164487
1647.72 0.160689
1648.74 0.157926
1649.77 0.156007
1650.80 0.154783
1651.82 0.154150
1652.96 0.154039
1654.10 0.154436
1655.23 0.155265
1656.37 0.156486
1657.50 0.158066
1658.64 0.159974
1660.91 0.164687
1663.18 0.170505
1665.45 0.177370
1667.72 0.185273
1669.99 0.194235
1671.24 0.199616
1672.48 0.205339
1673.72 0.211413
1674.97 0.217869
1675.59 0.221253
1676.21 0.224743
1676.83 0.228339
1677.45 0.232044
1678.08 0.235861
1678.70 0.239794
1679.32 0.243847
1679.94 0.248018
1680.54 0.252136
1681.13 0.256376
1681.73 0.260743
1682.32 0.265231
1682.92 0.269861
1683.51 0.274623
1684.10 0.279536
1684.70 0.284590
1685.10 0.288133
1685.51 0.291750
1685.92 0.295442
1686.32 0.299203
1686.73 0.303053
1687.13 0.306975
1687.54 0.310991
1687.94 0.315083
1688.20 0.317725
1688.46 0.320404
1688.71 0.323119
1688.97 0.325872
1689.49 0.331493
1690.00 0.337261
1690.51 0.343202
1691.03 0.349301
1691.54 0.355586
1692.05 0.362041
1692.35 0.365876
1692.65 0.369764
1692.95 0.373730
1693.24 0.377750
1693.54 0.381853
1693.84 0.386013
1694.13 0.390244
1694.43 0.394549
1694.73 0.398944
1695.03 0.403401
1695.32 0.407953
1695.62 0.412569
1695.92 0.417284
1696.22 0.422067
1696.51 0.426936
1696.81 0.431894
1697.11 0.436959
1697.41 0.442100
1697.70 0.447353
1698.00 0.452686
1698.30 0.458136
1698.60 0.463671
1698.89 0.469329
1699.19 0.475075
1699.49 0.480950
1699.79 0.486919
1700.08 0.493023
1700.38 0.499225
1700.68 0.505570
1700.98 0.512019
1701.27 0.518595
1701.57 0.525302
1701.87 0.532166
1702.16 0.539146
1702.46 0.546292
1702.76 0.553560
1703.06 0.561002
1703.35 0.568573
1703.95 0.584193
1704.54 0.600508
1705.14 0.617501
1705.73 0.635270
1706.33 0.653800
1706.92 0.673200
1707.52 0.693490
1708.11 0.714726
1708.71 0.736967
1709.30 0.760276
1709.90 0.784722
1710.49 0.810380
1711.09 0.837284
1711.68 0.865612
1712.28 0.895415
1712.87 0.926796
1713.46 0.959811
1714.06 0.994692
1714.65 1.03152
1715.25 1.07044
1715.84 1.11154
1716.44 1.15514
1717.03 1.20136
1717.63 1.25041
1718.22 1.30243
1718.82 1.35787
1719.41 1.41692
1720.01 1.47989
1720.60 1.54702
1721.20 1.61892
1721.79 1.69593
1722.39 1.77854
1722.98 1.86712
1723.58 1.96259
1724.17 2.06550
1724.47 2.12008
1724.77 2.17663
1725.06 2.23544
1725.36 2.29664
1725.66 2.36057
1725.95 2.42694
1726.25 2.49634
1726.55 2.56847
1726.85 2.64397
1727.14 2.72252
1727.44 2.80484
1727.74 2.89057
1728.04 2.98053
1728.33 3.07434
1728.63 3.17288
1728.93 3.27576
1729.23 3.38398
1729.52 3.49711
1729.82 3.61585
1730.12 3.74057
1730.40 3.86577
1730.69 3.99716
1730.97 4.13513
1731.25 4.28011
1731.54 4.43256
1731.82 4.59298
1732.11 4.76189
1732.39 4.93923
1732.67 5.12686
1732.96 5.32484
1733.24 5.53390
1733.52 5.75401
1733.81 5.98757
1734.09 6.23477
1734.38 6.49660
1734.66 6.77315
1734.96 7.08251
1735.25 7.41081
1735.55 7.76185
1735.85 8.13495
1736.15 8.53448
1736.44 8.95972
1736.74 9.41407
1737.04 9.89977
1737.34 10.4210
1737.63 10.9769
1737.93 11.5738
1738.23 12.2105
1738.53 12.8942
1738.82 13.6231
1739.12 14.4023
1739.42 15.2344
1739.77 16.2800
1740.11 17.4048
1740.46 18.6106
1740.81 19.8940
1741.16 21.2602
1741.50 22.6964
1741.85 24.2019
1742.20 25.7552
1742.67 27.9363
1743.15 30.1125
1743.62 32.2071
1744.10 34.1235
1744.34 34.9842
1744.58 35.7608
1744.81 36.4410
1745.05 37.0111
1745.29 37.4658
1745.53 37.7933
1745.76 37.9901
1746.00 38.0510
1746.32 37.9200
1746.58 37.6367
1746.83 37.2034
1747.09 36.6260
1747.35 35.9209
1747.61 35.0967
1747.86 34.1753
1748.12 33.1663
1748.38 32.0940
1748.89 29.8090
1749.41 27.4415
1749.92 25.0909
1750.44 22.8313
1750.79 21.3613
1751.14 19.9670
1751.50 18.6543
1751.85 17.4288
1752.20 16.2834
1752.55 15.2198
1752.91 14.2346
1753.26 13.3262
1753.59 12.5262
1753.93 11.7870
1754.26 11.1022
1754.60 10.4677
1754.93 9.87813
1755.27 9.33325
1755.60 8.82786
1755.93 8.35876
1756.24 7.96084
1756.54 7.58844
1756.85 7.23963
1757.15 6.91261
1757.45 6.60576
1757.76 6.31757
1758.06 6.04668
1758.36 5.79264
1758.67 5.55265
1758.97 5.32649
1759.28 5.11321
1759.58 4.91189
1759.88 4.72173
1760.19 4.54194
1760.49 4.37183
1760.80 4.21126
1761.13 4.04346
1761.46 3.88560
1761.80 3.73652
1762.13 3.59560
1762.47 3.46187
1762.80 3.33563
1763.47 3.10250
1764.14 2.89212
1764.81 2.70224
1765.48 2.52985
1766.14 2.37337
1766.81 2.23051
1767.48 2.09997
1768.15 1.98039
1768.82 1.87076
1769.49 1.76973
1770.16 1.67675
1770.82 1.59075
1771.49 1.51131
1772.16 1.43751
1772.83 1.36899
1773.50 1.30507
1774.17 1.24554
1774.84 1.18986
1775.50 1.13787
1776.17 1.08913
1776.84 1.04350
1777.51 1.00059
1778.18 0.960322
1778.85 0.922367
1779.51 0.886659
1780.18 0.852926
1780.85 0.821120
1781.52 0.791053
1782.19 0.762602
1783.53 0.710028
1784.86 0.662727
1786.20 0.619989
1787.54 0.581249
1788.87 0.546024
1790.21 0.513905
1791.55 0.484537
1792.88 0.457617
1793.92 0.438307
1794.95 0.420213
1795.98 0.403225
1797.02 0.387277
1798.05 0.372293
1799.08 0.358152
1800.12 0.344768
1801.15 0.332109
1803.22 0.308789
1805.28 0.287860
1807.35 0.268998
1809.41 0.251941
1810.75 0.241758
1812.09 0.232184
1813.43 0.223171
1814.76 0.214678
1816.10 0.206664
1817.44 0.199094
1820.11 0.185162
1822.78 0.172655
1825.46 0.161388
1828.13 0.151201
1830.81 0.141960
1833.48 0.133553
1836.15 0.125883
1838.83 0.118865
1841.50 0.112427
1844.18 0.106509
1846.85 0.101055
1849.52 0.0960185
1852.20 0.0913752
1854.87 0.0870779
1857.55 0.0830607
1860.22 0.0793143
1862.90 0.0758353
1865.57 0.0725857
1868.24 0.0695383
1870.92 0.0666930
1873.59 0.0640274
1876.27 0.0615158
1878.94 0.0591595
1881.61 0.0569460
1884.29 0.0548540
1886.96 0.0528812
1889.64 0.0510230
1894.98 0.0475947
1900.33 0.0445243
1905.68 0.0417565
1911.03 0.0392556
1916.38 0.0369916
1921.72 0.0349307
1927.07 0.0330542
1932.42 0.0313398
1937.77 0.0297682
1941.66 0.0287077
1945.55 0.0277106
1949.44 0.0267716
1953.33 0.0258898
1961.11 0.0242700
1968.88 0.0228217
1976.66 0.0215256
1984.44 0.0203633
1992.22 0.0193189
2000.00 0.0183800
2006.49 0.0176763
2012.98 0.0170244
2019.47 0.0164200
2025.96 0.0158779
2032.45 0.0153809
2038.94 0.0149205
2045.43 0.0145084
2051.92 0.0141377
2058.41 0.0137976
2064.90 0.0134963
2077.88 0.0130027
2084.37 0.0128033
2090.86 0.0126456
2103.83 0.0124213
2113.27 0.0123541
2120.35 0.0123626
2127.43 0.0124124
2134.51 0.0125256
2141.59 0.0127003
2148.67 0.0129481
2155.75 0.0132760
2162.83 0.0137020
2169.91 0.0142391
2174.92 0.0147018
2179.94 0.0152436
2184.95 0.0158773
2189.97 0.0166183
2194.98 0.0174863
2200.00 0.0184941
2205.01 0.0196918
2210.03 0.0211099
2213.27 0.0221684
2216.52 0.0233572
2219.76 0.0246967
2223.01 0.0262112
2226.25 0.0279315
2229.50 0.0298941
2232.74 0.0321446
2235.99 0.0347388
2238.05 0.0366017
2240.12 0.0386552
2242.18 0.0409209
2244.25 0.0434243
2246.31 0.0462212
2248.38 0.0493489
2250.44 0.0528572
2252.50 0.0568076
2254.13 0.0602754
2255.75 0.0641075
2257.37 0.0683619
2258.99 0.0730964
2260.62 0.0783926
2262.24 0.0843348
2263.86 0.0910363
2265.48 0.0986318
2266.66 0.104813
2267.84 0.111630
2269.02 0.119174
2270.20 0.127543
2271.38 0.136859
2272.56 0.147287
2273.74 0.159024
2274.33 0.165451
2274.92 0.172291
2275.74 0.182447
2276.55 0.193546
2277.36 0.205724
2278.17 0.219125
2278.98 0.233939
2279.79 0.250330
2280.60 0.268553
2281.01 0.278451
2281.41 0.288893
2282.15 0.309529
2282.89 0.332477
2283.26 0.344957
2283.63 0.358168
2284.00 0.372165
2284.36 0.386973
2284.73 0.402741
2285.10 0.419507
2285.47 0.437357
2285.84 0.456334
2286.21 0.476648
2286.58 0.498311
2286.94 0.521577
2287.31 0.546471
2287.72 0.576103
2288.12 0.608261
2288.53 0.643241
2288.94 0.681288
2289.34 0.722982
2289.75 0.768573
2290.15 0.818821
2290.56 0.874103
2290.91 0.926748
2291.26 0.984205
2291.61 1.04727
2291.96 1.11670
2292.31 1.19364
2292.48 1.23506
2292.66 1.27871
2292.83 1.32477
2293.01 1.37341
2293.18 1.42484
2293.36 1.47927
2293.54 1.54036
2293.73 1.60504
2293.91 1.67437
2294.10 1.74800
2294.19 1.78712
2294.28 1.82716
2294.37 1.86860
2294.47 1.91150
2294.56 1.95594
2294.65 2.00200
2294.74 2.04974
2294.83 2.09927
2294.95 2.16152
2295.06 2.22608
2295.16 2.28864
2295.26 2.35331
2295.36 2.42154
2295.46 2.49218
2295.56 2.56682
2295.66 2.64420
2295.77 2.72527
2295.87 2.81029
2295.97 2.90042
2296.07 2.99420
2296.17 3.09380
2296.27 3.19765
2296.32 3.25217
2296.37 3.30817
2296.43 3.36570
2296.48 3.42364
2296.53 3.48438
2296.58 3.54682
2296.63 3.61105
2296.68 3.67582
2296.73 3.74379
2296.78 3.81376
2296.83 3.88582
2296.88 3.95858
2296.93 4.03504
2296.98 4.11385
2297.03 4.19513
2297.08 4.27731
2297.14 4.36379
2297.19 4.45307
2297.24 4.54527
2297.29 4.63864
2297.34 4.73703
2297.39 4.83673
2297.44 4.94189
2297.49 5.04854
2297.54 5.16110
2297.59 5.27767
2297.64 5.39843
2297.69 5.52110
2297.74 5.65078
2297.79 5.78529
2297.85 5.92487
2297.90 6.06686
2297.95 6.21722
2298.00 6.37341
2298.05 6.53574
2298.10 6.70113
2298.15 6.87651
2298.20 7.05533
2298.25 7.24508
2298.30 7.43867
2298.35 7.64422
2298.40 7.85835
2298.45 8.08147
2298.50 8.30937
2298.55 8.55160
2298.61 8.80420
2298.66 9.06764
2298.71 9.33694
2298.76 9.62340
2298.81 9.92230
2298.86 10.2342
2298.91 10.5532
2298.96 10.8926
2299.01 11.2398
2299.06 11.6091
2299.11 11.9869
2299.16 12.3888
2299.21 12.8081
2299.26 13.2455
2299.31 13.6926
2299.37 14.1680
2299.42 14.6635
2299.47 15.1800
2299.52 15.7074
2299.57 16.2674
2299.62 16.8504
2299.67 17.4570
2299.72 18.0755
2299.77 18.7310
2299.82 19.4122
2299.87 20.1195
2299.92 20.8389
2299.97 21.5997
2300.03 22.3883
2300.08 23.2050
2300.13 24.0333
2300.18 24.9067
2300.23 25.8092
2300.33 27.6825
2300.43 29.6908
2300.53 31.7933
2300.63 34.0063
2300.73 36.3251
2300.85 39.2087
2300.97 42.2177
2301.09 45.3331
2301.21 48.5046
2301.42 54.0248
2301.62 59.5442
2301.82 64.8774
2302.02 69.7992
2302.20 73.5145
2302.37 76.6905
2302.45 78.0500
2302.54 79.2215
2302.62 80.2116
2302.71 81.0115
2302.85 81.9264
2303.00 82.2279
2303.12 82.0235
2303.21 81.5637
2303.31 80.8550
2303.41 79.8905
2303.50 78.7010
2303.60 77.2747
2303.69 75.6566
2303.79 73.8300
2303.88 71.8518
2303.98 69.6543
2304.08 67.3199
2304.27 62.3598
2304.47 57.1052
2304.66 51.7839
2304.86 46.4182
2305.06 41.2545
2305.16 38.7707
2305.26 36.3992
2305.36 34.1228
2305.46 31.9478
2305.56 29.8583
2305.66 27.8988
2305.76 26.0493
2305.86 24.3096
2305.96 22.6627
2306.06 21.1391
2306.15 19.7189
2306.25 18.3982
2306.33 17.4855
2306.40 16.6343
2306.47 15.8189
2306.54 15.0597
2306.62 14.3337
2306.69 13.6585
2306.76 13.0222
2306.83 12.4226
2306.91 11.8502
2306.98 11.3189
2307.05 10.8186
2307.12 10.3475
2307.19 9.89802
2307.27 9.48073
2307.34 9.08769
2307.41 8.71740
2307.51 8.23816
2307.61 7.80067
2307.71 7.39277
2307.81 7.01962
2307.91 6.67091
2308.01 6.35110
2308.11 6.05142
2308.21 5.77578
2308.31 5.51674
2308.41 5.27777
2308.51 5.05249
2308.60 4.84403
2308.70 4.64691
2308.80 4.46396
2308.90 4.29215
2309.00 4.13055
2309.10 3.97687
2309.20 3.83344
2309.30 3.69666
2309.40 3.56868
2309.60 3.33161
2309.80 3.11938
2310.00 2.92665
2310.19 2.75273
2310.39 2.59362
2310.59 2.44906
2310.77 2.32754
2310.95 2.21511
2311.13 2.11085
2311.31 2.01449
2311.49 1.92426
2311.68 1.84009
2311.86 1.76145
2312.04 1.68824
2312.22 1.61922
2312.40 1.55442
2312.58 1.49351
2312.76 1.43648
2312.94 1.38242
2313.12 1.33140
2313.30 1.28320
2313.48 1.23785
2313.68 1.19050
2313.88 1.14586
2314.08 1.10372
2314.28 1.06408
2314.68 0.990690
2315.07 0.924888
2315.47 0.865366
2315.87 0.811607
2316.27 0.762647
2316.66 0.718144
2316.92 0.691811
2317.17 0.666918
2317.67 0.621048
2318.18 0.579812
2318.69 0.542602
2319.19 0.508905
2319.70 0.478284
2320.20 0.450371
2320.71 0.424850
2321.11 0.406283
2321.51 0.388958
2321.90 0.372690
2322.30 0.357469
2322.70 0.343137
2323.10 0.329693
2323.49 0.317003
2323.89 0.305069
2324.29 0.293778
2324.69 0.283137
2325.48 0.263518
2326.28 0.245896
2327.07 0.230009
2327.87 0.215618
2328.66 0.202573
2329.46 0.190697
2330.25 0.179852
2331.05 0.169924
2331.84 0.160813
2332.64 0.152434
2333.43 0.144712
2334.19 0.137892
2334.95 0.131553
2335.71 0.125647
2336.47 0.120135
2337.23 0.114985
2337.99 0.110167
2339.50 0.101419
2341.02 0.0937027
2342.54 0.0868606
2344.06 0.0807656
2345.57 0.0753159
2347.17 0.0701941
2348.76 0.0656008
2350.35 0.0614629
2351.94 0.0577222
2353.53 0.0543270
2355.12 0.0512398
2356.71 0.0484225
2358.30 0.0458445
2360.75 0.0422696
2363.21 0.0391277
2365.67 0.0363535
2368.13 0.0338767
2370.58 0.0316615
2373.04 0.0296750
2375.50 0.0278859
2377.96 0.0262686
2381.14 0.0243954
2384.32 0.0227362
2387.50 0.0212584
2390.68 0.0199370
2393.86 0.0187497
2397.04 0.0176794
2400.22 0.0167107
2403.40 0.0158308
2408.31 0.0146211
2413.23 0.0135666
2418.14 0.0126467
2423.06 0.0118275
2427.97 0.0111001
2432.89 0.0104510
2437.80 0.00986897
2442.72 0.00934482
2449.08 0.00874057
2455.44 0.00820583
2461.80 0.00773050
2468.16 0.00730647
2480.88 0.00658103
2493.60 0.00598570
2505.75 0.00551259
2517.89 0.00510691
2530.03 0.00475985
2542.18 0.00445624
2554.32 0.00418993
2566.46 0.00395613
2578.61 0.00374707
2590.75 0.00355932
2593.06 0.00352634
2594.22 0.00351676
2594.80 0.00354421
2595.37 0.00371545
2595.66 0.00396641
2595.95 0.00446520
2596.10 0.00486718
2596.24 0.00541076
2596.39 0.00614737
2596.53 0.00712036
2596.68 0.00840857
2596.82 0.0100713
2596.97 0.0122226
2597.11 0.0149363
2597.25 0.0183679
2597.40 0.0225989
2597.54 0.0278282
2597.69 0.0341301
2597.83 0.0417434
2597.98 0.0507114
2598.12 0.0613014
2598.27 0.0734949
2598.41 0.0875692
2598.55 0.103410
2598.70 0.121282
2598.84 0.140944
2599.13 0.185948
2599.42 0.237513
2599.71 0.293974
2600.00 0.353053
2600.00 0.702917
2800.00 0.677990
3000.00 0.655579
3250.00 0.630966
3500.00 0.609003
3750.00 0.591941
4000.00 0.576415
4500.00 0.549303
5000.00 0.526133
5500.00 0.505308
6000.00 0.487016
6500.00 0.470087
7000.00 0.454938
7500.00 0.442611
8000.00 0.431382
8500.00 0.419733
9000.00 0.409039
10000.0 0.390035
10625.0 0.378255
11250.0 0.367473
11875.0 0.357558
12500.0 0.348399
13750.0 0.332553
15000.0 0.318716
16000.0 0.307553
17000.0 0.297423
18500.0 0.283597
20000.0 0.271420
21250.0 0.261899
22500.0 0.253228
23750.0 0.245290
25000.0 0.237990
26250.0 0.230958
27500.0 0.224448
30000.0 0.212758
32500.0 0.202318
35000.0 0.193109
37500.0 0.184486
40000.0 0.176768
42500.0 0.170028
45000.0 0.163908
47500.0 0.158323
50000.0 0.153200
52500.0 0.148462
55000.0 0.144081
57500.0 0.140015
60000.0 0.136230
65000.0 0.129709
70000.0 0.123949
75000.0 0.118942
80000.0 0.114442
85000.0 0.110667
90000.0 0.107223
94999.9 0.104064
99999.9 0.101153
100000 0.101229
106250 0.0985352
112500 0.0960612
125000 0.0916624
137500 0.0878569
150000 0.0845210
162500 0.0825590
175000 0.0807831
200000 0.0776791
225000 0.0762085
250000 0.0749166
300000 0.0742427
350000 0.0757022
400000 0.0769896
450000 0.0781433
500000 0.0791900
509790 0.0796043
519580 0.0800127
529370 0.0804156
539160 0.0808131
548949 0.0812054
558739 0.0815925
568529 0.0819748
578319 0.0823522
586462 0.0826626
594605 0.0829699
602748 0.0832741
610891 0.0835754
619033 0.0838737
627176 0.0841691
635319 0.0844618
643462 0.0847517
645229 0.0836895
646996 0.0826436
650529 0.0805990
657597 0.0766915
664664 0.0730122
671731 0.0695455
678798 0.0662772
685866 0.0631940
692933 0.0602836
700000 0.0575348
712500 0.0561834
725000 0.0548865
737500 0.0536409
750000 0.0524438
762500 0.0512925
775000 0.0501846
787500 0.0491178
800000 0.0480900
808181 0.0477869
816363 0.0474887
824544 0.0471953
832725 0.0469066
840906 0.0466225
849088 0.0463428
857269 0.0460674
865450 0.0457963
867609 0.0456727
869769 0.0455497
874088 0.0453056
882725 0.0448250
891363 0.0443540
900000 0.0438925
912500 0.0436348
925000 0.0433821
937500 0.0431342
950000 0.0428910
962500 0.0426523
975000 0.0424180
987500 0.0421879
1.00000E+06 0.0419620
1.00195E+06 0.0419699
1.00391E+06 0.0419777
1.00586E+06 0.0419855
1.00781E+06 0.0419933
1.00977E+06 0.0420011
1.01172E+06 0.0420089
1.01367E+06 0.0420167
1.01563E+06 0.0420244
1.01758E+06 0.0420322
1.01953E+06 0.0420399
1.02149E+06 0.0420476
1.02344E+06 0.0420553
1.02539E+06 0.0420630
1.02734E+06 0.0420707
1.02930E+06 0.0420783
1.03125E+06 0.0420860
1.03320E+06 0.0420936
1.03516E+06 0.0421013
1.03711E+06 0.0421089
1.03906E+06 0.0421165
1.04102E+06 0.0421241
1.04297E+06 0.0421316
1.04492E+06 0.0421392
1.04688E+06 0.0421467
1.04883E+06 0.0421543
1.05078E+06 0.0421618
1.05274E+06 0.0421693
1.05469E+06 0.0421768
1.05664E+06 0.0421843
1.05859E+06 0.0421917
1.06055E+06 0.0421992
1.06250E+06 0.0422066
1.06445E+06 0.0422141
1.06641E+06 0.0422215
1.06836E+06 0.0422289
1.07031E+06 0.0422363
1.07227E+06 0.0422437
1.07422E+06 0.0422511
1.07617E+06 0.0422584
1.07813E+06 0.0422658
1.08008E+06 0.0422731
1.08203E+06 0.0422804
1.08399E+06 0.0422877
1.08594E+06 0.0422950
1.08789E+06 0.0423023
1.08984E+06 0.0423096
1.09180E+06 0.0423169
1.09375E+06 0.0423241
1.09570E+06 0.0423314
1.09766E+06 0.0423386
1.09961E+06 0.0423458
1.10156E+06 0.0423530
1.10352E+06 0.0423602
1.10547E+06 0.0423674
1.10742E+06 0.0423746
1.10938E+06 0.0423817
1.11133E+06 0.0423889
1.11328E+06 0.0423960
1.11524E+06 0.0424031
1.11719E+06 0.0424102
1.11914E+06 0.0424174
1.12109E+06 0.0424244
1.12305E+06 0.0424315
1.12500E+06 0.0424386
1.12695E+06 0.0424457
1.12891E+06 0.0424527
1.13086E+06 0.0424597
1.13281E+06 0.0424668
1.13477E+06 0.0424738
1.13672E+06 0.0424808
1.13867E+06 0.0424878
1.14063E+06 0.0424948
1.14258E+06 0.0425017
1.14453E+06 0.0425087
1.14649E+06 0.0425156
1.14844E+06 0.0425226
1.15039E+06 0.0425295
1.15234E+06 0.0425364
1.15430E+06 0.0425433
1.15625E+06 0.0425502
1.15820E+06 0.0425571
1.16016E+06 0.0425640
1.16211E+06 0.0425709
1.16406E+06 0.0425777
1.16602E+06 0.0425846
1.16797E+06 0.0425914
1.16992E+06 0.0425982
1.17188E+06 0.0426050
1.17383E+06 0.0426118
1.17578E+06 0.0426186
1.17774E+06 0.0426254
1.17969E+06 0.0426322
1.18164E+06 0.0426390
1.18359E+06 0.0426457
1.18555E+06 0.0426524
1.18750E+06 0.0426592
1.18945E+06 0.0426659
1.19141E+06 0.0426726
1.19336E+06 0.0426793
1.19531E+06 0.0426860
1.19727E+06 0.0426927
1.19922E+06 0.0426994
1.20117E+06 0.0427060
1.20313E+06 0.0427127
1.20508E+06 0.0427193
1.20703E+06 0.0427260
1.20899E+06 0.0427326
1.21094E+06 0.0427392
1.21289E+06 0.0427458
1.21484E+06 0.0427524
1.21680E+06 0.0427590
1.21875E+06 0.0427656
1.22070E+06 0.0427721
1.22266E+06 0.0427787
1.22461E+06 0.0427852
1.22656E+06 0.0427918
1.22852E+06 0.0427983
1.23047E+06 0.0428048
1.23242E+06 0.0428113
1.23438E+06 0.0428178
1.23633E+06 0.0428243
1.23828E+06 0.0428308
1.24024E+06 0.0428373
1.24219E+06 0.0428437
1.24414E+06 0.0428502
1.24609E+06 0.0428566
1.24805E+06 0.0428631
1.25000E+06 0.0428695
1.25226E+06 0.0428963
1.25453E+06 0.0429230
1.25679E+06 0.0429497
1.25905E+06 0.0429764
1.26132E+06 0.0430030
1.26358E+06 0.0430296
1.26584E+06 0.0430562
1.26811E+06 0.0430827
1.27037E+06 0.0431093
1.27263E+06 0.0431358
1.27490E+06 0.0431622
1.27716E+06 0.0431886
1.27942E+06 0.0432150
1.28168E+06 0.0432414
1.28395E+06 0.0432677
1.28621E+06 0.0432940
1.28622E+06 0.0432937
1.28920E+06 0.0431248
1.29219E+06 0.0429570
1.29518E+06 0.0427901
1.29816E+06 0.0426243
1.30115E+06 0.0424596
1.30414E+06 0.0422958
1.30712E+06 0.0421331
1.31011E+06 0.0419714
1.31310E+06 0.0418106
1.31608E+06 0.0416508
1.31907E+06 0.0414920
1.32206E+06 0.0413341
1.32505E+06 0.0411772
1.32803E+06 0.0410212
1.33102E+06 0.0408662
1.33401E+06 0.0407122
1.33699E+06 0.0405590
1.33998E+06 0.0404067
1.34297E+06 0.0402554
1.34595E+06 0.0401050
1.34894E+06 0.0399554
1.35193E+06 0.0398067
1.35492E+06 0.0396589
1.35790E+06 0.0395120
1.36089E+06 0.0393659
1.36388E+06 0.0392208
1.36687E+06 0.0390764
1.36985E+06 0.0389329
1.37284E+06 0.0387903
1.37583E+06 0.0386485
1.37881E+06 0.0385075
1.38180E+06 0.0383673
1.38180E+06 0.0383672
1.38365E+06 0.0382710
1.38550E+06 0.0381752
1.38734E+06 0.0380797
1.38919E+06 0.0379847
1.39104E+06 0.0378900
1.39288E+06 0.0377956
1.39473E+06 0.0377016
1.39658E+06 0.0376080
1.39842E+06 0.0375147
1.40027E+06 0.0374218
1.40212E+06 0.0373292
1.40396E+06 0.0372370
1.40581E+06 0.0371452
1.40766E+06 0.0370536
1.40950E+06 0.0369624
1.41135E+06 0.0368716
1.41320E+06 0.0367811
1.41504E+06 0.0366910
1.41689E+06 0.0366011
1.41874E+06 0.0365116
1.42059E+06 0.0364225
1.42243E+06 0.0363337
1.42428E+06 0.0362452
1.42613E+06 0.0361571
1.42797E+06 0.0360692
1.42982E+06 0.0359817
1.43167E+06 0.0358945
1.43351E+06 0.0358077
1.43536E+06 0.0357211
1.43721E+06 0.0356349
1.43905E+06 0.0355490
1.44090E+06 0.0354635
1.44275E+06 0.0353782
1.44459E+06 0.0352933
1.44644E+06 0.0352086
1.44829E+06 0.0351243
1.45014E+06 0.0350403
1.45198E+06 0.0349565
1.45383E+06 0.0348731
1.45568E+06 0.0347901
1.45752E+06 0.0347073
1.45937E+06 0.0346248
1.46122E+06 0.0345426
1.46306E+06 0.0344607
1.46491E+06 0.0343791
1.46676E+06 0.0342978
1.46860E+06 0.0342168
1.47045E+06 0.0341361
1.47230E+06 0.0340556
1.47414E+06 0.0339755
1.47599E+06 0.0338957
1.47784E+06 0.0338161
1.47969E+06 0.0337368
1.48153E+06 0.0336578
1.48338E+06 0.0335791
1.48523E+06 0.0335007
1.48707E+06 0.0334226
1.48892E+06 0.0333447
1.49077E+06 0.0332671
1.49261E+06 0.0331898
1.49446E+06 0.0331128
1.49631E+06 0.0330360
1.49815E+06 0.0329595
1.50000E+06 0.0328833
1.50190E+06 0.0328577
1.50381E+06 0.0328321
1.50571E+06 0.0328066
1.50762E+06 0.0327812
1.50952E+06 0.0327558
1.51142E+06 0.0327304
1.51333E+06 0.0327051
1.51523E+06 0.0326799
1.51713E+06 0.0326547
1.51904E+06 0.0326296
1.52094E+06 0.0326045
1.52284E+06 0.0325794
1.52475E+06 0.0325544
1.52665E+06 0.0325295
1.52856E+06 0.0325046
1.53046E+06 0.0324798
1.53236E+06 0.0324550
1.53427E+06 0.0324303
1.53617E+06 0.0324056
1.53807E+06 0.0323809
1.53998E+06 0.0323563
1.54188E+06 0.0323318
1.54378E+06 0.0323073
1.54569E+06 0.0322829
1.54759E+06 0.0322585
1.54949E+06 0.0322341
1.55140E+06 0.0322098
1.55330E+06 0.0321856
1.55521E+06 0.0321614
1.55711E+06 0.0321372
1.55901E+06 0.0321131
1.56092E+06 0.0320890
1.56282E+06 0.0320650
1.56472E+06 0.0320411
1.56663E+06 0.0320171
1.56853E+06 0.0319933
1.57043E+06 0.0319694
1.57234E+06 0.0319457
1.57424E+06 0.0319219
1.57614E+06 0.0318983
1.57805E+06 0.0318746
1.57995E+06 0.0318510
1.58186E+06 0.0318275
1.58376E+06 0.0318040
1.58566E+06 0.0317805
1.58757E+06 0.0317571
1.58947E+06 0.0317337
1.59137E+06 0.0317104
1.59328E+06 0.0316871
1.59518E+06 0.0316639
1.59709E+06 0.0316407
1.59899E+06 0.0316176
1.60089E+06 0.0315945
1.60280E+06 0.0315714
1.60470E+06 0.0315484
1.60660E+06 0.0315254
1.60851E+06 0.0315025
1.61041E+06 0.0314797
1.61231E+06 0.0314568
1.61422E+06 0.0314340
1.61612E+06 0.0314113
1.61802E+06 0.0313886
1.61993E+06 0.0313659
1.62183E+06 0.0313433
1.62183E+06 0.0313432
1.62366E+06 0.0312868
1.62548E+06 0.0312305
1.62730E+06 0.0311744
1.62912E+06 0.0311185
1.63094E+06 0.0310627
1.63276E+06 0.0310071
1.63458E+06 0.0309517
1.63641E+06 0.0308964
1.63823E+06 0.0308413
1.64005E+06 0.0307863
1.64187E+06 0.0307315
1.64369E+06 0.0306769
1.64551E+06 0.0306224
1.64733E+06 0.0305680
1.64916E+06 0.0305138
1.65098E+06 0.0304598
1.65280E+06 0.0304060
1.65462E+06 0.0303523
1.65644E+06 0.0302987
1.65826E+06 0.0302453
1.66009E+06 0.0301920
1.66191E+06 0.0301389
1.66373E+06 0.0300860
1.66555E+06 0.0300332
1.66737E+06 0.0299805
1.66919E+06 0.0299281
1.67101E+06 0.0298757
1.67284E+06 0.0298235
1.67466E+06 0.0297714
1.67648E+06 0.0297195
1.67830E+06 0.0296678
1.68012E+06 0.0296162
1.68230E+06 0.0295793
1.68449E+06 0.0295425
1.68667E+06 0.0295058
1.68886E+06 0.0294692
1.69104E+06 0.0294327
1.69322E+06 0.0293963
1.69541E+06 0.0293600
1.69759E+06 0.0293238
1.69977E+06 0.0292876
1.70196E+06 0.0292516
1.70414E+06 0.0292156
1.70633E+06 0.0291798
1.70851E+06 0.0291440
1.71069E+06 0.0291083
1.71288E+06 0.0290727
1.71506E+06 0.0290372
1.71724E+06 0.0290017
1.71943E+06 0.0289664
1.72161E+06 0.0289312
1.72380E+06 0.0288960
1.72598E+06 0.0288609
1.72816E+06 0.0288259
1.73035E+06 0.0287910
1.73253E+06 0.0287562
1.73471E+06 0.0287215
1.73690E+06 0.0286869
1.73908E+06 0.0286523
1.74127E+06 0.0286178
1.74345E+06 0.0285835
1.74563E+06 0.0285492
1.74782E+06 0.0285149
1.75000E+06 0.0284808
1.75195E+06 0.0284535
1.75391E+06 0.0284262
1.75586E+06 0.0283991
1.75781E+06 0.0283719
1.75977E+06 0.0283448
1.76172E+06 0.0283178
1.76367E+06 0.0282909
1.76563E+06 0.0282639
1.76758E+06 0.0282371
1.76953E+06 0.0282103
1.77149E+06 0.0281835
1.77344E+06 0.0281568
1.77539E+06 0.0281302
1.77734E+06 0.0281036
1.77930E+06 0.0280771
1.78125E+06 0.0280506
1.78320E+06 0.0280242
1.78516E+06 0.0279978
1.78711E+06 0.0279715
1.78906E+06 0.0279453
1.79102E+06 0.0279191
1.79297E+06 0.0278929
1.79492E+06 0.0278668
1.79688E+06 0.0278408
1.79883E+06 0.0278148
1.80078E+06 0.0277888
1.80274E+06 0.0277629
1.80469E+06 0.0277371
1.80664E+06 0.0277113
1.80859E+06 0.0276856
1.81055E+06 0.0276599
1.81250E+06 0.0276343
1.81445E+06 0.0276087
1.81641E+06 0.0275831
1.81836E+06 0.0275577
1.82031E+06 0.0275322
1.82227E+06 0.0275069
1.82422E+06 0.0274815
1.82617E+06 0.0274563
1.82813E+06 0.0274310
1.83008E+06 0.0274059
1.83203E+06 0.0273807
1.83399E+06 0.0273557
1.83594E+06 0.0273306
1.83789E+06 0.0273057
1.83984E+06 0.0272807
1.84180E+06 0.0272559
1.84375E+06 0.0272310
1.84570E+06 0.0272062
1.84766E+06 0.0271815
1.84961E+06 0.0271568
1.85156E+06 0.0271322
1.85352E+06 0.0271076
1.85547E+06 0.0270831
1.85742E+06 0.0270586
1.85938E+06 0.0270342
1.86133E+06 0.0270097
1.86328E+06 0.0269854
1.86524E+06 0.0269611
1.86719E+06 0.0269369
1.86914E+06 0.0269127
1.87109E+06 0.0268885
1.87305E+06 0.0268644
1.87500E+06 0.0268403
1.87695E+06 0.0268163
1.87891E+06 0.0267923
1.88086E+06 0.0267684
1.88281E+06 0.0267445
1.88477E+06 0.0267207
1.88672E+06 0.0266969
1.88867E+06 0.0266732
1.89063E+06 0.0266495
1.89258E+06 0.0266258
1.89453E+06 0.0266022
1.89649E+06 0.0265787
1.89844E+06 0.0265551
1.90039E+06 0.0265317
1.90234E+06 0.0265083
1.90430E+06 0.0264849
1.90625E+06 0.0264615
1.90820E+06 0.0264382
1.91016E+06 0.0264150
1.91211E+06 0.0263918
1.91406E+06 0.0263686
1.91602E+06 0.0263455
1.91797E+06 0.0263225
1.91992E+06 0.0262994
1.92188E+06 0.0262764
1.92383E+06 0.0262535
1.92578E+06 0.0262306
1.92774E+06 0.0262078
1.92969E+06 0.0261849
1.93164E+06 0.0261622
1.93359E+06 0.0261395
1.93555E+06 0.0261168
1.93750E+06 0.0260941
1.93945E+06 0.0260715
1.94141E+06 0.0260490
1.94336E+06 0.0260265
1.94531E+06 0.0260040
1.94727E+06 0.0259816
1.94922E+06 0.0259592
1.95117E+06 0.0259368
1.95313E+06 0.0259145
1.95508E+06 0.0258923
1.95703E+06 0.0258700
1.95899E+06 0.0258479
1.96094E+06 0.0258257
1.96289E+06 0.0258036
1.96484E+06 0.0257816
1.96680E+06 0.0257596
1.96875E+06 0.0257376
1.97070E+06 0.0257156
1.97266E+06 0.0256937
1.97461E+06 0.0256719
1.97656E+06 0.0256501
1.97852E+06 0.0256283
1.98047E+06 0.0256066
1.98242E+06 0.0255849
1.98438E+06 0.0255632
1.98633E+06 0.0255416
1.98828E+06 0.0255200
1.99024E+06 0.0254985
1.99219E+06 0.0254770
1.99414E+06 0.0254555
1.99609E+06 0.0254341
1.99805E+06 0.0254127
2.00000E+06 0.0253914
2.00702E+06 0.0253154
2.01405E+06 0.0252399
2.02107E+06 0.0251648
2.02809E+06 0.0250903
2.03512E+06 0.0250162
2.04214E+06 0.0249426
2.04916E+06 0.0248695
2.05619E+06 0.0247968
2.06321E+06 0.0247246
2.07023E+06 0.0246529
2.07726E+06 0.0245816
2.08428E+06 0.0245107
2.09130E+06 0.0244403
2.09833E+06 0.0243703
2.10535E+06 0.0243008
2.11237E+06 0.0242317
2.11940E+06 0.0241630
2.12642E+06 0.0240947
2.13344E+06 0.0240268
2.14047E+06 0.0239594
2.14749E+06 0.0238924
2.15451E+06 0.0238257
2.16154E+06 0.0237595
2.16856E+06 0.0236937
2.17558E+06 0.0236283
2.18261E+06 0.0235632
2.18963E+06 0.0234986
2.19665E+06 0.0234343
2.20368E+06 0.0233704
2.21070E+06 0.0233069
2.21772E+06 0.0232438
2.22475E+06 0.0231810
2.23177E+06 0.0231186
2.23879E+06 0.0230566
2.24582E+06 0.0229949
2.25284E+06 0.0229336
2.25986E+06 0.0228726
2.26689E+06 0.0228120
2.27391E+06 0.0227517
2.28093E+06 0.0226918
2.28796E+06 0.0226322
2.29498E+06 0.0225729
2.30200E+06 0.0225140
2.30903E+06 0.0224554
2.31605E+06 0.0223972
2.32307E+06 0.0223393
2.33010E+06 0.0222817
2.33712E+06 0.0222244
2.34414E+06 0.0221674
2.35117E+06 0.0221108
2.35819E+06 0.0220545
2.36521E+06 0.0219985
2.37224E+06 0.0219427
2.37926E+06 0.0218873
2.38628E+06 0.0218322
2.39330E+06 0.0217774
2.40033E+06 0.0217229
2.40735E+06 0.0216687
2.41437E+06 0.0216148
2.42140E+06 0.0215612
2.42842E+06 0.0215078
2.43544E+06 0.0214548
2.44247E+06 0.0214020
2.44949E+06 0.0213495
2.45766E+06 0.0212888
2.46582E+06 0.0212285
2.47399E+06 0.0211686
2.48216E+06 0.0211090
2.49032E+06 0.0210498
2.49849E+06 0.0209909
2.50665E+06 0.0209324
2.51482E+06 0.0208743
2.52299E+06 0.0208165
2.53115E+06 0.0207590
2.53932E+06 0.0207019
2.54749E+06 0.0206452
2.55565E+06 0.0205887
2.56382E+06 0.0205326
2.57198E+06 0.0204769
2.58015E+06 0.0204214
2.58832E+06 0.0203663
2.59648E+06 0.0203115
2.60465E+06 0.0202570
2.61282E+06 0.0202029
2.62098E+06 0.0201490
2.62915E+06 0.0200955
2.63731E+06 0.0200423
2.64548E+06 0.0199893
2.65365E+06 0.0199367
2.66181E+06 0.0198844
2.66998E+06 0.0198324
2.67815E+06 0.0197806
2.68631E+06 0.0197292
2.69448E+06 0.0196781
2.70264E+06 0.0196272
2.71081E+06 0.0195766
2.71962E+06 0.0195224
2.72843E+06 0.0194685
2.73724E+06 0.0194149
2.74604E+06 0.0193616
2.75485E+06 0.0193087
2.76366E+06 0.0192560
2.77247E+06 0.0192037
2.78128E+06 0.0191517
2.79008E+06 0.0190999
2.79889E+06 0.0190485
2.80770E+06 0.0189974
2.81651E+06 0.0189466
2.82532E+06 0.0188961
2.83412E+06 0.0188458
2.84293E+06 0.0187959
2.85174E+06 0.0187462
2.86089E+06 0.0186949
2.87004E+06 0.0186439
2.87919E+06 0.0185933
2.88834E+06 0.0185429
2.89748E+06 0.0184928
2.90663E+06 0.0184430
2.91578E+06 0.0183935
2.92493E+06 0.0183443
2.93431E+06 0.0182941
2.94370E+06 0.0182442
2.95308E+06 0.0181946
2.96247E+06 0.0181453
2.97185E+06 0.0180963
2.98123E+06 0.0180476
2.99062E+06 0.0179992
3.00000E+06 0.0179510
3.02796E+06 0.0177382
3.05593E+06 0.0175299
3.08389E+06 0.0173259
3.11186E+06 0.0171261
3.13982E+06 0.0169303
3.16778E+06 0.0167385
3.19575E+06 0.0165505
3.22371E+06 0.0163662
3.25322E+06 0.0161757
3.28273E+06 0.0159890
3.31223E+06 0.0158062
3.34174E+06 0.0156271
3.37233E+06 0.0154451
3.40292E+06 0.0152669
3.43351E+06 0.0150924
3.46410E+06 0.0149213
3.49581E+06 0.0147476
3.52752E+06 0.0145774
3.55923E+06 0.0144107
3.59094E+06 0.0142474
3.62381E+06 0.0140815
3.65668E+06 0.0139191
3.68955E+06 0.0137599
3.72242E+06 0.0136039
3.75649E+06 0.0134456
3.79057E+06 0.0132904
3.82464E+06 0.0131385
3.85871E+06 0.0129896
3.89403E+06 0.0128383
3.92936E+06 0.0126902
3.96468E+06 0.0125451
4.00000E+06 0.0124029
4.03220E+06 0.0122280
4.06439E+06 0.0120570
4.09659E+06 0.0118896
4.12878E+06 0.0117259
4.17939E+06 0.0114755
4.23000E+06 0.0112334
4.28060E+06 0.0109993
4.33121E+06 0.0107726
4.38430E+06 0.0105426
4.43739E+06 0.0103202
4.49047E+06 0.0101051
4.54356E+06 0.00989688
4.60062E+06 0.00968050
4.65767E+06 0.00947143
4.71473E+06 0.00926934
4.77178E+06 0.00907392
4.82884E+06 0.00888486
4.88589E+06 0.00870190
4.94295E+06 0.00852476
5.00000E+06 0.00835320
5.00746E+06 0.00832205
5.01491E+06 0.00829106
5.02237E+06 0.00826023
5.02983E+06 0.00822957
5.03728E+06 0.00819906
5.04474E+06 0.00816871
5.05220E+06 0.00813852
5.05965E+06 0.00810848
5.06711E+06 0.00807860
5.07457E+06 0.00804887
5.08203E+06 0.00801930
5.08948E+06 0.00798988
5.09694E+06 0.00796060
5.10440E+06 0.00793148
5.11185E+06 0.00790251
5.11931E+06 0.00787368
5.12677E+06 0.00784500
5.13422E+06 0.00781647
5.14168E+06 0.00778808
5.14914E+06 0.00775984
5.15659E+06 0.00773174
5.16405E+06 0.00770378
5.17151E+06 0.00767596
5.17896E+06 0.00764828
5.18642E+06 0.00762074
5.19388E+06 0.00759334
5.20133E+06 0.00756608
5.20879E+06 0.00753896
5.21625E+06 0.00751197
5.22370E+06 0.00748512
5.23116E+06 0.00745839
5.23862E+06 0.00743181
5.24607E+06 0.00740535
5.25353E+06 0.00737903
5.26099E+06 0.00735284
5.26844E+06 0.00732678
5.27590E+06 0.00730084
5.28336E+06 0.00727504
5.29081E+06 0.00724936
5.29827E+06 0.00722381
5.30573E+06 0.00719838
5.31318E+06 0.00717308
5.32064E+06 0.00714790
5.32810E+06 0.00712285
5.33555E+06 0.00709792
5.34301E+06 0.00707311
5.35047E+06 0.00704843
5.35792E+06 0.00702386
5.36538E+06 0.00699941
5.37284E+06 0.00697509
5.38029E+06 0.00695087
5.38775E+06 0.00692678
5.39521E+06 0.00690281
5.40266E+06 0.00687895
5.41012E+06 0.00685520
5.41758E+06 0.00683157
5.42503E+06 0.00680806
5.43249E+06 0.00678465
5.43995E+06 0.00676136
5.44740E+06 0.00673818
5.45486E+06 0.00671511
5.46232E+06 0.00669216
5.46977E+06 0.00666931
5.47723E+06 0.00664657
5.48540E+06 0.00662178
5.49357E+06 0.00659713
5.50174E+06 0.00657260
5.50990E+06 0.00654820
5.51807E+06 0.00652392
5.52624E+06 0.00649978
5.53441E+06 0.00647575
5.54258E+06 0.00645185
5.55075E+06 0.00642808
5.55891E+06 0.00640442
5.56708E+06 0.00638089
5.57525E+06 0.00635748
5.58342E+06 0.00633419
5.59159E+06 0.00631102
5.59976E+06 0.00628796
5.60792E+06 0.00626503
5.61609E+06 0.00624221
5.62426E+06 0.00621951
5.63243E+06 0.00619692
5.64060E+06 0.00617445
5.64877E+06 0.00615208
5.65693E+06 0.00612984
5.66510E+06 0.00610771
5.67327E+06 0.00608568
5.68144E+06 0.00606377
5.68961E+06 0.00604197
5.69777E+06 0.00602028
5.70594E+06 0.00599870
5.71411E+06 0.00597722
5.72228E+06 0.00595585
5.73045E+06 0.00593459
5.73862E+06 0.00591344
5.74678E+06 0.00589239
5.75495E+06 0.00587145
5.76312E+06 0.00585060
5.77129E+06 0.00582987
5.77946E+06 0.00580923
5.78763E+06 0.00578870
5.79579E+06 0.00576827
5.80396E+06 0.00574794
5.81213E+06 0.00572771
5.82030E+06 0.00570757
5.82847E+06 0.00568754
5.83664E+06 0.00566761
5.84480E+06 0.00564777
5.85297E+06 0.00562803
5.86114E+06 0.00560839
5.86931E+06 0.00558884
5.87748E+06 0.00556939
5.88565E+06 0.00555003
5.89381E+06 0.00553077
5.90198E+06 0.00551160
5.91015E+06 0.00549252
5.91832E+06 0.00547354
5.92649E+06 0.00545465
5.93465E+06 0.00543584
5.94282E+06 0.00541713
5.95099E+06 0.00539851
5.95916E+06 0.00537998
5.96733E+06 0.00536154
5.97550E+06 0.00534318
5.98366E+06 0.00532491
5.99183E+06 0.00530673
6.00000E+06 0.00528864
6.01039E+06 0.00525910
6.02078E+06 0.00522978
6.03117E+06 0.00520067
6.04156E+06 0.00517177
6.05195E+06 0.00514309
6.06234E+06 0.00511461
6.07273E+06 0.00508634
6.08312E+06 0.00505827
6.09351E+06 0.00503040
6.10389E+06 0.00500273
6.11428E+06 0.00497527
6.12467E+06 0.00494800
6.13506E+06 0.00492092
6.14545E+06 0.00489404
6.15584E+06 0.00486735
6.16623E+06 0.00484085
6.17662E+06 0.00481454
6.18701E+06 0.00478842
6.19740E+06 0.00476248
6.20779E+06 0.00473673
6.21818E+06 0.00471115
6.22857E+06 0.00468576
6.23896E+06 0.00466055
6.24935E+06 0.00463551
6.25974E+06 0.00461065
6.27012E+06 0.00458597
6.28051E+06 0.00456145
6.29090E+06 0.00453711
6.30129E+06 0.00451293
6.31168E+06 0.00448893
6.32207E+06 0.00446509
6.33246E+06 0.00444142
6.34002E+06 0.00442430
6.34758E+06 0.00440726
6.35515E+06 0.00439030
6.36271E+06 0.00437343
6.37027E+06 0.00435665
6.37783E+06 0.00433995
6.38539E+06 0.00432333
6.39296E+06 0.00430680
6.40052E+06 0.00429035
6.40808E+06 0.00427398
6.41564E+06 0.00425769
6.42320E+06 0.00424149
6.43077E+06 0.00422536
6.43833E+06 0.00420932
6.44589E+06 0.00419335
6.45345E+06 0.00417747
6.46101E+06 0.00416166
6.46857E+06 0.00414593
6.47614E+06 0.00413028
6.48370E+06 0.00411470
6.49126E+06 0.00409921
6.49882E+06 0.00408379
6.50638E+06 0.00406844
6.51395E+06 0.00405317
6.52151E+06 0.00403798
6.52907E+06 0.00402286
6.53663E+06 0.00400781
6.54419E+06 0.00399284
6.55176E+06 0.00397794
6.55932E+06 0.00396311
6.56688E+06 0.00394835
6.57444E+06 0.00393367
6.58109E+06 0.00392082
6.58774E+06 0.00390802
6.59439E+06 0.00389528
6.60104E+06 0.00388259
6.60769E+06 0.00386996
6.61434E+06 0.00385738
6.62099E+06 0.00384485
6.62764E+06 0.00383238
6.63429E+06 0.00381995
6.64093E+06 0.00380759
6.64758E+06 0.00379527
6.65423E+06 0.00378301
6.66088E+06 0.00377079
6.66753E+06 0.00375863
6.67418E+06 0.00374653
6.68083E+06 0.00373447
6.68748E+06 0.00372246
6.69413E+06 0.00371050
6.70078E+06 0.00369860
6.70743E+06 0.00368674
6.71408E+06 0.00367493
6.72073E+06 0.00366317
6.72738E+06 0.00365147
6.73403E+06 0.00363981
6.74068E+06 0.00362820
6.74732E+06 0.00361663
6.75397E+06 0.00360512
6.76062E+06 0.00359365
6.76727E+06 0.00358223
6.77392E+06 0.00357086
6.78057E+06 0.00355954
6.78722E+06 0.00354826
6.79387E+06 0.00353703
6.80052E+06 0.00352585
6.80717E+06 0.00351471
6.81382E+06 0.00350362
6.82047E+06 0.00349257
6.82712E+06 0.00348157
6.83377E+06 0.00347062
6.84042E+06 0.00345971
6.84707E+06 0.00344884
6.85371E+06 0.00343802
6.86036E+06 0.00342725
6.86701E+06 0.00341652
6.87366E+06 0.00340583
6.88031E+06 0.00339518
6.88696E+06 0.00338458
6.89361E+06 0.00337403
6.90026E+06 0.00336351
6.90691E+06 0.00335304
6.91356E+06 0.00334261
6.92021E+06 0.00333222
6.92686E+06 0.00332188
6.93351E+06 0.00331158
6.94016E+06 0.00330132
6.94681E+06 0.00329110
6.95346E+06 0.00328092
6.96010E+06 0.00327079
6.96675E+06 0.00326069
6.97340E+06 0.00325063
6.98005E+06 0.00324062
6.98670E+06 0.00323065
6.99335E+06 0.00322071
7.00000E+06 0.00321082
7.00416E+06 0.00320371
7.00831E+06 0.00319662
7.01246E+06 0.00318954
7.01662E+06 0.00318249
7.02077E+06 0.00317546
7.02493E+06 0.00316845
7.02908E+06 0.00316145
7.03324E+06 0.00315448
7.03739E+06 0.00314752
7.04155E+06 0.00314059
7.04570E+06 0.00313367
7.04985E+06 0.00312678
7.05401E+06 0.00311990
7.05816E+06 0.00311304
7.06232E+06 0.00310620
7.06647E+06 0.00309939
7.07063E+06 0.00309258
7.07478E+06 0.00308580
7.07894E+06 0.00307904
7.08309E+06 0.00307230
7.08725E+06 0.00306557
7.09140E+06 0.00305886
7.09555E+06 0.00305217
7.09971E+06 0.00304551
7.10386E+06 0.00303885
7.10802E+06 0.00303222
7.11217E+06 0.00302561
7.11633E+06 0.00301901
7.12048E+06 0.00301243
7.12464E+06 0.00300587
7.12879E+06 0.00299933
7.13294E+06 0.00299281
7.13710E+06 0.00298630
7.14125E+06 0.00297982
7.14541E+06 0.00297335
7.14956E+06 0.00296689
7.15372E+06 0.00296046
7.15787E+06 0.00295404
7.16203E+06 0.00294764
7.16618E+06 0.00294126
7.17033E+06 0.00293490
7.17449E+06 0.00292855
7.17864E+06 0.00292222
7.18280E+06 0.00291591
7.18695E+06 0.00290961
7.19111E+06 0.00290334
7.19526E+06 0.00289708
7.19941E+06 0.00289084
7.20357E+06 0.00288461
7.20772E+06 0.00287840
7.21188E+06 0.00287221
7.21603E+06 0.00286603
7.22019E+06 0.00285987
7.22434E+06 0.00285373
7.22850E+06 0.00284761
7.23265E+06 0.00284150
7.23681E+06 0.00283541
7.24096E+06 0.00282933
7.24511E+06 0.00282327
7.24927E+06 0.00281723
7.25342E+06 0.00281120
7.25758E+06 0.00280520
7.26173E+06 0.00279920
7.26589E+06 0.00279323
7.27004E+06 0.00278727
7.27419E+06 0.00278132
7.27835E+06 0.00277539
7.28250E+06 0.00276948
7.28666E+06 0.00276358
7.29081E+06 0.00275770
7.29497E+06 0.00275184
7.29912E+06 0.00274599
7.30328E+06 0.00274015
7.30743E+06 0.00273434
7.31159E+06 0.00272853
7.31574E+06 0.00272275
7.31989E+06 0.00271698
7.32405E+06 0.00271122
7.32820E+06 0.00270548
7.33236E+06 0.00269976
7.33651E+06 0.00269405
7.34067E+06 0.00268835
7.34482E+06 0.00268267
7.34898E+06 0.00267701
7.35313E+06 0.00267136
7.35728E+06 0.00266573
7.36144E+06 0.00266011
7.36559E+06 0.00265451
7.36975E+06 0.00264892
7.37390E+06 0.00264335
7.37806E+06 0.00263779
7.38221E+06 0.00263224
7.38637E+06 0.00262671
7.39052E+06 0.00262120
7.39467E+06 0.00261570
7.39883E+06 0.00261022
7.40298E+06 0.00260475
7.40714E+06 0.00259929
7.41129E+06 0.00259385
7.41545E+06 0.00258842
7.41960E+06 0.00258301
7.42376E+06 0.00257761
7.42791E+06 0.00257223
7.43206E+06 0.00256686
7.43622E+06 0.00256150
7.44037E+06 0.00255616
7.44453E+06 0.00255083
7.44868E+06 0.00254552
7.45284E+06 0.00254022
7.45699E+06 0.00253494
7.46115E+06 0.00252967
7.46530E+06 0.00252441
7.46945E+06 0.00251916
7.47361E+06 0.00251394
7.47776E+06 0.00250872
7.48192E+06 0.00250352
7.48607E+06 0.00249833
7.49023E+06 0.00249315
7.49438E+06 0.00248799
7.49854E+06 0.00248284
7.50269E+06 0.00247771
7.50684E+06 0.00247259
7.51100E+06 0.00246748
7.51515E+06 0.00246239
7.51931E+06 0.00245731
7.52346E+06 0.00245224
7.52762E+06 0.00244719
7.53177E+06 0.00244214
7.53909E+06 0.00243330
7.54640E+06 0.00242449
7.55372E+06 0.00241573
7.56104E+06 0.00240700
7.56835E+06 0.00239832
7.57567E+06 0.00238968
7.58298E+06 0.00238107
7.59030E+06 0.00237250
7.59762E+06 0.00236398
7.60493E+06 0.00235549
7.61225E+06 0.00234704
7.61956E+06 0.00233863
7.62688E+06 0.00233025
7.63420E+06 0.00232192
7.64151E+06 0.00231362
7.64883E+06 0.00230536
7.65615E+06 0.00229714
7.66346E+06 0.00228895
7.67078E+06 0.00228080
7.67809E+06 0.00227269
7.68541E+06 0.00226462
7.69273E+06 0.00225658
7.70004E+06 0.00224858
7.70736E+06 0.00224061
7.71467E+06 0.00223268
7.72199E+06 0.00222478
7.72931E+06 0.00221692
7.73662E+06 0.00220910
7.74394E+06 0.00220131
7.75125E+06 0.00219355
7.75857E+06 0.00218583
7.76589E+06 0.00217815
7.77320E+06 0.00217049
7.78052E+06 0.00216288
7.78783E+06 0.00215529
7.79515E+06 0.00214774
7.80247E+06 0.00214023
7.80978E+06 0.00213274
7.81710E+06 0.00212529
7.82441E+06 0.00211787
7.83173E+06 0.00211049
7.83905E+06 0.00210314
7.84636E+06 0.00209582
7.85368E+06 0.00208853
7.86100E+06 0.00208127
7.86831E+06 0.00207405
7.87563E+06 0.00206686
7.88294E+06 0.00205970
7.89026E+06 0.00205257
7.89758E+06 0.00204547
7.90489E+06 0.00203841
7.91221E+06 0.00203137
7.91952E+06 0.00202437
7.92684E+06 0.00201739
7.93416E+06 0.00201045
7.94147E+06 0.00200354
7.94879E+06 0.00199665
7.95610E+06 0.00198980
7.96342E+06 0.00198298
7.97074E+06 0.00197618
7.97805E+06 0.00196942
7.98537E+06 0.00196268
7.99268E+06 0.00195598
8.00000E+06 0.00194930
8.00758E+06 0.00194248
8.01517E+06 0.00193569
8.02275E+06 0.00192893
8.03033E+06 0.00192220
8.03791E+06 0.00191550
8.04550E+06 0.00190883
8.05308E+06 0.00190218
8.06066E+06 0.00189557
8.06824E+06 0.00188899
8.07583E+06 0.00188244
8.08341E+06 0.00187591
8.09099E+06 0.00186941
8.09857E+06 0.00186295
8.10616E+06 0.00185651
8.11374E+06 0.00185009
8.12132E+06 0.00184371
8.12890E+06 0.00183736
8.13649E+06 0.00183103
8.14407E+06 0.00182473
8.15165E+06 0.00181846
8.15923E+06 0.00181221
8.16682E+06 0.00180600
8.17440E+06 0.00179980
8.18198E+06 0.00179364
8.18956E+06 0.00178750
8.19715E+06 0.00178139
8.20473E+06 0.00177531
8.21231E+06 0.00176925
8.21989E+06 0.00176322
8.22748E+06 0.00175722
8.23506E+06 0.00175124
8.24264E+06 0.00174528
8.25022E+06 0.00173936
8.25781E+06 0.00173345
8.26539E+06 0.00172758
8.27297E+06 0.00172173
8.28055E+06 0.00171590
8.28814E+06 0.00171010
8.29572E+06 0.00170432
8.30330E+06 0.00169857
8.31088E+06 0.00169284
8.31847E+06 0.00168714
8.32605E+06 0.00168146
8.33363E+06 0.00167581
8.34121E+06 0.00167018
8.34880E+06 0.00166458
8.35638E+06 0.00165899
8.36396E+06 0.00165344
8.37154E+06 0.00164790
8.37913E+06 0.00164239
8.38671E+06 0.00163690
8.39429E+06 0.00163144
8.40187E+06 0.00162600
8.40946E+06 0.00162058
8.41704E+06 0.00161518
8.42462E+06 0.00160981
8.43220E+06 0.00160446
8.43979E+06 0.00159914
8.44737E+06 0.00159383
8.45495E+06 0.00158855
8.46253E+06 0.00158329
8.47012E+06 0.00157805
8.47770E+06 0.00157283
8.48528E+06 0.00156764
8.49708E+06 0.00156060
8.50888E+06 0.00155361
8.52068E+06 0.00154665
8.53249E+06 0.00153974
8.54429E+06 0.00153287
8.55609E+06 0.00152603
8.56789E+06 0.00151924
8.57969E+06 0.00151249
8.59149E+06 0.00150577
8.60329E+06 0.00149910
8.61509E+06 0.00149246
8.62690E+06 0.00148586
8.63870E+06 0.00147930
8.65050E+06 0.00147278
8.66230E+06 0.00146629
8.67410E+06 0.00145985
8.67919E+06 0.00145708
8.68429E+06 0.00145431
8.68938E+06 0.00145155
8.69447E+06 0.00144880
8.69956E+06 0.00144606
8.70465E+06 0.00144332
8.70975E+06 0.00144060
8.71484E+06 0.00143787
8.71993E+06 0.00143516
8.72502E+06 0.00143245
8.73012E+06 0.00142974
8.73521E+06 0.00142705
8.74030E+06 0.00142436
8.74539E+06 0.00142168
8.75048E+06 0.00141900
8.75558E+06 0.00141633
8.76067E+06 0.00141367
8.76576E+06 0.00141101
8.77085E+06 0.00140836
8.77594E+06 0.00140572
8.78104E+06 0.00140308
8.78613E+06 0.00140045
8.79122E+06 0.00139782
8.79631E+06 0.00139521
8.80141E+06 0.00139260
8.80650E+06 0.00138999
8.81159E+06 0.00138739
8.81668E+06 0.00138480
8.82177E+06 0.00138221
8.82687E+06 0.00137964
8.83196E+06 0.00137706
8.83705E+06 0.00137450
8.84214E+06 0.00137193
8.84724E+06 0.00136938
8.85233E+06 0.00136683
8.85742E+06 0.00136429
8.86251E+06 0.00136175
8.86760E+06 0.00135922
8.87270E+06 0.00135670
8.87779E+06 0.00135418
8.88288E+06 0.00135167
8.88797E+06 0.00134917
8.89307E+06 0.00134667
8.89816E+06 0.00134418
8.90325E+06 0.00134169
8.90834E+06 0.00133921
8.91343E+06 0.00133673
8.91853E+06 0.00133426
8.92362E+06 0.00133180
8.92871E+06 0.00132934
8.93380E+06 0.00132689
8.93889E+06 0.00132445
8.94399E+06 0.00132201
8.94908E+06 0.00131957
8.95417E+06 0.00131715
8.95926E+06 0.00131473
8.96436E+06 0.00131231
8.96945E+06 0.00130990
8.97454E+06 0.00130750
8.97963E+06 0.00130510
8.98472E+06 0.00130270
8.98982E+06 0.00130032
8.99491E+06 0.00129794
9.00000E+06 0.00129556
9.00761E+06 0.00129334
9.01521E+06 0.00129113
9.02282E+06 0.00128893
9.03043E+06 0.00128673
9.03803E+06 0.00128453
9.04564E+06 0.00128234
9.05325E+06 0.00128016
9.06085E+06 0.00127798
9.06846E+06 0.00127581
9.07607E+06 0.00127364
9.08368E+06 0.00127148
9.09128E+06 0.00126932
9.09889E+06 0.00126717
9.10650E+06 0.00126503
9.11410E+06 0.00126289
9.12171E+06 0.00126075
9.12932E+06 0.00125862
9.13692E+06 0.00125650
9.14453E+06 0.00125438
9.15214E+06 0.00125227
9.15974E+06 0.00125016
9.16735E+06 0.00124806
9.17496E+06 0.00124596
9.18256E+06 0.00124387
9.19017E+06 0.00124179
9.19778E+06 0.00123970
9.20538E+06 0.00123763
9.21299E+06 0.00123556
9.22060E+06 0.00123349
9.22820E+06 0.00123143
9.23581E+06 0.00122938
9.24342E+06 0.00122733
9.25102E+06 0.00122528
9.25863E+06 0.00122324
9.26624E+06 0.00122120
9.27384E+06 0.00121918
9.28145E+06 0.00121715
9.28906E+06 0.00121513
9.29666E+06 0.00121311
9.30427E+06 0.00121111
9.31188E+06 0.00120910
9.31948E+06 0.00120710
9.32709E+06 0.00120510
9.33470E+06 0.00120311
9.34230E+06 0.00120113
9.34991E+06 0.00119915
9.35752E+06 0.00119717
9.36512E+06 0.00119520
9.37273E+06 0.00119324
9.38034E+06 0.00119128
9.38794E+06 0.00118932
9.39555E+06 0.00118737
9.40316E+06 0.00118542
9.41076E+06 0.00118348
9.41837E+06 0.00118154
9.42598E+06 0.00117961
9.43358E+06 0.00117768
9.44119E+06 0.00117576
9.44880E+06 0.00117384
9.45640E+06 0.00117193
9.46401E+06 0.00117002
9.47162E+06 0.00116812
9.47922E+06 0.00116622
9.48683E+06 0.00116432
9.49485E+06 0.00116331
9.50287E+06 0.00116231
9.51089E+06 0.00116131
9.51890E+06 0.00116030
9.52692E+06 0.00115930
9.53494E+06 0.00115831
9.54296E+06 0.00115731
9.55098E+06 0.00115631
9.55900E+06 0.00115532
9.56701E+06 0.00115433
9.57503E+06 0.00115334
9.58305E+06 0.00115235
9.59107E+06 0.00115137
9.59909E+06 0.00115038
9.60711E+06 0.00114940
9.61512E+06 0.00114842
9.62314E+06 0.00114744
9.63116E+06 0.00114646
9.63918E+06 0.00114548
9.64720E+06 0.00114451
9.65522E+06 0.00114353
9.66323E+06 0.00114256
9.67125E+06 0.00114159
9.67927E+06 0.00114062
9.68729E+06 0.00113966
9.69531E+06 0.00113869
9.70332E+06 0.00113773
9.71134E+06 0.00113677
9.71936E+06 0.00113581
9.72738E+06 0.00113485
9.73540E+06 0.00113389
9.74342E+06 0.00113294
9.75143E+06 0.00113198
9.75945E+06 0.00113103
9.76747E+06 0.00113008
9.77549E+06 0.00112913
9.78351E+06 0.00112818
9.79153E+06 0.00112724
9.79954E+06 0.00112629
9.80756E+06 0.00112535
9.81558E+06 0.00112441
9.82360E+06 0.00112347
9.83162E+06 0.00112253
9.83964E+06 0.00112159
9.84765E+06 0.00112066
9.85567E+06 0.00111972
9.86369E+06 0.00111879
9.87171E+06 0.00111786
9.87973E+06 0.00111693
9.88775E+06 0.00111601
9.89576E+06 0.00111508
9.90378E+06 0.00111416
9.91180E+06 0.00111323
9.91982E+06 0.00111231
9.92784E+06 0.00111139
9.93585E+06 0.00111047
9.94387E+06 0.00110956
9.95189E+06 0.00110864
9.95991E+06 0.00110773
9.96793E+06 0.00110682
9.97595E+06 0.00110590
9.98396E+06 0.00110499
9.99198E+06 0.00110409
1.00000E+07 0.00110318
1.00076E+07 0.00110342
1.00153E+07 0.00110367
1.00229E+07 0.00110391
1.00305E+07 0.00110415
1.00381E+07 0.00110440
1.00458E+07 0.00110464
1.00534E+07 0.00110488
1.00610E+07 0.00110513
1.00687E+07 0.00110537
1.00763E+07 0.00110561
1.00839E+07 0.00110585
1.00915E+07 0.00110610
1.00992E+07 0.00110634
1.01068E+07 0.00110658
1.01144E+07 0.00110682
1.01220E+07 0.00110706
1.01297E+07 0.00110730
1.01373E+07 0.00110755
1.01449E+07 0.00110779
1.01525E+07 0.00110803
1.01602E+07 0.00110827
1.01678E+07 0.00110851
1.01754E+07 0.00110875
1.01830E+07 0.00110899
1.01907E+07 0.00110923
1.01983E+07 0.00110947
1.02059E+07 0.00110971
1.02136E+07 0.00110995
1.02212E+07 0.00111019
1.02288E+07 0.00111043
1.02364E+07 0.00111067
1.02441E+07 0.00111091
1.02517E+07 0.00111115
1.02593E+07 0.00111139
1.02669E+07 0.00111163
1.02746E+07 0.00111187
1.02822E+07 0.00111211
1.02898E+07 0.00111235
1.02975E+07 0.00111258
1.03051E+07 0.00111282
1.03127E+07 0.00111306
1.03203E+07 0.00111330
1.03280E+07 0.00111354
1.03356E+07 0.00111378
1.03432E+07 0.00111401
1.03508E+07 0.00111425
1.03585E+07 0.00111449
1.03661E+07 0.00111473
1.03737E+07 0.00111496
1.03813E+07 0.00111520
1.03890E+07 0.00111544
1.03966E+07 0.00111568
1.04042E+07 0.00111591
1.04118E+07 0.00111615
1.04195E+07 0.00111639
1.04271E+07 0.00111662
1.04347E+07 0.00111686
1.04424E+07 0.00111710
1.04500E+07 0.00111733
1.04576E+07 0.00111757
1.04652E+07 0.00111780
1.04729E+07 0.00111804
1.04805E+07 0.00111828
1.04881E+07 0.00111851
1.04961E+07 0.00111953
1.05041E+07 0.00112056
1.05121E+07 0.00112158
1.05201E+07 0.00112260
1.05281E+07 0.00112363
1.05361E+07 0.00112465
1.05441E+07 0.00112568
1.05521E+07 0.00112670
1.05601E+07 0.00112772
1.05681E+07 0.00112875
1.05761E+07 0.00112977
1.05841E+07 0.00113080
1.05921E+07 0.00113182
1.06001E+07 0.00113285
1.06081E+07 0.00113387
1.06161E+07 0.00113490
1.06241E+07 0.00113592
1.06321E+07 0.00113695
1.06401E+07 0.00113797
1.06481E+07 0.00113900
1.06561E+07 0.00114003
1.06641E+07 0.00114105
1.06721E+07 0.00114208
1.06801E+07 0.00114311
1.06881E+07 0.00114413
1.06961E+07 0.00114516
1.07041E+07 0.00114619
1.07121E+07 0.00114721
1.07201E+07 0.00114824
1.07281E+07 0.00114927
1.07361E+07 0.00115030
1.07441E+07 0.00115132
1.07521E+07 0.00115235
1.07601E+07 0.00115338
1.07681E+07 0.00115441
1.07761E+07 0.00115544
1.07841E+07 0.00115646
1.07921E+07 0.00115749
1.08001E+07 0.00115852
1.08080E+07 0.00115955
1.08160E+07 0.00116058
1.08240E+07 0.00116161
1.08320E+07 0.00116264
1.08400E+07 0.00116367
1.08480E+07 0.00116470
1.08560E+07 0.00116573
1.08640E+07 0.00116676
1.08720E+07 0.00116779
1.08800E+07 0.00116882
1.08880E+07 0.00116985
1.08960E+07 0.00117088
1.09040E+07 0.00117191
1.09120E+07 0.00117294
1.09200E+07 0.00117397
1.09280E+07 0.00117500
1.09360E+07 0.00117603
1.09440E+07 0.00117707
1.09520E+07 0.00117810
1.09600E+07 0.00117913
1.09680E+07 0.00118016
1.09760E+07 0.00118119
1.09840E+07 0.00118223
1.09920E+07 0.00118326
1.10000E+07 0.00118429
1.10033E+07 0.00118453
1.10033E+07 0.00118453
1.10185E+07 0.00118565
1.10338E+07 0.00118676
1.10490E+07 0.00118787
1.10642E+07 0.00118898
1.10795E+07 0.00119009
1.10947E+07 0.00119120
1.11100E+07 0.00119231
1.11252E+07 0.00119342
1.11404E+07 0.00119453
1.11557E+07 0.00119564
1.11709E+07 0.00119675
1.11861E+07 0.00119786
1.12014E+07 0.00119897
1.12166E+07 0.00120007
1.12318E+07 0.00120118
1.12471E+07 0.00120228
1.12623E+07 0.00120339
1.12775E+07 0.00120449
1.12928E+07 0.00120560
1.13080E+07 0.00120670
1.13232E+07 0.00120781
1.13385E+07 0.00120891
1.13537E+07 0.00121001
1.13689E+07 0.00121111
1.13842E+07 0.00121222
1.13994E+07 0.00121332
1.14146E+07 0.00121442
1.14299E+07 0.00121552
1.14451E+07 0.00121662
1.14603E+07 0.00121772
1.14756E+07 0.00121882
1.14908E+07 0.00121991
1.15067E+07 0.00122106
1.15226E+07 0.00122221
1.15385E+07 0.00122335
1.15545E+07 0.00122450
1.15704E+07 0.00122564
1.15863E+07 0.00122679
1.16022E+07 0.00122793
1.16181E+07 0.00122907
1.16340E+07 0.00123022
1.16499E+07 0.00123136
1.16658E+07 0.00123250
1.16818E+07 0.00123364
1.16977E+07 0.00123478
1.17136E+07 0.00123592
1.17295E+07 0.00123706
1.17454E+07 0.00123820
1.17613E+07 0.00123934
1.17772E+07 0.00124048
1.17931E+07 0.00124162
1.18091E+07 0.00124275
1.18250E+07 0.00124389
1.18409E+07 0.00124503
1.18568E+07 0.00124616
1.18727E+07 0.00124730
1.18886E+07 0.00124843
1.19045E+07 0.00124957
1.19204E+07 0.00125070
1.19364E+07 0.00125183
1.19523E+07 0.00125297
1.19682E+07 0.00125410
1.19841E+07 0.00125523
1.20000E+07 0.00125636
1.20077E+07 0.00125552
1.20153E+07 0.00125469
1.20229E+07 0.00125385
1.20306E+07 0.00125302
1.20382E+07 0.00125218
1.20459E+07 0.00125135
1.20535E+07 0.00125052
1.20612E+07 0.00124969
1.20688E+07 0.00124886
1.20764E+07 0.00124804
1.20841E+07 0.00124721
1.20917E+07 0.00124638
1.20994E+07 0.00124556
1.21070E+07 0.00124474
1.21147E+07 0.00124391
1.21223E+07 0.00124309
1.21300E+07 0.00124227
1.21376E+07 0.00124145
1.21452E+07 0.00124064
1.21529E+07 0.00123982
1.21605E+07 0.00123900
1.21682E+07 0.00123819
1.21758E+07 0.00123737
1.21835E+07 0.00123656
1.21911E+07 0.00123575
1.21987E+07 0.00123494
1.22064E+07 0.00123413
1.22140E+07 0.00123332
1.22217E+07 0.00123251
1.22293E+07 0.00123171
1.22370E+07 0.00123090
1.22446E+07 0.00123010
1.22446E+07 0.00123009
1.22563E+07 0.00122887
1.22679E+07 0.00122765
1.22795E+07 0.00122644
1.22911E+07 0.00122522
1.23028E+07 0.00122401
1.23144E+07 0.00122280
1.23260E+07 0.00122159
1.23376E+07 0.00122039
1.23493E+07 0.00121919
1.23609E+07 0.00121799
1.23725E+07 0.00121679
1.23841E+07 0.00121559
1.23958E+07 0.00121440
1.24074E+07 0.00121321
1.24190E+07 0.00121202
1.24306E+07 0.00121083
1.24423E+07 0.00120965
1.24539E+07 0.00120847
1.24655E+07 0.00120729
1.24771E+07 0.00120611
1.24888E+07 0.00120493
1.25004E+07 0.00120376
1.25120E+07 0.00120259
1.25236E+07 0.00120142
1.25352E+07 0.00120026
1.25469E+07 0.00119909
1.25585E+07 0.00119793
1.25701E+07 0.00119677
1.25817E+07 0.00119561
1.25934E+07 0.00119446
1.26050E+07 0.00119330
1.26166E+07 0.00119215
1.26286E+07 0.00119097
1.26406E+07 0.00118979
1.26526E+07 0.00118861
1.26645E+07 0.00118743
1.26765E+07 0.00118626
1.26885E+07 0.00118508
1.27005E+07 0.00118391
1.27125E+07 0.00118274
1.27244E+07 0.00118158
1.27364E+07 0.00118041
1.27484E+07 0.00117925
1.27604E+07 0.00117809
1.27724E+07 0.00117694
1.27843E+07 0.00117578
1.27963E+07 0.00117463
1.28083E+07 0.00117348
1.28203E+07 0.00117233
1.28323E+07 0.00117119
1.28443E+07 0.00117004
1.28562E+07 0.00116890
1.28682E+07 0.00116776
1.28802E+07 0.00116662
1.28922E+07 0.00116549
1.29042E+07 0.00116436
1.29161E+07 0.00116323
1.29281E+07 0.00116210
1.29401E+07 0.00116097
1.29521E+07 0.00115985
1.29641E+07 0.00115872
1.29760E+07 0.00115760
1.29880E+07 0.00115649
1.30000E+07 0.00115537
1.30078E+07 0.00115440
1.30156E+07 0.00115344
1.30234E+07 0.00115247
1.30313E+07 0.00115151
1.30391E+07 0.00115055
1.30469E+07 0.00114959
1.30547E+07 0.00114863
1.30625E+07 0.00114768
1.30703E+07 0.00114672
1.30781E+07 0.00114577
1.30859E+07 0.00114481
1.30938E+07 0.00114386
1.31016E+07 0.00114291
1.31094E+07 0.00114196
1.31172E+07 0.00114101
1.31250E+07 0.00114007
1.31328E+07 0.00113912
1.31406E+07 0.00113818
1.31484E+07 0.00113724
1.31563E+07 0.00113630
1.31641E+07 0.00113536
1.31719E+07 0.00113442
1.31797E+07 0.00113348
1.31875E+07 0.00113255
1.31953E+07 0.00113161
1.32031E+07 0.00113068
1.32109E+07 0.00112975
1.32188E+07 0.00112882
1.32266E+07 0.00112789
1.32344E+07 0.00112696
1.32422E+07 0.00112604
1.32500E+07 0.00112511
1.32578E+07 0.00112419
1.32656E+07 0.00112327
1.32734E+07 0.00112234
1.32813E+07 0.00112143
1.32891E+07 0.00112051
1.32969E+07 0.00111959
1.33047E+07 0.00111867
1.33125E+07 0.00111776
1.33203E+07 0.00111685
1.33281E+07 0.00111593
1.33359E+07 0.00111502
1.33438E+07 0.00111411
1.33516E+07 0.00111320
1.33594E+07 0.00111230
1.33672E+07 0.00111139
1.33750E+07 0.00111049
1.33828E+07 0.00110958
1.33906E+07 0.00110868
1.33984E+07 0.00110778
1.34063E+07 0.00110688
1.34141E+07 0.00110599
1.34219E+07 0.00110509
1.34297E+07 0.00110419
1.34375E+07 0.00110330
1.34453E+07 0.00110241
1.34531E+07 0.00110151
1.34609E+07 0.00110062
1.34688E+07 0.00109973
1.34766E+07 0.00109885
1.34844E+07 0.00109796
1.34922E+07 0.00109707
1.35000E+07 0.00109619
1.35078E+07 0.00109531
1.35156E+07 0.00109442
1.35234E+07 0.00109354
1.35313E+07 0.00109266
1.35391E+07 0.00109178
1.35469E+07 0.00109091
1.35547E+07 0.00109003
1.35625E+07 0.00108916
1.35703E+07 0.00108828
1.35781E+07 0.00108741
1.35859E+07 0.00108654
1.35938E+07 0.00108567
1.36016E+07 0.00108480
1.36094E+07 0.00108393
1.36172E+07 0.00108307
1.36250E+07 0.00108220
1.36328E+07 0.00108134
1.36406E+07 0.00108048
1.36484E+07 0.00107961
1.36563E+07 0.00107875
1.36641E+07 0.00107789
1.36719E+07 0.00107704
1.36797E+07 0.00107618
1.36875E+07 0.00107532
1.36953E+07 0.00107447
1.37031E+07 0.00107362
1.37109E+07 0.00107276
1.37188E+07 0.00107191
1.37266E+07 0.00107106
1.37344E+07 0.00107021
1.37422E+07 0.00106937
1.37500E+07 0.00106852
1.37578E+07 0.00106767
1.37656E+07 0.00106683
1.37734E+07 0.00106599
1.37813E+07 0.00106515
1.37891E+07 0.00106431
1.37969E+07 0.00106347
1.38047E+07 0.00106263
1.38125E+07 0.00106179
1.38203E+07 0.00106095
1.38281E+07 0.00106012
1.38359E+07 0.00105929
1.38438E+07 0.00105845
1.38516E+07 0.00105762
1.38594E+07 0.00105679
1.38672E+07 0.00105596
1.38750E+07 0.00105513
1.38828E+07 0.00105430
1.38906E+07 0.00105348
1.38984E+07 0.00105265
1.39063E+07 0.00105183
1.39141E+07 0.00105101
1.39219E+07 0.00105019
1.39297E+07 0.00104937
1.39375E+07 0.00104855
1.39453E+07 0.00104773
1.39531E+07 0.00104691
1.39609E+07 0.00104609
1.39688E+07 0.00104528
1.39766E+07 0.00104447
1.39844E+07 0.00104365
1.39922E+07 0.00104284
1.40000E+07 0.00104203
1.40156E+07 0.00104058
1.40313E+07 0.00103913
1.40469E+07 0.00103768
1.40625E+07 0.00103624
1.40781E+07 0.00103480
1.40938E+07 0.00103337
1.41094E+07 0.00103194
1.41250E+07 0.00103051
1.41406E+07 0.00102909
1.41563E+07 0.00102767
1.41719E+07 0.00102625
1.41875E+07 0.00102484
1.42031E+07 0.00102343
1.42188E+07 0.00102202
1.42344E+07 0.00102062
1.42500E+07 0.00101922
1.42656E+07 0.00101782
1.42813E+07 0.00101643
1.42969E+07 0.00101504
1.43125E+07 0.00101366
1.43281E+07 0.00101228
1.43438E+07 0.00101090
1.43594E+07 0.00100952
1.43750E+07 0.00100815
1.43906E+07 0.00100678
1.44063E+07 0.00100542
1.44219E+07 0.00100405
1.44375E+07 0.00100270
1.44531E+07 0.00100134
1.44688E+07 0.000999987
1.44844E+07 0.000998638
1.45000E+07 0.000997293
1.45156E+07 0.000995950
1.45313E+07 0.000994612
1.45469E+07 0.000993276
1.45625E+07 0.000991944
1.45781E+07 0.000990614
1.45938E+07 0.000989288
1.46094E+07 0.000987965
1.46250E+07 0.000986646
1.46406E+07 0.000985329
1.46563E+07 0.000984016
1.46719E+07 0.000982705
1.46875E+07 0.000981398
1.47031E+07 0.000980094
1.47188E+07 0.000978793
1.47344E+07 0.000977495
1.47500E+07 0.000976201
1.47656E+07 0.000974909
1.47813E+07 0.000973621
1.47969E+07 0.000972335
1.48125E+07 0.000971053
1.48281E+07 0.000969773
1.48438E+07 0.000968497
1.48594E+07 0.000967223
1.48750E+07 0.000965953
1.48906E+07 0.000964686
1.49063E+07 0.000963422
1.49219E+07 0.000962160
1.49375E+07 0.000960902
1.49531E+07 0.000959646
1.49688E+07 0.000958394
1.49844E+07 0.000957144
1.50000E+07 0.000955898
1.50313E+07 0.000954159
1.50625E+07 0.000952426
1.50938E+07 0.000950700
1.51250E+07 0.000948981
1.51563E+07 0.000947269
1.51875E+07 0.000945563
1.52188E+07 0.000943864
1.52500E+07 0.000942171
1.52813E+07 0.000940485
1.53125E+07 0.000938805
1.53438E+07 0.000937131
1.53750E+07 0.000935464
1.54063E+07 0.000933804
1.54375E+07 0.000932149
1.54688E+07 0.000930501
1.55000E+07 0.000928859
1.55313E+07 0.000927224
1.55625E+07 0.000925594
1.55938E+07 0.000923971
1.56250E+07 0.000922353
1.56563E+07 0.000920742
1.56875E+07 0.000919137
1.57188E+07 0.000917538
1.57500E+07 0.000915944
1.57813E+07 0.000914357
1.58125E+07 0.000912775
1.58438E+07 0.000911200
1.58750E+07 0.000909630
1.59063E+07 0.000908066
1.59375E+07 0.000906508
1.59688E+07 0.000904955
1.60000E+07 0.000903408
1.60313E+07 0.000902515
1.60625E+07 0.000901625
1.60938E+07 0.000900738
1.61250E+07 0.000899853
1.61563E+07 0.000898971
1.61875E+07 0.000898091
1.62188E+07 0.000897214
1.62500E+07 0.000896339
1.62813E+07 0.000895467
1.63125E+07 0.000894597
1.63438E+07 0.000893730
1.63750E+07 0.000892866
1.64063E+07 0.000892004
1.64375E+07 0.000891144
1.64688E+07 0.000890287
1.65000E+07 0.000889432
1.65313E+07 0.000888580
1.65625E+07 0.000887730
1.65938E+07 0.000886882
1.66250E+07 0.000886037
1.66563E+07 0.000885195
1.66875E+07 0.000884354
1.67188E+07 0.000883517
1.67500E+07 0.000882681
1.67813E+07 0.000881848
1.68125E+07 0.000881017
1.68438E+07 0.000880188
1.68750E+07 0.000879362
1.69063E+07 0.000878538
1.69375E+07 0.000877717
1.69688E+07 0.000876897
1.70000E+07 0.000876080
1.70341E+07 0.000875729
1.70682E+07 0.000875378
1.71023E+07 0.000875028
1.71364E+07 0.000874679
1.71705E+07 0.000874331
1.72046E+07 0.000873984
1.72387E+07 0.000873638
1.72728E+07 0.000873292
1.73183E+07 0.000872833
1.73637E+07 0.000872375
1.74092E+07 0.000871918
1.74546E+07 0.000871463
1.75001E+07 0.000871010
1.75455E+07 0.000870557
1.75910E+07 0.000870107
1.76364E+07 0.000869657
1.76819E+07 0.000869209
1.77273E+07 0.000868762
1.77728E+07 0.000868317
1.78182E+07 0.000867873
1.78637E+07 0.000867431
1.79091E+07 0.000866989
1.79546E+07 0.000866550
1.80000E+07 0.000866111
1.80625E+07 0.000866339
1.81250E+07 0.000866567
1.81875E+07 0.000866794
1.82500E+07 0.000867020
1.83125E+07 0.000867246
1.83750E+07 0.000867470
1.84375E+07 0.000867694
1.85000E+07 0.000867918
1.85625E+07 0.000868141
1.86250E+07 0.000868362
1.86875E+07 0.000868584
1.87500E+07 0.000868804
1.88125E+07 0.000869024
1.88750E+07 0.000869244
1.89375E+07 0.000869462
1.90000E+07 0.000869680
1.90667E+07 0.000870607
1.91333E+07 0.000871532
1.92000E+07 0.000872455
1.92666E+07 0.000873376
1.93333E+07 0.000874294
1.93999E+07 0.000875211
1.94666E+07 0.000876125
1.95332E+07 0.000877037
1.95916E+07 0.000877833
1.96499E+07 0.000878628
1.97083E+07 0.000879421
1.97666E+07 0.000880213
1.98250E+07 0.000881003
1.98833E+07 0.000881791
1.99417E+07 0.000882578
2.00000E+07 0.000883363
