Se-78(n,tot) ENDFB-8.0
Energy(eV) XS(b)
1.00000E-05 77.0146
1.03125E-05 75.8554
1.06250E-05 74.7480
1.09375E-05 73.6886
1.12500E-05 72.6740
1.15625E-05 71.7009
1.18750E-05 70.7667
1.21875E-05 69.8689
1.25000E-05 69.0052
1.28125E-05 68.1734
1.31250E-05 67.3717
1.34375E-05 66.5983
1.37500E-05 65.8516
1.43750E-05 64.4324
1.50000E-05 63.1034
1.56250E-05 61.8555
1.62500E-05 60.6808
1.68750E-05 59.5725
1.75000E-05 58.5245
1.81250E-05 57.5317
1.87500E-05 56.5894
1.93750E-05 55.6934
2.00000E-05 54.8401
2.09375E-05 53.6332
2.18750E-05 52.5055
2.28125E-05 51.4488
2.37500E-05 50.4559
2.46875E-05 49.5207
2.56250E-05 48.6379
2.65625E-05 47.8028
2.75000E-05 47.0113
2.84375E-05 46.2597
2.93750E-05 45.5449
3.03125E-05 44.8639
3.12500E-05 44.2143
3.21875E-05 43.5936
3.31250E-05 42.9999
3.40625E-05 42.4312
3.50000E-05 41.8859
3.59375E-05 41.3624
3.68750E-05 40.8593
3.78125E-05 40.3753
3.87500E-05 39.9094
3.96875E-05 39.4603
4.06250E-05 39.0271
4.25000E-05 38.2049
4.43750E-05 37.4365
4.62500E-05 36.7161
4.81250E-05 36.0391
5.00000E-05 35.4014
5.15625E-05 34.8974
5.31250E-05 34.4162
5.46875E-05 33.9564
5.62500E-05 33.5162
5.78125E-05 33.0945
5.93750E-05 32.6900
6.09375E-05 32.3015
6.25000E-05 31.9281
6.40625E-05 31.5688
6.56250E-05 31.2228
6.71875E-05 30.8893
6.87500E-05 30.5675
7.18750E-05 29.9567
7.50000E-05 29.3856
7.81250E-05 28.8503
8.12500E-05 28.3472
8.43750E-05 27.8733
8.75000E-05 27.4259
9.06250E-05 27.0027
9.37500E-05 26.6016
9.68750E-05 26.2209
0.000100000 25.8590
0.000103125 25.5142
0.000106250 25.1855
0.000109375 24.8716
0.000112500 24.5714
0.000115625 24.2841
0.000118750 24.0087
0.000121875 23.7445
0.000125000 23.4908
0.000128125 23.2469
0.000131250 23.0122
0.000134375 22.7862
0.000137500 22.5684
0.000143750 22.1554
0.000150000 21.7699
0.000156250 21.4092
0.000162500 21.0708
0.000168750 20.7526
0.000175000 20.4527
0.000181250 20.1695
0.000187500 19.9015
0.000193750 19.6475
0.000200000 19.4065
0.000209375 19.0668
0.000218750 18.7509
0.000228125 18.4563
0.000237500 18.1807
0.000246875 17.9223
0.000256250 17.6794
0.000265625 17.4507
0.000275000 17.2349
0.000284375 17.0309
0.000293750 16.8376
0.000303125 16.6543
0.000312500 16.4802
0.000321875 16.3145
0.000331250 16.1566
0.000340625 16.0060
0.000350000 15.8621
0.000359375 15.7246
0.000368750 15.5929
0.000378125 15.4667
0.000387500 15.3457
0.000396875 15.2295
0.000406250 15.1178
0.000425000 14.9070
0.000443750 14.7114
0.000462500 14.5293
0.000481250 14.3593
0.000500000 14.2003
0.000515625 14.0753
0.000531250 13.9567
0.000546875 13.8438
0.000562500 13.7364
0.000578125 13.6340
0.000593750 13.5363
0.000609375 13.4429
0.000625000 13.3535
0.000640625 13.2679
0.000656250 13.1859
0.000671875 13.1071
0.000687500 13.0315
0.000718750 12.8888
0.000750000 12.7566
0.000781250 12.6336
0.000812500 12.5189
0.000843750 12.4116
0.000875000 12.3111
0.000906250 12.2166
0.000937500 12.1277
0.000968750 12.0438
0.00100000 11.9646
0.00103125 11.8895
0.00106250 11.8184
0.00109375 11.7508
0.00112500 11.6865
0.00115625 11.6253
0.00118750 11.5670
0.00121875 11.5112
0.00125000 11.4579
0.00128125 11.4069
0.00131250 11.3581
0.00134375 11.3112
0.00137500 11.2662
0.00143750 11.1814
0.00150000 11.1028
0.00156250 11.0297
0.00162500 10.9616
0.00168750 10.8979
0.00175000 10.8381
0.00181250 10.7820
0.00187500 10.7292
0.00193750 10.6794
0.00200000 10.6322
0.00209375 10.5661
0.00218750 10.5050
0.00228125 10.4482
0.00237500 10.3954
0.00246875 10.3460
0.00256250 10.2997
0.00265625 10.2563
0.00275000 10.2155
0.00284375 10.1769
0.00293750 10.1405
0.00303125 10.1061
0.00312500 10.0734
0.00321875 10.0423
0.00331250 10.0128
0.00340625 9.98464
0.00350000 9.95778
0.00359375 9.93212
0.00368750 9.90758
0.00378125 9.88408
0.00387500 9.86155
0.00396875 9.83993
0.00406250 9.81915
0.00425000 9.77995
0.00443750 9.74357
0.00462500 9.70970
0.00481250 9.67807
0.00500000 9.64845
0.00515625 9.62517
0.00531250 9.60304
0.00546875 9.58197
0.00562500 9.56190
0.00578125 9.54274
0.00593750 9.52442
0.00609375 9.50690
0.00625000 9.49011
0.00640625 9.47401
0.00656250 9.45855
0.00671875 9.44369
0.00687500 9.42940
0.00718750 9.40238
0.00750000 9.37724
0.00781250 9.35379
0.00812500 9.33184
0.00843750 9.31125
0.00875000 9.29188
0.00906250 9.27362
0.00937500 9.25638
0.00968750 9.24005
0.0100000 9.22457
0.0103125 9.20987
0.0106250 9.19588
0.0109375 9.18255
0.0112500 9.16984
0.0115625 9.15769
0.0118750 9.14606
0.0121875 9.13493
0.0125000 9.12425
0.0128125 9.11400
0.0131250 9.10415
0.0134375 9.09468
0.0137500 9.08556
0.0143750 9.06829
0.0150000 9.05221
0.0156250 9.03717
0.0162500 9.02309
0.0168750 9.00985
0.0175000 8.99739
0.0181250 8.98562
0.0187500 8.97450
0.0193750 8.96395
0.0200000 8.95395
0.0206625 8.94387
0.0213250 8.93431
0.0219875 8.92521
0.0226500 8.91654
0.0233125 8.90827
0.0239750 8.90037
0.0246375 8.89282
0.0253000 8.88558
0.0264578 8.87363
0.0276156 8.86249
0.0287734 8.85208
0.0299313 8.84231
0.0310891 8.83313
0.0322469 8.82448
0.0334047 8.81631
0.0345625 8.80858
0.0355274 8.80244
0.0364922 8.79657
0.0374570 8.79093
0.0384219 8.78552
0.0393867 8.78033
0.0403516 8.77532
0.0413164 8.77051
0.0422813 8.76587
0.0442109 8.75707
0.0461406 8.74886
0.0480703 8.74118
0.0500000 8.73397
0.0515625 8.72844
0.0531250 8.72317
0.0546875 8.71814
0.0562500 8.71334
0.0578125 8.70873
0.0593750 8.70432
0.0609375 8.70009
0.0625000 8.69603
0.0640625 8.69212
0.0656250 8.68836
0.0671875 8.68474
0.0687500 8.68125
0.0718750 8.67462
0.0750000 8.66843
0.0781250 8.66263
0.0812500 8.65718
0.0843750 8.65205
0.0875000 8.64720
0.0906250 8.64262
0.0937500 8.63828
0.0968750 8.63416
0.100000 8.63023
0.103125 8.62650
0.106250 8.62294
0.109375 8.61953
0.112500 8.61628
0.115625 8.61316
0.118750 8.61017
0.121875 8.60730
0.125000 8.60454
0.128125 8.60189
0.131250 8.59934
0.134375 8.59688
0.137500 8.59450
0.143750 8.58999
0.150000 8.58578
0.156250 8.58183
0.162500 8.57811
0.168750 8.57460
0.175000 8.57129
0.181250 8.56816
0.187500 8.56519
0.193750 8.56237
0.200000 8.55969
0.209375 8.55590
0.218750 8.55235
0.228125 8.54904
0.237500 8.54592
0.246875 8.54299
0.256250 8.54022
0.265625 8.53760
0.275000 8.53512
0.284375 8.53277
0.293750 8.53053
0.303125 8.52840
0.312500 8.52637
0.321875 8.52442
0.331250 8.52257
0.340625 8.52079
0.350000 8.51908
0.359375 8.51744
0.368750 8.51586
0.378125 8.51435
0.387500 8.51289
0.396875 8.51148
0.406250 8.51012
0.425000 8.50755
0.443750 8.50513
0.462500 8.50287
0.500000 8.49874
0.531250 8.49563
0.562500 8.49278
0.593750 8.49016
0.625000 8.48774
0.687500 8.48340
0.750000 8.47960
0.812500 8.47625
0.875000 8.47326
0.937500 8.47057
1.00000 8.46812
1.06250 8.46588
1.12500 8.46382
1.18750 8.46192
1.25000 8.46016
1.37500 8.45699
1.50000 8.45420
1.62500 8.45171
1.75000 8.44948
1.87500 8.44745
2.00000 8.44560
2.18750 8.44308
2.37500 8.44083
2.56250 8.43880
2.75000 8.43695
2.93750 8.43524
3.12500 8.43366
3.31250 8.43219
3.50000 8.43081
3.87500 8.42829
4.25000 8.42601
4.62500 8.42394
5.00000 8.42203
5.31250 8.42054
5.62500 8.41913
5.93750 8.41779
6.25000 8.41650
6.87500 8.41409
7.50000 8.41184
8.12500 8.40972
8.75000 8.40771
9.37500 8.40579
10.0000 8.40394
10.6250 8.40216
11.2500 8.40043
11.8750 8.39875
12.5000 8.39712
13.7500 8.39394
15.0000 8.39088
16.2500 8.38791
17.5000 8.38502
18.7500 8.38218
20.0000 8.37940
21.8750 8.37529
23.7500 8.37127
25.6250 8.36730
27.5000 8.36337
29.3750 8.35949
31.2500 8.35564
33.1250 8.35181
35.0000 8.34800
38.7500 8.34042
42.5000 8.33289
46.2500 8.32537
50.0000 8.31787
53.1250 8.31161
56.2500 8.30535
59.3750 8.29908
62.5000 8.29279
68.7500 8.28015
75.0000 8.26741
81.2500 8.25455
87.5000 8.24154
93.7500 8.22838
100.000 8.21502
106.250 8.20147
112.500 8.18769
118.750 8.17367
125.000 8.15938
134.375 8.13736
143.750 8.11465
150.000 8.09902
156.250 8.08297
162.500 8.06646
168.750 8.04946
175.000 8.03191
181.250 8.01376
187.500 7.99494
193.750 7.97540
200.000 7.95505
207.495 7.92939
211.243 7.91613
214.990 7.90233
222.485 7.87369
229.980 7.84298
233.727 7.82693
237.475 7.81009
241.222 7.79279
244.970 7.77479
248.717 7.75587
252.464 7.73634
256.212 7.71588
259.959 7.69455
263.885 7.67092
267.811 7.64608
271.737 7.61985
275.663 7.59201
279.589 7.56256
283.515 7.53112
285.478 7.51467
287.441 7.49755
291.367 7.46169
294.579 7.43027
297.791 7.39683
299.397 7.37933
301.003 7.36116
302.609 7.34253
304.215 7.32302
305.821 7.30307
307.427 7.28214
309.033 7.26061
310.639 7.23817
312.245 7.21503
313.851 7.19079
315.457 7.16555
317.063 7.13924
319.026 7.10550
320.989 7.06992
322.952 7.03230
324.915 6.99246
326.878 6.95020
328.841 6.90525
330.804 6.85735
332.767 6.80622
334.552 6.75658
335.444 6.73057
336.336 6.70366
337.228 6.67588
338.121 6.64711
339.013 6.61733
339.905 6.58653
340.797 6.55455
341.690 6.52142
342.582 6.48704
343.474 6.45129
344.366 6.41420
345.259 6.37561
346.151 6.33561
347.043 6.29377
348.025 6.24564
349.006 6.19519
349.988 6.14226
350.969 6.08665
351.950 6.02815
352.932 5.96655
353.913 5.90159
354.895 5.83302
355.876 5.76052
356.858 5.68377
357.349 5.64369
357.839 5.60241
358.330 5.55988
358.821 5.51605
359.312 5.47084
359.802 5.42423
360.293 5.37614
360.784 5.32651
361.275 5.27526
361.765 5.22235
362.256 5.16769
362.747 5.11124
363.282 5.04755
363.817 4.98156
364.353 4.91307
364.888 4.84200
365.423 4.76830
365.959 4.69189
366.494 4.61269
367.029 4.53066
367.520 4.45293
368.011 4.37281
368.502 4.29030
368.992 4.20551
369.483 4.11855
369.729 4.07434
369.974 4.02970
370.219 3.98465
370.465 3.93927
370.710 3.89361
370.955 3.84777
371.357 3.77257
371.758 3.69766
372.160 3.62372
372.361 3.58737
372.561 3.55163
372.762 3.51663
372.963 3.48257
373.164 3.44961
373.364 3.41804
373.565 3.38809
373.766 3.36011
373.967 3.33444
374.167 3.31153
374.413 3.28793
374.658 3.27017
374.904 3.25947
375.149 3.25730
375.394 3.26544
375.640 3.28606
375.885 3.32176
376.130 3.37571
376.292 3.42315
376.454 3.48151
376.616 3.55237
376.777 3.63751
376.939 3.73910
377.020 3.79678
377.101 3.85944
377.182 3.92757
377.263 4.00143
377.343 4.08163
377.424 4.16843
377.486 4.23918
377.547 4.31421
377.608 4.39402
377.670 4.47862
377.731 4.56858
377.792 4.66392
377.854 4.76512
377.915 4.87252
377.993 5.01897
378.032 5.09657
378.071 5.17698
378.110 5.26071
378.149 5.34748
378.188 5.43762
378.227 5.53126
378.261 5.61461
378.308 5.73733
378.356 5.86592
378.403 6.00068
378.450 6.14163
378.506 6.31667
378.562 6.50176
378.618 6.69754
378.673 6.90431
378.729 7.12355
378.785 7.35570
378.813 7.47687
378.841 7.60160
378.869 7.73000
378.896 7.86171
378.947 8.10950
378.997 8.37078
379.022 8.50673
379.047 8.64639
379.072 8.78985
379.097 8.93725
379.122 9.08870
379.147 9.24434
379.173 9.40431
379.198 9.56874
379.223 9.73778
379.248 9.91158
379.273 10.0903
379.298 10.2734
379.323 10.4624
379.348 10.6569
379.373 10.8570
379.398 11.0630
379.423 11.2749
379.449 11.4931
379.474 11.7177
379.499 11.9490
379.524 12.1873
379.549 12.4327
379.599 12.9462
379.649 13.4916
379.699 14.0704
379.730 14.4431
379.761 14.8305
379.792 15.2331
379.822 15.6504
379.853 16.0858
379.884 16.5389
379.914 17.0106
379.945 17.5002
379.976 18.0120
380.006 18.5454
380.037 19.1017
380.068 19.6801
380.098 20.2859
380.129 20.9164
380.160 21.5773
380.190 22.2660
380.221 22.9888
380.252 23.7454
380.282 24.5379
380.313 25.3657
380.344 26.2367
380.374 27.1509
380.405 28.1112
380.436 29.1173
380.466 30.1792
380.497 31.2973
380.528 32.4758
380.558 33.7148
380.589 35.0274
380.620 36.4148
380.650 37.8830
380.681 39.4330
380.712 41.0822
380.742 42.8333
380.773 44.6949
380.804 46.6699
380.834 48.7815
380.865 51.0351
380.896 53.4433
380.926 56.0115
380.957 58.7721
380.988 61.7339
381.018 64.9159
381.049 68.3273
381.080 72.0133
381.110 75.9747
381.141 80.2651
381.172 84.8863
381.195 88.7228
381.219 92.8019
381.243 97.1409
381.266 101.759
381.290 106.675
381.314 111.911
381.338 117.488
381.361 123.431
381.385 129.765
381.409 136.515
381.432 143.710
381.456 151.377
381.480 159.548
381.503 168.253
381.527 177.525
381.551 187.397
381.582 201.135
381.612 216.015
381.643 232.118
381.674 249.465
381.704 268.251
381.735 288.501
381.766 310.296
381.796 333.635
381.827 358.742
381.858 385.615
381.888 414.316
381.919 444.797
381.950 477.303
381.980 511.772
382.011 548.226
382.042 586.543
382.072 626.967
382.103 669.348
382.134 713.642
382.164 759.629
382.195 807.524
382.226 856.905
382.287 960.208
382.343 1058.36
382.399 1159.12
382.510 1362.01
382.571 1470.41
382.633 1572.94
382.700 1675.17
382.733 1721.41
382.766 1763.91
382.817 1819.87
382.867 1865.50
382.917 1899.87
382.967 1922.27
383.000 1930.37
383.017 1932.36
383.071 1929.13
383.126 1911.30
383.180 1879.44
383.235 1834.45
383.275 1793.12
383.315 1745.89
383.356 1693.17
383.396 1635.93
383.436 1576.64
383.475 1514.34
383.553 1383.62
383.667 1187.45
383.724 1090.67
383.781 996.772
383.820 934.492
383.859 874.449
383.899 816.897
383.938 762.030
383.977 709.988
384.016 660.863
384.055 614.696
384.095 571.598
384.134 531.313
384.173 493.891
384.212 459.242
384.251 427.254
384.291 397.801
384.330 370.745
384.369 345.940
384.408 323.292
384.440 306.157
384.472 290.249
384.504 275.488
384.536 261.837
384.568 249.136
384.600 237.391
384.633 226.461
384.665 216.350
384.697 206.933
384.729 198.185
384.761 190.052
384.793 182.507
384.825 175.458
384.857 168.905
384.889 162.767
384.921 157.049
384.960 150.538
384.999 144.522
385.039 138.951
385.078 133.781
385.117 128.974
385.156 124.494
385.195 120.312
385.235 116.408
385.274 112.739
385.313 109.293
385.352 106.051
385.391 102.995
385.431 100.110
385.470 97.3827
385.509 94.8001
385.548 92.3572
385.591 89.8239
385.634 87.4318
385.676 85.1592
385.719 83.0073
385.805 79.0120
385.890 75.3872
385.976 72.0847
386.061 69.0642
386.147 66.2920
386.232 63.7395
386.310 61.5712
386.389 59.5508
386.467 57.6642
386.546 55.9012
386.624 54.2463
386.702 52.6922
386.781 51.2302
386.859 49.8545
386.937 48.5546
387.016 47.3263
387.094 46.1640
387.173 45.0642
387.251 44.0196
387.329 43.0287
387.408 42.0853
387.486 41.1885
387.643 39.5170
387.799 37.9946
387.956 36.6015
388.113 35.3239
388.270 34.1472
388.426 33.0617
388.583 32.0564
388.740 31.1243
388.868 30.4100
388.996 29.7363
389.125 29.0991
389.253 28.4965
389.381 27.9249
389.509 27.3828
389.638 26.8673
389.766 26.3774
389.894 25.9104
390.022 25.4656
390.151 25.0408
390.279 24.6354
390.535 23.8768
390.792 23.1814
390.949 22.7841
391.105 22.4063
391.262 22.0463
391.419 21.7034
391.576 21.3759
391.732 21.0632
392.046 20.4781
392.359 19.9413
392.673 19.4473
392.986 18.9914
393.300 18.5693
393.642 18.1433
393.984 17.7495
394.326 17.3844
394.668 17.0452
395.010 16.7293
395.352 16.4344
395.694 16.1586
396.036 15.9000
396.349 15.6765
396.663 15.4651
396.976 15.2647
397.290 15.0747
397.603 14.8943
397.917 14.7228
398.230 14.5596
398.544 14.4040
398.857 14.2556
399.171 14.1139
399.484 13.9785
399.798 13.8489
400.111 13.7248
400.425 13.6059
401.052 13.3823
401.679 13.1758
402.306 12.9847
402.933 12.8072
403.559 12.6421
404.186 12.4879
404.813 12.3438
405.440 12.2087
406.067 12.0819
406.580 11.9838
407.093 11.8903
407.606 11.8014
408.119 11.7166
408.632 11.6354
409.145 11.5577
409.658 11.4832
410.171 11.4118
410.684 11.3434
411.197 11.2776
412.223 11.1538
413.249 11.0392
414.275 10.9327
414.902 10.8713
415.529 10.8125
416.156 10.7561
416.783 10.7020
417.410 10.6500
418.037 10.6000
419.291 10.5056
420.545 10.4180
421.799 10.3364
423.053 10.2603
424.307 10.1890
425.789 10.1106
427.271 10.0376
428.753 9.96966
430.235 9.90617
431.717 9.84673
433.198 9.79125
434.680 9.73872
436.162 9.68924
437.416 9.64961
438.670 9.61177
439.924 9.57560
441.178 9.54110
442.432 9.50807
443.686 9.47638
444.940 9.44604
446.194 9.41695
447.448 9.38894
448.702 9.36203
451.210 9.31122
453.718 9.26402
456.226 9.22001
458.734 9.17892
461.241 9.14040
463.749 9.10423
466.257 9.07021
468.765 9.03809
471.273 9.00775
473.781 8.97902
476.289 8.95175
479.253 8.92146
482.217 8.89260
485.181 8.86538
488.145 8.83967
491.108 8.81524
494.072 8.79194
497.036 8.76972
500.000 8.74852
504.784 8.71634
509.567 8.68633
514.351 8.65822
519.134 8.63183
523.917 8.60715
528.701 8.58363
533.484 8.56136
538.268 8.54025
545.785 8.50924
549.543 8.49446
553.302 8.48032
560.819 8.45331
568.335 8.42807
575.852 8.40422
583.369 8.38175
590.886 8.36045
598.403 8.34014
604.553 8.32428
610.703 8.30900
623.004 8.28007
635.304 8.25290
647.604 8.22728
659.905 8.20302
672.205 8.17994
684.505 8.15792
696.806 8.13685
706.373 8.12108
715.940 8.10577
725.507 8.09088
735.073 8.07632
740.540 8.06820
748.057 8.05723
755.574 8.04647
763.091 8.03591
770.608 8.02556
778.125 8.01540
785.642 8.00547
789.400 8.00058
793.158 7.99577
796.917 7.99102
800.675 7.98634
803.750 7.98258
806.825 7.97891
809.901 7.97532
812.976 7.97186
816.051 7.96854
819.126 7.96542
820.663 7.96396
822.201 7.96259
823.738 7.96133
825.276 7.96020
826.643 7.95934
828.009 7.95864
829.376 7.95816
830.743 7.95795
832.109 7.95809
832.793 7.95832
833.476 7.95870
834.160 7.95925
834.843 7.95999
835.526 7.96097
836.210 7.96223
836.893 7.96383
837.576 7.96586
838.260 7.96841
838.943 7.97161
839.626 7.97565
839.968 7.97805
840.310 7.98077
840.651 7.98386
840.993 7.98737
841.335 7.99137
841.676 7.99594
842.061 8.00191
842.445 8.00893
842.830 8.01724
843.214 8.02716
843.406 8.03286
843.598 8.03913
843.791 8.04605
843.983 8.05371
844.175 8.06224
844.367 8.07175
844.559 8.08242
844.751 8.09442
844.976 8.11045
845.200 8.12910
845.312 8.13961
845.424 8.15102
845.536 8.16345
845.648 8.17703
845.761 8.19192
845.873 8.20830
845.985 8.22640
846.097 8.24650
846.209 8.26894
846.321 8.29419
846.433 8.32282
846.545 8.35563
846.604 8.37486
846.663 8.39569
846.722 8.41839
846.780 8.44323
846.839 8.47060
846.898 8.50081
846.956 8.53439
847.015 8.57191
847.074 8.61414
847.133 8.66178
847.191 8.71586
847.250 8.77756
847.309 8.84827
847.367 8.92962
847.397 8.97494
847.426 9.02350
847.456 9.07592
847.485 9.13215
847.525 9.21616
847.565 9.30893
847.605 9.41192
847.645 9.52572
847.685 9.65208
847.725 9.79168
847.765 9.94660
847.805 10.1176
847.825 10.2102
847.845 10.3070
847.865 10.4088
847.885 10.5158
847.905 10.6286
847.925 10.7466
847.945 10.8704
847.965 11.0003
847.986 11.1372
848.006 11.2801
848.026 11.4298
848.046 11.5867
848.066 11.7509
848.086 11.9228
848.126 12.2907
848.155 12.5827
848.184 12.8939
848.214 13.2252
848.243 13.5763
848.272 13.9505
848.302 14.3461
848.331 14.7666
848.360 15.2099
848.390 15.6799
848.419 16.1758
848.449 16.6983
848.478 17.2462
848.507 17.8236
848.537 18.4272
848.566 19.0615
848.595 19.7225
848.641 20.8039
848.686 21.9550
848.732 23.1754
848.777 24.4639
848.822 25.8182
848.868 27.2356
848.913 28.7121
848.958 30.2393
849.017 32.2892
849.076 34.4049
849.193 38.7610
849.311 43.1418
849.428 47.3430
849.492 49.4817
849.556 51.4641
849.615 53.1184
849.674 54.5904
849.732 55.8573
849.791 56.8990
849.855 57.7599
849.905 58.2152
849.954 58.4846
850.000 58.5656
850.050 58.4645
850.100 58.1678
850.149 57.7022
850.197 57.0661
850.247 56.2237
850.297 55.2133
850.348 54.0452
850.398 52.7329
850.462 50.8750
850.526 48.8433
850.627 45.3763
850.727 41.6961
850.929 34.2136
851.011 31.2722
851.093 28.4786
851.135 27.1460
851.176 25.8621
851.217 24.6300
851.258 23.4546
851.290 22.5750
851.322 21.7323
851.354 20.9240
851.386 20.1503
851.418 19.4112
851.450 18.7064
851.482 18.0357
851.514 17.3985
851.542 16.8773
851.569 16.3818
851.597 15.9079
851.624 15.4585
851.651 15.0298
851.679 14.6241
851.706 14.2381
851.734 13.8737
851.761 13.5276
851.789 13.2017
851.816 12.8929
851.844 12.6026
851.871 12.3281
851.898 12.0706
851.926 11.8284
851.953 11.6008
851.978 11.4037
852.004 11.2178
852.029 11.0426
852.054 10.8782
852.079 10.7228
852.104 10.5771
852.129 10.4395
852.155 10.3107
852.180 10.1892
852.205 10.0755
852.230 9.96831
852.255 9.86808
852.280 9.77364
852.305 9.68538
852.331 9.60225
852.356 9.52458
852.381 9.45143
852.406 9.38283
852.431 9.31849
852.456 9.25838
852.507 9.14882
852.557 9.05229
852.607 8.96712
852.658 8.89185
852.708 8.82518
852.758 8.76598
852.795 8.72702
852.831 8.69115
852.905 8.62748
852.978 8.57290
853.051 8.52571
853.124 8.48457
853.197 8.44840
853.271 8.41634
853.344 8.38774
853.417 8.36198
853.490 8.33866
853.563 8.31741
853.636 8.29799
853.710 8.28011
853.783 8.26359
853.929 8.23409
854.039 8.21453
854.149 8.19684
854.259 8.18075
854.368 8.16608
854.478 8.15264
854.588 8.14028
854.698 8.12889
854.807 8.11838
855.027 8.09958
855.246 8.08331
855.466 8.06911
855.685 8.05663
855.887 8.04646
856.088 8.03733
856.289 8.02909
856.490 8.02162
856.692 8.01484
856.893 8.00865
857.295 7.99778
857.698 7.98856
858.100 7.98067
858.503 7.97385
858.905 7.96790
859.308 7.96266
859.710 7.95801
860.113 7.95386
860.515 7.95013
860.918 7.94675
861.320 7.94369
862.125 7.93832
862.930 7.93377
863.735 7.92984
864.540 7.92640
865.345 7.92335
866.297 7.92015
867.248 7.91727
868.200 7.91466
869.151 7.91227
870.102 7.91006
871.054 7.90800
872.005 7.90606
872.956 7.90423
874.859 7.90080
876.762 7.89765
878.665 7.89467
880.567 7.89183
883.056 7.88829
885.544 7.88490
888.032 7.88161
890.520 7.87842
893.008 7.87530
895.497 7.87223
900.473 7.86621
905.449 7.86033
910.426 7.85454
915.402 7.84884
920.378 7.84320
925.647 7.83730
930.916 7.83144
941.455 7.81987
951.993 7.80845
962.531 7.79716
981.266 7.77739
1000.00 7.75794
1021.87 7.73559
1043.74 7.71359
1065.60 7.69188
1087.47 7.67043
1109.34 7.64921
1131.20 7.62821
1153.07 7.60739
1174.94 7.58674
1202.27 7.56114
1215.94 7.54842
1229.61 7.53575
1243.27 7.52315
1256.94 7.51060
1270.61 7.49813
1284.27 7.48578
1289.57 7.48105
1294.87 7.47636
1300.16 7.47173
1305.46 7.46720
1310.75 7.46281
1313.40 7.46069
1316.05 7.45865
1318.70 7.45671
1321.35 7.45493
1323.99 7.45334
1326.64 7.45204
1328.18 7.45150
1329.72 7.45117
1331.26 7.45111
1332.79 7.45144
1334.33 7.45232
1335.10 7.45304
1335.87 7.45398
1336.64 7.45522
1337.41 7.45685
1338.17 7.45897
1338.94 7.46172
1339.58 7.46464
1340.22 7.46830
1340.87 7.47293
1341.51 7.47882
1341.83 7.48240
1342.15 7.48648
1342.47 7.49119
1342.79 7.49663
1343.11 7.50298
1343.43 7.51041
1343.75 7.51920
1344.07 7.52968
1344.37 7.54145
1344.67 7.55566
1344.97 7.57312
1345.12 7.58346
1345.26 7.59505
1345.41 7.60831
1345.56 7.62347
1345.71 7.64127
1345.86 7.66224
1346.01 7.68779
1346.16 7.71922
1346.24 7.73805
1346.31 7.75909
1346.39 7.78341
1346.46 7.81091
1346.53 7.84304
1346.61 7.88028
1346.68 7.92362
1346.76 7.97351
1346.83 8.03266
1346.91 8.10204
1346.98 8.18350
1347.06 8.27778
1347.10 8.33232
1347.13 8.38984
1347.17 8.45381
1347.21 8.52122
1347.25 8.59611
1347.28 8.67496
1347.32 8.76006
1347.36 8.85186
1347.39 8.95358
1347.43 9.06034
1347.47 9.17844
1347.51 9.30217
1347.54 9.43877
1347.58 9.58159
1347.62 9.73464
1347.66 9.89847
1347.70 10.1330
1347.75 10.3832
1347.80 10.6550
1347.85 10.9496
1347.90 11.2681
1347.94 11.6117
1347.99 11.9815
1348.04 12.3785
1348.09 12.8035
1348.14 13.2575
1348.18 13.7411
1348.23 14.2548
1348.28 14.7989
1348.33 15.3736
1348.38 15.9789
1348.42 16.6145
1348.48 17.4363
1348.54 18.3016
1348.60 19.2081
1348.66 20.1366
1348.72 21.1157
1348.78 22.1255
1348.89 24.1987
1349.15 28.8487
1349.27 30.9107
1349.39 32.8119
1349.46 33.9241
1349.53 34.9201
1349.59 35.6432
1349.65 36.2724
1349.71 36.8058
1349.77 37.2492
1349.85 37.7275
1349.91 37.9212
1349.96 38.0271
1350.00 38.0484
1350.00 38.0481
1350.02 38.0436
1350.03 38.0350
1350.05 38.0029
1350.10 37.8849
1350.16 37.6810
1350.21 37.4039
1350.26 37.0220
1350.32 36.5664
1350.37 36.0246
1350.43 35.4089
1350.50 34.5274
1350.56 33.5621
1350.67 31.8739
1350.78 30.0502
1350.89 28.0935
1351.00 26.1093
1351.11 24.1301
1351.22 22.1998
1351.33 20.3556
1351.38 19.4674
1351.44 18.6270
1351.52 17.4443
1351.58 16.6093
1351.64 15.8334
1351.68 15.3333
1351.72 14.8545
1351.76 14.3969
1351.79 13.9711
1351.83 13.5550
1351.87 13.1694
1351.91 12.7941
1351.95 12.4474
1352.01 11.9899
1352.06 11.5755
1352.09 11.3737
1352.12 11.1872
1352.14 11.0086
1352.17 10.8376
1352.20 10.6682
1352.23 10.5121
1352.25 10.3630
1352.28 10.2206
1352.31 10.0799
1352.33 9.95074
1352.36 9.82764
1352.39 9.71044
1352.42 9.59490
1352.44 9.48905
1352.50 9.29289
1352.55 9.11299
1352.61 8.95428
1352.66 8.80929
1352.72 8.68184
1352.77 8.56579
1352.82 8.46407
1352.88 8.37167
1352.93 8.28943
1352.99 8.21627
1353.04 8.15232
1353.10 8.09435
1353.15 8.04368
1353.21 7.99770
1353.26 7.95746
1353.32 7.92088
1353.37 7.88877
1353.43 7.85949
1353.48 7.83369
1353.59 7.78915
1353.70 7.75275
1353.81 7.72237
1353.92 7.69716
1354.03 7.67574
1354.13 7.65730
1354.24 7.64123
1354.35 7.62708
1354.57 7.60319
1354.77 7.58525
1354.97 7.57011
1355.17 7.55702
1355.36 7.54569
1355.56 7.53570
1355.76 7.52690
1355.96 7.51907
1356.16 7.51206
1356.55 7.50001
1356.95 7.49012
1357.35 7.48184
1357.74 7.47485
1358.30 7.46668
1358.85 7.45999
1359.41 7.45439
1359.97 7.44965
1360.52 7.44558
1361.08 7.44206
1361.63 7.43897
1362.19 7.43624
1363.30 7.43162
1364.41 7.42780
1365.52 7.42455
1366.63 7.42174
1368.14 7.41844
1369.64 7.41558
1371.15 7.41302
1372.66 7.41070
1374.17 7.40855
1375.67 7.40653
1378.69 7.40277
1381.70 7.39929
1384.72 7.39599
1387.73 7.39283
1390.74 7.38974
1395.82 7.38468
1400.90 7.37974
1405.98 7.37488
1411.05 7.37008
1421.21 7.36057
1431.36 7.35114
1441.52 7.34175
1451.67 7.33238
1471.98 7.31368
1492.29 7.29498
1512.60 7.27625
1532.90 7.25748
1573.52 7.21976
1614.14 7.18171
1664.91 7.13356
1715.68 7.08465
1741.07 7.05984
1766.45 7.03477
1791.84 7.00945
1817.22 6.98385
1845.15 6.95532
1859.11 6.94092
1873.07 6.92643
1887.04 6.91186
1901.00 6.89722
1914.96 6.88253
1928.92 6.86785
1939.08 6.85722
1949.23 6.84670
1954.62 6.84120
1960.02 6.83579
1965.41 6.83052
1970.81 6.82545
1976.20 6.82069
1978.90 6.81845
1981.60 6.81635
1984.29 6.81445
1986.99 6.81278
1989.69 6.81143
1992.39 6.81050
1994.29 6.81016
1996.19 6.81018
1998.10 6.81061
2000.00 6.81165
2001.57 6.81309
2003.14 6.81519
2004.71 6.81816
2006.29 6.82224
2007.07 6.82481
2007.86 6.82783
2008.64 6.83139
2009.43 6.83558
2010.21 6.84053
2011.00 6.84638
2011.79 6.85334
2012.57 6.86165
2013.25 6.87020
2013.93 6.88028
2014.61 6.89227
2015.29 6.90664
2015.97 6.92410
2016.32 6.93426
2016.66 6.94551
2017.00 6.95808
2017.34 6.97211
2017.68 6.98785
2018.02 7.00560
2018.41 7.02910
2018.80 7.05646
2019.20 7.08860
2019.59 7.12662
2019.78 7.14846
2019.98 7.17235
2020.18 7.19882
2020.37 7.22800
2020.57 7.26062
2020.77 7.29691
2020.96 7.33773
2021.16 7.38397
2021.39 7.44859
2021.51 7.48538
2021.63 7.52580
2021.75 7.57044
2021.87 7.62008
2021.98 7.67568
2022.10 7.73789
2022.22 7.80929
2022.34 7.89135
2022.46 7.98652
2022.57 8.09691
2022.69 8.22830
2022.75 8.30302
2022.81 8.38471
2022.87 8.47416
2022.93 8.57225
2022.99 8.67997
2023.04 8.79630
2023.12 8.95921
2023.19 9.14018
2023.26 9.34402
2023.33 9.57373
2023.40 9.83263
2023.48 10.1244
2023.51 10.2838
2023.55 10.4530
2023.58 10.6324
2023.62 10.8228
2023.66 11.0246
2023.69 11.2384
2023.73 11.4651
2023.76 11.7051
2023.80 11.9592
2023.84 12.2281
2023.87 12.5125
2023.91 12.8132
2023.94 13.1309
2023.98 13.4664
2024.02 13.8204
2024.05 14.1938
2024.09 14.5874
2024.12 15.0021
2024.16 15.4385
2024.20 15.8976
2024.24 16.4768
2024.28 17.0909
2024.33 17.7413
2024.37 18.4129
2024.41 19.1391
2024.45 19.8872
2024.50 20.6942
2024.54 21.5236
2024.58 22.4160
2024.62 23.3309
2024.67 24.3129
2024.71 25.3170
2024.75 26.3917
2024.79 27.4877
2024.84 28.6576
2024.88 29.8473
2024.95 31.9951
2025.02 34.2791
2025.09 36.6975
2025.17 39.2465
2025.24 41.9207
2025.31 44.7127
2025.38 47.6132
2025.45 50.6108
2025.62 58.0371
2025.79 65.6634
2025.94 72.1111
2026.08 78.3056
2026.22 83.9013
2026.36 88.9063
2026.43 91.2598
2026.50 93.3927
2026.57 95.2843
2026.64 96.9155
2026.72 98.2700
2026.79 99.3210
2026.87 100.137
2026.94 100.590
2027.00 100.687
2027.01 100.686
2027.03 100.667
2027.04 100.630
2027.08 100.490
2027.15 99.9719
2027.22 99.2699
2027.28 98.3374
2027.34 97.2019
2027.40 95.8591
2027.47 94.3192
2027.53 92.5934
2027.65 88.6366
2027.78 84.1016
2027.90 79.0708
2028.02 73.7552
2028.36 58.6390
2028.49 53.2012
2028.61 47.9729
2028.67 45.4608
2028.73 43.0270
2028.80 40.6780
2028.86 38.4189
2028.92 36.2540
2028.98 34.1864
2029.04 32.2185
2029.11 30.3513
2029.17 28.5854
2029.23 26.9205
2029.29 25.3553
2029.35 23.8884
2029.42 22.4960
2029.48 21.2197
2029.54 20.0333
2029.60 18.9334
2029.67 17.9162
2029.73 16.9779
2029.79 16.1142
2029.85 15.3211
2029.91 14.5944
2029.94 14.2546
2029.98 13.9297
2030.01 13.6194
2030.04 13.3231
2030.07 13.0402
2030.10 12.7703
2030.13 12.5130
2030.16 12.2676
2030.19 12.0337
2030.22 11.8110
2030.29 11.3968
2030.35 11.0217
2030.39 10.7827
2030.43 10.5648
2030.48 10.3567
2030.52 10.1671
2030.56 9.98610
2030.60 9.82131
2030.64 9.66758
2030.69 9.52418
2030.73 9.38735
2030.77 9.26278
2030.86 9.03810
2030.94 8.84018
2031.02 8.66966
2031.11 8.51892
2031.19 8.38698
2031.28 8.27115
2031.36 8.17021
2031.45 8.07978
2031.53 8.00033
2031.62 7.92852
2031.70 7.86483
2031.83 7.78134
2031.95 7.70949
2032.07 7.64652
2032.20 7.59081
2032.32 7.54112
2032.45 7.49644
2032.57 7.45602
2032.69 7.41922
2032.94 7.35460
2033.19 7.29964
2033.44 7.25227
2033.69 7.21103
2033.87 7.18417
2034.05 7.15978
2034.41 7.11678
2034.77 7.08025
2035.13 7.04892
2035.49 7.02180
2035.85 6.99814
2036.21 6.97736
2036.57 6.95900
2036.94 6.94268
2037.30 6.92811
2037.66 6.91502
2038.02 6.90322
2038.38 6.89254
2038.74 6.88282
2039.46 6.86583
2040.05 6.85399
2040.64 6.84359
2041.22 6.83439
2041.81 6.82623
2042.40 6.81890
2042.98 6.81232
2044.16 6.80095
2045.33 6.79146
2046.50 6.78343
2047.68 6.77650
2048.85 6.77041
2050.20 6.76425
2051.56 6.75883
2052.91 6.75398
2054.26 6.74961
2055.62 6.74562
2056.97 6.74194
2059.68 6.73536
2062.39 6.72947
2065.09 6.72411
2067.80 6.71915
2070.51 6.71449
2074.84 6.70748
2079.17 6.70087
2084.22 6.69350
2089.28 6.68637
2094.33 6.67941
2099.38 6.67257
2104.44 6.66580
2109.49 6.65909
2119.60 6.64575
2129.71 6.63246
2139.81 6.61915
2149.92 6.60578
2160.03 6.59234
2173.02 6.57490
2186.02 6.55728
2199.01 6.53944
2212.01 6.52136
2230.78 6.49481
2249.55 6.46775
2268.32 6.44011
2287.09 6.41189
2302.97 6.38759
2310.91 6.37531
2318.86 6.36297
2326.80 6.35060
2334.74 6.33826
2338.71 6.33213
2342.68 6.32607
2346.65 6.32009
2350.62 6.31422
2353.69 6.30982
2356.76 6.30559
2359.83 6.30159
2362.89 6.29792
2365.96 6.29472
2369.03 6.29220
2370.56 6.29134
2372.10 6.29082
2373.63 6.29075
2375.17 6.29126
2376.52 6.29235
2377.87 6.29422
2379.23 6.29712
2380.58 6.30139
2381.26 6.30421
2381.94 6.30761
2382.61 6.31172
2383.29 6.31667
2383.97 6.32267
2384.64 6.32996
2385.32 6.33886
2386.00 6.34979
2386.58 6.36139
2387.17 6.37551
2387.76 6.39290
2388.34 6.41457
2388.64 6.42751
2388.93 6.44211
2389.22 6.45870
2389.52 6.47768
2389.81 6.49962
2390.10 6.52502
2390.40 6.55484
2390.69 6.59029
2390.96 6.62967
2391.23 6.67767
2391.37 6.70603
2391.50 6.73781
2391.64 6.77398
2391.77 6.81558
2391.91 6.86434
2392.04 6.92129
2392.18 6.98953
2392.31 7.07098
2392.45 7.17056
2392.52 7.22838
2392.58 7.29149
2392.65 7.36253
2392.72 7.44027
2392.79 7.52798
2392.85 7.62412
2392.94 7.76177
2393.02 7.91935
2393.11 8.09975
2393.19 8.30356
2393.28 8.53913
2393.36 8.80469
2393.41 8.95454
2393.45 9.11073
2393.49 9.27718
2393.53 9.45447
2393.57 9.64784
2393.62 9.84892
2393.66 10.0680
2393.70 10.2954
2393.74 10.5428
2393.79 10.7993
2393.83 11.0712
2393.87 11.3593
2393.91 11.6715
2393.96 11.9943
2394.00 12.3352
2394.04 12.6951
2394.08 13.0838
2394.12 13.4841
2394.17 13.9054
2394.21 14.3484
2394.26 14.9509
2394.32 15.5915
2394.37 16.2716
2394.42 16.9786
2394.48 17.7401
2394.53 18.5289
2394.58 19.3754
2394.64 20.2489
2394.69 21.1828
2394.75 22.1611
2394.80 23.1840
2394.85 24.2309
2394.91 25.3411
2394.96 26.4727
2395.07 28.8796
2395.13 30.3457
2395.19 31.8608
2395.31 35.0236
2395.44 38.3344
2395.56 41.7504
2395.92 51.7923
2396.05 55.0991
2396.17 58.1804
2396.30 60.9943
2396.42 63.4563
2396.49 64.7544
2396.57 65.8861
2396.69 67.4316
2396.75 68.0281
2396.81 68.4969
2396.89 68.8769
2396.96 69.0755
2397.00 69.1100
2397.07 69.0200
2397.14 68.7539
2397.21 68.3434
2397.28 67.7814
2397.35 67.0371
2397.42 66.1383
2397.49 65.1084
2397.55 63.9617
2397.66 62.0358
2397.76 59.8949
2397.89 56.5951
2398.03 53.0321
2398.17 49.2790
2398.31 45.4297
2398.57 38.1111
2398.70 34.6062
2398.84 31.2742
2398.92 29.3091
2399.00 27.4331
2399.08 25.6518
2399.16 23.9891
2399.25 22.4063
2399.33 20.9432
2399.41 19.5636
2399.49 18.3001
2399.56 17.2859
2399.63 16.3551
2399.70 15.4904
2399.77 14.6895
2399.84 13.9499
2399.90 13.2685
2399.94 12.9443
2399.97 12.6426
2400.01 12.3453
2400.04 12.0690
2400.08 11.7970
2400.11 11.5374
2400.15 11.2895
2400.18 11.0598
2400.25 10.6252
2400.32 10.2305
2400.39 9.87287
2400.46 9.54931
2400.53 9.25710
2400.60 8.99361
2400.66 8.77599
2400.72 8.57843
2400.78 8.39924
2400.85 8.23682
2400.91 8.08968
2400.97 7.95645
2401.04 7.83583
2401.10 7.72829
2401.16 7.62926
2401.22 7.53957
2401.29 7.45830
2401.35 7.38571
2401.41 7.31870
2401.48 7.25782
2401.60 7.15270
2401.73 7.06437
2401.85 6.99023
2401.98 6.92746
2402.10 6.87421
2402.23 6.82787
2402.35 6.78780
2402.48 6.75225
2402.61 6.72094
2402.82 6.67462
2403.03 6.63548
2403.25 6.60183
2403.46 6.57264
2403.67 6.54680
2403.89 6.52394
2404.10 6.50339
2404.31 6.48498
2404.74 6.45303
2405.17 6.42651
2405.60 6.40414
2406.02 6.38504
2406.43 6.36943
2406.83 6.35578
2407.23 6.34373
2407.63 6.33301
2408.03 6.32341
2408.44 6.31478
2409.24 6.29985
2409.99 6.28811
2410.75 6.27806
2411.50 6.26936
2412.26 6.26173
2413.01 6.25498
2413.76 6.24894
2415.27 6.23858
2416.78 6.22986
2418.29 6.22233
2419.80 6.21569
2421.30 6.20973
2423.72 6.20123
2426.13 6.19369
2429.15 6.18512
2432.16 6.17719
2435.18 6.16973
2438.19 6.16259
2441.21 6.15569
2444.23 6.14895
2447.24 6.14234
2450.26 6.13582
2456.29 6.12293
2462.32 6.11017
2468.35 6.09745
2474.38 6.08472
2483.23 6.06595
2492.08 6.04701
2500.93 6.02783
2509.77 6.00839
2527.46 5.96860
2545.16 5.92747
2551.59 5.91214
2569.29 5.86884
2586.98 5.82394
2604.67 5.77720
2622.37 5.72836
2640.06 5.67749
2657.75 5.62412
2675.45 5.56819
2693.14 5.50959
2710.83 5.44765
2728.53 5.38251
2746.22 5.31365
2763.91 5.24048
2781.61 5.16306
2799.30 5.08033
2816.99 4.99198
2834.68 4.89767
2847.55 4.82449
2860.42 4.74722
2873.29 4.66548
2886.16 4.57884
2899.02 4.48686
2911.89 4.38893
2924.76 4.28436
2937.63 4.17249
2946.47 4.09084
2955.32 4.00515
2964.17 3.91499
2973.01 3.81988
2981.86 3.71970
2990.71 3.61370
2999.56 3.50154
3008.40 3.38285
3015.64 3.28019
3022.88 3.17228
3030.12 3.05874
3037.35 2.93922
3044.59 2.81330
3051.83 2.68054
3059.07 2.54068
3066.31 2.39263
3070.73 2.29807
3075.15 2.20034
3079.58 2.09930
3084.00 1.99491
3088.42 1.88709
3092.85 1.77585
3097.27 1.66119
3101.69 1.54318
3106.12 1.42194
3110.54 1.29779
3114.96 1.17109
3119.39 1.04245
3121.60 0.977629
3123.81 0.912667
3126.02 0.847727
3128.23 0.783031
3130.45 0.718746
3132.66 0.655208
3134.87 0.592667
3137.08 0.531442
3138.69 0.488005
3140.30 0.445829
3141.91 0.405047
3143.51 0.365932
3145.12 0.328698
3145.93 0.310914
3146.73 0.293749
3147.54 0.277231
3148.34 0.261451
3149.14 0.246437
3149.95 0.232247
3150.90 0.216529
3151.86 0.202185
3152.81 0.189319
3153.77 0.178057
3154.72 0.168537
3155.68 0.160906
3156.16 0.157847
3156.63 0.155329
3157.11 0.153367
3157.59 0.151993
3158.19 0.151130
3158.49 0.151081
3158.80 0.151295
3159.10 0.151780
3159.40 0.152540
3159.70 0.153589
3160.00 0.154925
3160.35 0.156868
3160.71 0.159233
3161.06 0.162032
3161.41 0.165269
3161.76 0.168977
3162.11 0.173161
3162.46 0.177836
3162.82 0.183001
3163.42 0.193111
3164.02 0.204815
3164.63 0.218212
3165.23 0.233393
3165.83 0.250486
3166.44 0.269540
3167.04 0.290697
3167.64 0.314074
3168.19 0.337569
3168.75 0.363133
3169.30 0.390871
3169.85 0.420894
3170.41 0.453319
3170.96 0.488269
3171.51 0.525875
3172.06 0.566201
3172.62 0.609538
3173.17 0.655970
3173.72 0.705662
3174.28 0.758787
3174.83 0.815529
3175.38 0.876081
3175.94 0.940652
3176.49 1.00946
3177.04 1.08273
3177.59 1.16073
3178.15 1.24369
3178.70 1.33192
3179.25 1.42570
3179.81 1.52534
3180.36 1.63119
3180.91 1.74339
3181.46 1.86273
3182.02 1.98942
3182.57 2.12389
3183.12 2.26661
3183.68 2.41807
3184.23 2.57880
3184.78 2.74937
3185.33 2.93005
3185.89 3.12214
3186.44 3.32603
3186.99 3.54246
3187.55 3.77224
3188.10 4.01624
3188.65 4.27538
3189.21 4.55067
3189.76 4.84319
3190.31 5.15410
3190.86 5.48467
3191.42 5.83626
3191.97 6.21034
3192.52 6.60851
3193.08 7.03249
3193.63 7.48416
3194.18 7.96467
3194.73 8.47796
3195.29 9.02560
3195.84 9.61024
3196.39 10.2347
3196.95 10.9022
3197.50 11.6162
3198.05 12.3803
3198.61 13.1987
3199.16 14.0760
3199.71 15.0171
3200.26 16.0276
3200.82 17.1135
3201.37 18.2814
3201.92 19.5389
3202.48 20.8941
3203.03 22.3533
3203.58 23.9321
3204.13 25.6392
3204.69 27.4871
3205.24 29.4901
3205.79 31.6638
3206.35 34.0260
3206.90 36.5967
3207.45 39.3929
3208.00 42.4502
3208.56 45.7921
3209.11 49.4513
3209.66 53.4644
3210.22 57.8733
3210.77 62.7254
3211.05 65.3392
3211.32 68.0750
3211.60 70.9607
3211.88 73.9840
3212.15 77.1758
3212.43 80.5229
3212.71 84.0600
3212.98 87.7725
3213.26 91.6995
3213.53 95.8251
3213.81 100.193
3214.09 104.786
3214.36 109.653
3214.64 114.775
3214.92 120.207
3215.19 125.928
3215.47 132.000
3215.75 138.400
3216.02 145.171
3216.30 152.337
3216.58 159.950
3216.85 167.982
3217.13 176.518
3217.40 185.524
3217.68 195.094
3217.96 205.188
3218.23 215.872
3218.51 227.173
3218.79 239.166
3219.06 251.794
3219.34 265.176
3219.62 279.239
3219.89 294.107
3220.17 309.690
3220.44 326.052
3220.72 343.198
3221.02 362.385
3221.31 382.376
3221.90 424.884
3222.49 470.227
3223.08 517.479
3223.66 565.561
3224.25 612.766
3224.84 657.147
3225.14 677.583
3225.43 696.521
3225.82 719.052
3226.22 737.849
3226.61 752.539
3227.00 762.699
3227.39 768.171
3227.79 768.869
3228.10 765.990
3228.42 760.145
3228.74 751.512
3229.06 740.318
3229.38 726.824
3229.70 711.322
3230.02 694.116
3230.34 675.515
3230.98 635.328
3231.61 592.989
3232.25 550.343
3232.89 508.851
3233.32 482.138
3233.74 456.596
3234.17 432.230
3234.59 409.222
3235.02 387.491
3235.45 367.131
3235.87 348.017
3236.30 330.190
3236.72 313.923
3237.13 298.758
3237.55 284.592
3237.96 271.363
3238.38 258.977
3238.79 247.434
3239.21 236.645
3239.62 226.554
3240.02 217.507
3240.42 209.029
3240.81 201.037
3241.21 193.536
3241.61 186.454
3242.00 179.795
3242.40 173.512
3242.79 167.579
3243.19 161.958
3243.59 156.655
3243.98 151.635
3244.38 146.879
3244.78 142.358
3245.17 138.079
3245.57 134.014
3245.96 130.150
3246.38 126.293
3246.79 122.639
3247.21 119.164
3247.62 115.858
3248.46 109.703
3249.29 104.112
3250.12 99.0040
3250.95 94.3369
3251.78 90.0551
3252.61 86.1168
3253.51 82.1670
3254.42 78.5421
3255.32 75.2065
3256.23 72.1299
3257.14 69.2861
3258.04 66.6521
3258.95 64.2066
3259.85 61.9300
3260.69 59.9760
3261.52 58.1413
3262.35 56.4125
3263.18 54.7854
3264.01 53.2485
3264.84 51.7983
3265.67 50.4267
3266.50 49.1276
3267.33 47.8945
3268.16 46.7255
3268.99 45.6134
3269.82 44.5568
3270.65 43.5496
3271.48 42.5908
3273.14 40.8028
3274.80 39.1690
3276.46 37.6721
3278.12 36.2964
3279.78 35.0284
3281.45 33.8565
3283.11 32.7707
3284.77 31.7622
3286.43 30.8240
3287.64 30.1811
3288.84 29.5693
3290.05 28.9864
3291.26 28.4307
3292.47 27.9008
3293.68 27.3953
3296.09 26.4487
3298.51 25.5775
3300.92 24.7754
3303.34 24.0349
3305.75 23.3496
3307.41 22.9072
3309.08 22.4865
3310.74 22.0859
3312.40 21.7040
3315.72 20.9917
3319.04 20.3410
3322.36 19.7440
3325.68 19.1949
3329.01 18.6879
3332.33 18.2187
3335.65 17.7832
3338.97 17.3780
3342.29 17.0000
3345.61 16.6469
3348.94 16.3160
3352.26 16.0056
3355.58 15.7136
3358.90 15.4395
3362.22 15.1811
3365.54 14.9358
3368.87 14.7033
3372.19 14.4835
3378.83 14.0761
3385.47 13.7077
3392.12 13.3722
3398.76 13.0660
3405.40 12.7853
3412.05 12.5267
3418.69 12.2881
3425.33 12.0671
3431.98 11.8617
3438.62 11.6704
3445.26 11.4917
3451.91 11.3245
3458.55 11.1676
3465.19 11.0200
3476.06 10.7967
3486.93 10.5940
3497.80 10.4078
3508.67 10.2364
3519.55 10.0781
3530.42 9.93132
3541.29 9.79492
3552.16 9.66789
3565.44 9.52414
3578.73 9.39080
3592.02 9.26700
3605.30 9.15203
3618.59 9.04419
3631.88 8.94337
3645.16 8.84859
3658.45 8.75907
3672.95 8.66733
3687.44 8.58059
3701.93 8.49890
3716.43 8.42129
3729.71 8.35377
3743.00 8.28940
3756.29 8.22799
3762.93 8.19838
3769.57 8.16950
3779.84 8.12639
3784.98 8.10559
3790.11 8.08537
3795.24 8.06580
3800.38 8.04701
3805.51 8.02929
3808.08 8.02095
3810.64 8.01304
3813.06 8.00609
3815.47 7.99973
3817.89 7.99412
3820.31 7.98950
3822.72 7.98617
3825.14 7.98457
3827.55 7.98547
3828.76 7.98724
3829.97 7.99013
3831.18 7.99444
3832.38 8.00051
3833.44 8.00766
3834.50 8.01697
3835.55 8.02905
3836.61 8.04474
3837.67 8.06527
3838.20 8.07788
3838.73 8.09238
3839.25 8.10918
3839.78 8.12866
3840.31 8.15144
3840.84 8.17816
3841.33 8.20738
3841.82 8.24182
3842.31 8.28278
3842.80 8.33192
3843.29 8.39190
3843.54 8.42691
3843.78 8.46606
3844.03 8.51033
3844.27 8.56035
3844.52 8.61761
3844.76 8.68390
3845.07 8.78174
3845.22 8.83922
3845.37 8.90385
3845.52 8.97704
3845.67 9.06053
3845.82 9.15649
3845.97 9.26757
3846.12 9.39705
3846.27 9.54890
3846.43 9.72797
3846.58 9.94008
3846.73 10.1922
3846.88 10.4925
3846.95 10.6649
3847.03 10.8507
3847.10 11.0536
3847.18 11.2749
3847.27 11.5844
3847.37 11.9259
3847.46 12.3104
3847.56 12.7337
3847.65 13.2090
3847.75 13.7308
3847.84 14.3083
3847.93 14.9462
3848.03 15.6571
3848.12 16.4310
3848.22 17.2894
3848.31 18.2193
3848.36 18.7265
3848.41 19.2451
3848.50 20.3500
3848.60 21.5487
3848.69 22.8450
3848.79 24.3973
3848.90 26.0774
3849.00 27.8881
3849.11 29.8312
3849.21 31.9070
3849.31 34.1143
3849.42 36.4502
3849.52 38.8858
3849.68 42.9200
3849.84 47.1727
3850.00 51.6507
3850.16 56.2402
3850.58 68.2732
3850.79 74.0234
3850.89 76.7397
3850.99 79.2916
3851.12 82.3214
3851.26 85.0352
3851.36 86.9206
3851.46 88.5611
3851.57 89.9388
3851.67 91.0293
3851.79 91.9341
3851.91 92.4457
3852.00 92.5667
3852.11 92.3987
3852.22 91.8887
3852.34 90.9504
3852.46 89.6398
3852.59 87.7983
3852.72 85.5599
3852.85 82.9624
3852.98 80.0487
3853.13 76.2520
3853.29 72.1862
3853.55 64.8674
3853.80 57.3345
3854.06 49.9093
3854.19 46.3414
3854.32 42.9101
3854.44 40.0572
3854.55 37.3616
3854.66 34.8068
3854.77 32.3994
3854.89 30.1436
3855.00 28.0411
3855.11 26.0918
3855.17 25.1739
3855.22 24.2935
3855.30 23.1428
3855.38 22.0602
3855.45 21.0438
3855.53 20.1036
3855.61 19.2125
3855.68 18.3809
3855.76 17.6063
3855.84 16.8951
3855.91 16.2261
3855.99 15.6061
3856.07 15.0326
3856.14 14.5094
3856.22 14.0201
3856.30 13.5694
3856.37 13.1547
3856.45 12.7783
3856.51 12.4806
3856.58 12.2038
3856.64 11.9466
3856.71 11.7077
3856.77 11.4859
3856.84 11.2800
3856.97 10.9144
3857.10 10.5973
3857.23 10.3244
3857.36 10.0894
3857.49 9.88814
3857.62 9.71274
3857.75 9.56068
3857.88 9.42837
3858.01 9.31359
3858.14 9.21199
3858.27 9.12235
3858.40 9.04283
3858.53 8.97241
3858.75 8.86620
3858.97 8.77715
3859.20 8.70099
3859.42 8.63498
3859.65 8.57685
3859.87 8.52559
3860.10 8.47981
3860.32 8.43863
3860.77 8.36730
3861.22 8.30793
3861.67 8.25754
3862.11 8.21446
3862.54 8.17894
3862.96 8.14772
3863.39 8.12007
3863.81 8.09543
3864.66 8.05341
3865.51 8.01898
3866.36 7.99019
3867.21 7.96579
3868.06 7.94481
3868.91 7.92658
3870.04 7.90563
3871.18 7.88770
3871.93 7.87708
3873.25 7.86054
3874.58 7.84605
3875.90 7.83318
3877.22 7.82162
3878.54 7.81109
3879.86 7.80143
3882.51 7.78411
3885.53 7.76675
3887.60 7.75590
3889.68 7.74569
3893.83 7.72677
3897.99 7.70934
3902.14 7.69297
3906.30 7.67737
3910.45 7.66236
3914.60 7.64782
3918.76 7.63367
3927.07 7.60625
3935.37 7.57974
3943.68 7.55395
3951.99 7.52877
3968.61 7.47986
3985.22 7.43257
4009.39 7.36614
4033.56 7.30205
4057.73 7.23991
4081.90 7.17943
4107.58 7.11672
4133.26 7.05535
4184.61 6.93574
4235.97 6.81870
4287.33 6.70261
4329.63 6.60623
4371.92 6.50769
4414.22 6.40449
4435.37 6.35004
4456.51 6.29269
4472.37 6.24697
4488.23 6.19806
4504.10 6.14476
4519.96 6.08518
4528.26 6.05041
4536.57 6.01235
4544.88 5.97000
4553.19 5.92194
4562.25 5.86053
4566.78 5.82497
4571.31 5.78517
4575.47 5.74400
4579.62 5.69716
4583.78 5.64302
4587.93 5.57930
4590.58 5.53228
4593.22 5.47893
4595.86 5.41752
4598.50 5.34585
4600.58 5.28039
4602.66 5.20468
4604.74 5.11591
4605.77 5.06544
4606.81 5.01017
4608.23 4.92552
4609.65 4.82804
4610.35 4.77347
4611.06 4.71434
4611.77 4.65006
4612.48 4.57991
4613.52 4.46456
4614.04 4.40053
4614.55 4.33162
4615.07 4.25727
4615.59 4.17687
4616.11 4.08976
4616.63 3.99530
4617.01 3.92155
4617.39 3.84354
4617.76 3.76152
4618.14 3.67661
4618.52 3.59056
4618.71 3.54851
4618.90 3.50849
4619.09 3.47140
4619.27 3.43925
4619.46 3.41448
4619.65 3.40035
4619.78 3.39885
4619.91 3.40605
4620.04 3.42396
4620.17 3.45496
4620.30 3.50183
4620.43 3.56780
4620.56 3.65658
4620.69 3.77141
4620.82 3.91884
4620.95 4.10349
4621.08 4.33137
4621.15 4.46356
4621.21 4.60909
4621.28 4.76889
4621.34 4.94391
4621.41 5.13514
4621.47 5.34363
4621.54 5.57042
4621.60 5.81661
4621.67 6.08331
4621.73 6.36706
4621.82 6.82932
4621.92 7.33824
4622.01 7.90830
4622.11 8.53113
4622.20 9.22358
4622.30 9.97458
4622.39 10.7944
4622.48 11.6861
4622.58 12.6634
4622.67 13.7082
4622.77 14.8452
4622.86 16.0520
4622.96 17.3559
4623.05 18.7301
4623.15 20.1881
4623.24 21.7293
4623.33 23.3703
4623.43 25.0746
4623.52 26.8755
4623.62 28.7316
4623.71 30.6776
4623.81 32.6674
4624.00 36.8350
4624.11 39.5280
4624.12 39.6664
4624.14 40.1749
4624.16 40.6850
4624.21 41.7094
4624.31 44.2183
4624.42 46.7161
4624.66 52.2400
4624.77 54.9364
4624.89 57.5348
4625.02 60.3047
4625.15 62.9196
4625.26 64.9332
4625.36 66.7867
4625.49 68.8454
4625.62 70.6313
4625.79 72.5276
4625.90 73.4642
4626.00 74.1947
4626.06 74.5079
4626.17 74.9389
4626.29 75.1073
4626.41 75.0012
4626.54 74.6013
4626.66 73.9031
4626.79 72.9324
4626.91 71.7012
4627.04 70.2285
4627.22 67.6830
4627.40 64.7603
4627.53 62.5510
4627.66 60.2213
4627.91 55.3311
4628.16 50.2840
4628.28 47.7723
4628.41 45.2902
4628.53 42.8373
4628.66 40.4691
4628.78 38.1620
4628.91 35.9643
4629.04 33.8504
4629.16 31.8609
4629.29 29.9690
4629.35 29.0668
4629.41 28.2076
4629.47 27.3638
4629.54 26.5496
4629.60 25.7647
4629.66 25.0208
4629.73 24.2935
4629.79 23.5948
4629.85 22.9241
4629.91 22.2910
4629.98 21.6745
4630.04 21.0844
4630.10 20.5201
4630.16 19.9893
4630.23 19.4741
4630.29 18.9825
4630.35 18.5139
4630.42 18.0742
4630.51 17.4276
4630.61 16.8287
4630.71 16.2746
4630.80 15.7623
4630.90 15.2892
4631.00 14.8525
4631.09 14.4495
4631.19 14.0813
4631.29 13.7379
4631.38 13.4210
4631.48 13.1284
4631.58 12.8581
4631.68 12.6081
4631.77 12.3768
4631.97 11.9654
4632.09 11.7277
4632.22 11.5126
4632.34 11.3144
4632.47 11.1339
4632.72 10.8131
4632.97 10.5378
4633.22 10.2985
4633.47 10.0878
4633.72 9.90033
4633.97 9.73256
4634.34 9.51521
4634.70 9.32434
4635.07 9.15481
4635.43 9.00289
4635.80 8.86573
4636.16 8.74115
4636.89 8.52302
4637.39 8.39274
4637.90 8.27559
4638.40 8.16963
4638.90 8.07346
4639.90 7.90466
4640.91 7.76166
4642.18 7.60799
4643.46 7.47905
4644.74 7.36911
4646.02 7.27410
4648.02 7.14810
4650.03 7.04398
4652.04 6.95630
4654.04 6.88129
4656.60 6.79997
4659.15 6.73100
4661.71 6.67154
4664.26 6.61955
4668.28 6.54957
4672.29 6.49060
4676.31 6.43991
4680.32 6.39559
4685.06 6.34959
4689.81 6.30901
4699.30 6.23985
4707.33 6.19017
4715.35 6.14627
4723.38 6.10668
4731.41 6.07041
4748.93 5.99934
4766.44 5.93579
4783.96 5.87708
4801.48 5.82159
4842.35 5.69921
4883.22 5.58140
4941.61 5.41400
5000.00 5.24269
5057.75 5.06543
5115.50 4.87751
5173.25 4.67605
5231.00 4.45771
5278.25 4.26331
5325.49 4.05201
5349.12 3.93895
5372.74 3.82022
5396.37 3.69527
5419.99 3.56263
5444.93 3.41315
5469.87 3.25237
5494.80 3.07752
5507.27 2.98376
5519.74 2.88467
5533.52 2.76796
5547.30 2.64206
5561.08 2.50454
5567.97 2.43034
5574.86 2.35193
5582.08 2.26407
5589.30 2.16938
5596.52 2.06632
5603.74 1.95287
5608.33 1.87398
5612.93 1.78891
5617.52 1.69630
5622.11 1.59469
5625.72 1.50730
5629.33 1.41207
5631.14 1.36108
5632.94 1.30763
5634.75 1.25145
5636.55 1.19240
5638.35 1.13019
5640.16 1.06463
5641.96 0.995553
5643.77 0.922863
5645.57 0.846481
5647.38 0.766713
5648.28 0.725673
5649.18 0.684105
5650.08 0.642159
5650.99 0.600110
5652.01 0.552645
5653.04 0.506397
5654.06 0.462460
5655.09 0.422650
5655.60 0.405012
5656.11 0.389433
5656.63 0.376428
5657.14 0.366644
5657.65 0.360824
5658.17 0.359965
5658.68 0.365288
5659.19 0.378299
5659.52 0.391555
5659.85 0.409379
5660.17 0.432504
5660.50 0.461799
5660.79 0.493420
5661.08 0.531272
5661.36 0.576417
5661.65 0.629992
5661.94 0.693352
5662.23 0.768120
5662.51 0.856256
5662.80 0.960144
5663.07 1.07350
5663.20 1.13737
5663.33 1.20591
5663.47 1.28064
5663.60 1.36096
5663.73 1.44796
5663.87 1.54231
5664.00 1.64550
5664.13 1.75682
5664.27 1.87790
5664.40 2.00975
5664.53 2.15463
5664.67 2.31168
5664.80 2.48336
5664.93 2.67128
5665.05 2.84507
5665.16 3.03313
5665.27 3.23684
5665.38 3.45567
5665.50 3.69519
5665.61 3.95535
5665.72 4.23817
5665.83 4.54301
5665.95 4.87771
5666.06 5.24233
5666.17 5.63974
5666.29 6.06910
5666.40 6.54144
5666.51 7.05681
5666.62 7.61919
5666.74 8.22721
5666.80 8.58710
5666.86 8.96460
5666.92 9.36055
5666.98 9.76896
5667.05 10.2041
5667.11 10.6528
5667.17 11.1307
5667.23 11.6233
5667.29 12.1478
5667.35 12.6882
5667.41 13.2633
5667.48 13.8556
5667.54 14.4856
5667.60 15.1340
5667.66 15.8232
5667.72 16.5320
5667.83 17.9297
5667.95 19.4432
5668.06 21.0797
5668.17 22.8303
5668.29 24.7334
5668.40 26.7809
5668.51 28.9796
5668.62 31.3144
5668.74 33.8330
5668.85 36.5206
5668.96 39.3820
5669.07 42.3934
5669.19 45.6114
5669.30 49.0118
5669.41 52.5953
5669.53 56.3270
5669.64 60.2713
5669.75 64.3920
5669.86 68.6835
5669.98 73.0984
5670.20 82.4581
5670.43 92.2929
5670.80 109.194
5671.17 126.410
5671.39 136.730
5671.62 146.567
5671.86 156.630
5671.99 161.265
5672.11 165.586
5672.30 171.554
5672.49 176.566
5672.68 180.579
5672.87 183.479
5673.00 184.776
5673.06 185.240
5673.27 185.831
5673.48 185.049
5673.68 182.934
5673.89 179.554
5674.05 176.117
5674.21 172.032
5674.37 167.363
5674.53 162.212
5674.69 156.700
5674.84 150.874
5675.15 138.427
5675.55 121.842
5675.75 113.572
5675.95 105.455
5676.11 99.2217
5676.26 93.2191
5676.42 87.4025
5676.58 81.8713
5676.73 76.5742
5676.89 71.5919
5677.05 66.8689
5677.20 62.4685
5677.36 58.3335
5677.52 54.4881
5677.67 50.9247
5677.83 47.6531
5677.91 46.0948
5677.99 44.6190
5678.14 41.8477
5678.30 39.2889
5678.46 36.9601
5678.58 35.2909
5678.70 33.7338
5678.82 32.2817
5678.94 30.9279
5679.06 29.6658
5679.18 28.4891
5679.30 27.3918
5679.42 26.3763
5679.54 25.4202
5679.67 24.5272
5679.79 23.6925
5679.91 22.9116
5680.03 22.1803
5680.15 21.4948
5680.39 20.2518
5680.55 19.5201
5680.70 18.8468
5680.86 18.2180
5681.02 17.6369
5681.17 17.0918
5681.33 16.5859
5681.64 15.6653
5681.96 14.8523
5682.27 14.1290
5682.58 13.4812
5682.89 12.8975
5683.21 12.3687
5683.52 11.8873
5683.83 11.4471
5684.15 11.0430
5684.46 10.6706
5684.77 10.3265
5685.09 10.0075
5685.40 9.71087
5686.02 9.17614
5686.65 8.70737
5687.28 8.29307
5687.90 7.92430
5688.53 7.59396
5689.15 7.29636
5689.78 7.02687
5690.41 6.78208
5691.03 6.55806
5691.66 6.35258
5692.28 6.16342
5692.91 5.98870
5694.16 5.67639
5695.41 5.40532
5696.50 5.19825
5697.58 5.01235
5698.66 4.84425
5699.74 4.69140
5700.82 4.55160
5701.90 4.42342
5704.06 4.19601
5705.32 4.07916
5706.57 3.97145
5709.07 3.77914
5711.58 3.61199
5714.08 3.46485
5716.36 3.34523
5718.63 3.23665
5720.91 3.13725
5723.18 3.04572
5727.74 2.88194
5732.29 2.73848
5735.48 2.64748
5738.66 2.56282
5745.04 2.40884
5751.41 2.27083
5757.78 2.14444
5765.98 1.99497
5774.17 1.85651
5782.37 1.72630
5790.56 1.60245
5800.58 1.45750
5810.59 1.31816
5820.61 1.18344
5830.63 1.05279
5840.64 0.925761
5850.66 0.802552
5860.67 0.683430
5870.69 0.568964
5875.70 0.513832
5880.70 0.460017
5885.71 0.408121
5890.72 0.358173
5895.73 0.310397
5898.23 0.287406
5900.74 0.265061
5903.24 0.243400
5905.74 0.222446
5908.25 0.202230
5910.75 0.182868
5913.26 0.164389
5915.76 0.146836
5918.26 0.130266
5920.77 0.114738
5923.27 0.100318
5925.78 0.0870765
5928.28 0.0750864
5930.78 0.0644309
5932.43 0.0581706
5934.08 0.0525529
5935.73 0.0475939
5937.38 0.0433229
5939.04 0.0397671
5939.86 0.0382719
5940.69 0.0369704
5941.51 0.0358663
5942.34 0.0349629
5943.16 0.0342638
5943.99 0.0337731
5944.55 0.0335586
5945.12 0.0334469
5945.69 0.0334398
5946.26 0.0335387
5946.72 0.0336956
5947.17 0.0339218
5947.63 0.0342184
5948.08 0.0345860
5948.99 0.0355388
5949.90 0.0367839
5950.81 0.0383303
5951.72 0.0401815
5952.64 0.0423496
5953.55 0.0448386
5954.63 0.0482312
5955.71 0.0521034
5956.79 0.0564684
5957.87 0.0613344
5960.03 0.0726215
5961.11 0.0790687
5962.20 0.0860762
5963.28 0.0936678
5964.36 0.101846
5965.44 0.110634
5966.52 0.120049
5967.60 0.130119
5968.68 0.140843
5969.76 0.152248
5970.85 0.164355
5972.67 0.186390
5974.49 0.210570
5976.31 0.236996
5978.13 0.265762
5979.95 0.296974
5980.86 0.313553
5981.77 0.330786
5982.68 0.348733
5983.59 0.367373
5984.50 0.386764
5985.41 0.406876
5986.67 0.435777
5987.92 0.466134
5989.17 0.497995
5990.42 0.531419
5991.67 0.566466
5992.93 0.603194
5994.18 0.641664
5995.43 0.681937
5996.68 0.724074
5997.93 0.768143
5999.19 0.814212
6000.44 0.862352
6001.69 0.912636
6002.94 0.965142
6004.19 1.01995
6005.44 1.07709
6006.70 1.13675
6007.95 1.19898
6009.20 1.26385
6010.45 1.33148
6011.70 1.40196
6012.96 1.47541
6014.21 1.55192
6015.46 1.63162
6016.71 1.71462
6017.96 1.80106
6019.22 1.89105
6020.47 1.98474
6022.97 2.18379
6025.48 2.39941
6027.98 2.63293
6030.48 2.88579
6032.99 3.15956
6035.49 3.45598
6038.00 3.77694
6040.50 4.12451
6043.00 4.50096
6045.51 4.90864
6048.01 5.35063
6050.52 5.82982
6053.02 6.34955
6055.52 6.91354
6058.03 7.52591
6060.53 8.19120
6063.04 8.91446
6065.54 9.70101
6068.04 10.5577
6070.55 11.4913
6073.05 12.5095
6075.55 13.6211
6078.06 14.8358
6080.56 16.1647
6083.07 17.6202
6084.32 18.3996
6085.57 19.2160
6086.82 20.0714
6088.07 20.9680
6089.33 21.9080
6090.58 22.8939
6091.83 23.9281
6093.08 25.0136
6094.33 26.1532
6095.59 27.3501
6096.84 28.6075
6098.09 29.9290
6099.34 31.3184
6100.59 32.7798
6101.85 34.3173
6103.10 35.9356
6104.35 37.6396
6105.60 39.4331
6106.85 41.3244
6108.11 43.3181
6109.36 45.4205
6110.61 47.6384
6111.86 49.9790
6113.11 52.4500
6114.37 55.0595
6115.62 57.8163
6116.87 60.7296
6118.12 63.8093
6119.37 67.0658
6120.63 70.5102
6121.88 74.1542
6123.13 78.0102
6124.38 82.0913
6125.63 86.4076
6126.90 91.0555
6128.18 95.9764
6129.45 101.194
6130.72 106.718
6131.99 112.573
6133.26 118.768
6134.53 125.330
6135.80 132.266
6137.08 139.604
6138.35 147.350
6139.62 155.530
6140.89 164.145
6142.16 173.216
6143.43 182.737
6144.70 192.717
6145.98 203.155
6147.42 215.559
6148.86 228.523
6151.75 255.974
6154.64 284.923
6157.53 314.438
6160.41 343.449
6161.86 357.288
6163.30 370.394
6164.74 382.571
6166.19 393.605
6167.63 403.302
6169.08 411.488
6171.00 419.832
6172.93 425.041
6174.85 427.036
6176.42 426.328
6177.98 423.634
6179.54 419.102
6181.11 412.915
6182.67 405.281
6184.24 396.416
6185.80 386.535
6187.36 375.876
6190.49 353.172
6193.62 329.644
6196.75 306.265
6198.31 294.883
6199.88 283.799
6201.59 272.037
6203.31 260.733
6205.02 249.895
6206.74 239.548
6208.45 229.688
6210.17 220.321
6211.88 211.429
6213.60 203.006
6215.32 195.026
6217.03 187.480
6218.75 180.337
6220.46 173.586
6222.18 167.198
6223.89 161.160
6225.61 155.448
6227.32 150.043
6229.08 144.811
6230.83 139.861
6232.59 135.178
6234.34 130.746
6236.10 126.544
6237.85 122.563
6239.61 118.785
6241.36 115.200
6243.11 111.792
6244.87 108.555
6246.62 105.474
6248.38 102.543
6250.13 99.7493
6251.89 97.0880
6255.40 92.1255
6258.91 87.5975
6262.41 83.4575
6265.92 79.6615
6269.43 76.1725
6272.94 72.9581
6276.45 69.9898
6279.96 67.2429
6283.47 64.6954
6287.94 61.7109
6292.40 58.9847
6296.87 56.4865
6301.33 54.1917
6305.80 52.0864
6310.27 50.1327
6314.73 48.3220
6319.20 46.6418
6322.71 45.4048
6326.22 44.2347
6333.24 42.0757
6340.25 40.1305
6347.27 38.3708
6354.29 36.7712
6361.31 35.3128
6368.33 33.9782
6375.34 32.7523
6382.36 31.6234
6389.38 30.5805
6396.40 29.6142
6403.42 28.7172
6410.44 27.8817
6417.46 27.1022
6424.47 26.3733
6431.49 25.6899
6443.61 24.6058
6455.74 23.6306
6467.86 22.7425
6479.98 21.9347
6492.10 21.1948
6504.23 20.5134
6516.35 19.8833
6528.47 19.2994
6542.51 18.6746
6556.54 18.0951
6570.58 17.5557
6584.62 17.0520
6598.65 16.5769
6612.69 16.1277
6626.73 15.6996
6640.76 15.2882
6656.08 14.8549
6671.39 14.4315
6689.25 13.9430
6698.19 13.6978
6707.12 13.4496
6716.05 13.1964
6724.98 12.9360
6733.92 12.6653
6742.85 12.3807
6750.51 12.1224
6758.16 11.8461
6765.82 11.5471
6773.47 11.2185
6779.54 10.9315
6785.60 10.6142
6791.66 10.2584
6794.69 10.0630
6797.72 9.85362
6801.23 9.59060
6804.74 9.30201
6808.25 8.98300
6811.76 8.62749
6814.95 8.26604
6816.54 8.06945
6818.14 7.86084
6819.73 7.63902
6821.33 7.40267
6822.92 7.15026
6824.52 6.88002
6826.27 6.55962
6828.03 6.21246
6829.78 5.83499
6831.53 5.42424
6832.41 5.20496
6833.29 4.97625
6834.17 4.73751
6835.04 4.48844
6835.92 4.22856
6836.80 3.95851
6837.68 3.67832
6838.55 3.38881
6839.31 3.13221
6840.07 2.87139
6840.83 2.60881
6841.58 2.34856
6842.34 2.09559
6842.72 1.97445
6843.10 1.85896
6843.48 1.75026
6843.86 1.65080
6844.24 1.56324
6844.61 1.49106
6844.95 1.44256
6845.12 1.42519
6845.29 1.41321
6845.46 1.40708
6845.63 1.40754
6845.80 1.41534
6845.97 1.43120
6846.14 1.45624
6846.31 1.49120
6846.48 1.53765
6846.65 1.59634
6846.82 1.66942
6846.99 1.75767
6847.16 1.86397
6847.33 1.98912
6847.48 2.12667
6847.59 2.23421
6847.70 2.35275
6847.81 2.48315
6847.92 2.62494
6848.03 2.78171
6848.14 2.95325
6848.25 3.14071
6848.36 3.34336
6848.47 3.56624
6848.58 3.80897
6848.69 4.07307
6848.80 4.35745
6848.91 4.66905
6849.02 5.00406
6849.13 5.37059
6849.24 5.76407
6849.32 6.07332
6849.40 6.40093
6849.48 6.74785
6849.56 7.11038
6849.64 7.49874
6849.72 7.90956
6849.80 8.34398
6849.88 8.79729
6849.96 9.28220
6850.04 9.79440
6850.12 10.3352
6850.20 10.8987
6850.28 11.5005
6850.36 12.1352
6850.44 12.8043
6850.52 13.5002
6850.63 14.5305
6850.74 15.6359
6850.85 16.8209
6850.95 18.0781
6851.06 19.4350
6851.17 20.8716
6851.28 22.4191
6851.39 24.0538
6851.50 25.8107
6851.61 27.6799
6851.72 29.6662
6851.83 31.7543
6851.94 33.9871
6852.05 36.3281
6852.16 38.8242
6852.27 41.4338
6852.38 44.2081
6852.49 47.1269
6852.60 50.1926
6852.71 53.3775
6852.82 56.7414
6852.93 60.2567
6853.04 63.9236
6853.15 67.7062
6853.26 71.6725
6853.37 75.7863
6853.59 84.4032
6853.81 93.5569
6854.02 103.197
6854.24 113.304
6854.46 123.702
6854.90 145.102
6855.17 158.066
6855.43 170.746
6855.69 182.945
6855.95 194.412
6856.22 204.866
6856.48 214.095
6856.74 221.972
6857.00 228.277
6857.18 231.581
6857.35 234.101
6857.52 235.854
6857.70 236.815
6857.87 237.000
6858.05 236.422
6858.22 235.100
6858.40 233.081
6858.57 230.400
6858.74 227.104
6858.94 222.719
6859.14 217.700
6859.33 212.132
6859.53 206.136
6859.92 193.055
6860.31 179.202
6860.51 172.006
6860.71 164.868
6860.91 157.813
6861.11 150.897
6861.31 144.130
6861.51 137.619
6861.71 131.359
6861.90 125.371
6862.10 119.643
6862.30 114.240
6862.50 109.137
6862.70 104.332
6862.90 99.7997
6863.10 95.5758
6863.30 91.6268
6863.50 87.9403
6863.64 85.4117
6863.79 83.0097
6863.93 80.7287
6864.08 78.5629
6864.22 76.5066
6864.37 74.5543
6864.51 72.7003
6864.66 70.9392
6864.95 67.6754
6865.24 64.7235
6865.53 62.0478
6865.82 59.6242
6866.02 58.0740
6866.22 56.6250
6866.42 55.2550
6866.62 53.9709
6867.01 51.6089
6867.41 49.5002
6867.81 47.5983
6868.21 45.8829
6868.61 44.3209
6869.01 42.8996
6869.41 41.5948
6869.80 40.3957
6870.20 39.2900
6870.60 38.2698
6871.00 37.3210
6871.40 36.4408
6871.80 35.6179
6872.20 34.8507
6872.92 33.5749
6873.65 32.4348
6874.37 31.4098
6875.09 30.4847
6875.82 29.6434
6876.54 28.8769
6877.27 28.1740
6877.99 27.5287
6878.79 26.8753
6879.59 26.2760
6880.38 25.7238
6881.18 25.2132
6882.78 24.2995
6884.37 23.5056
6885.53 22.9902
6886.69 22.5200
6887.85 22.0886
6889.01 21.6918
6891.33 20.9850
6893.65 20.3742
6895.24 20.0000
6896.83 19.6579
6900.02 19.0535
6903.21 18.5357
6906.40 18.0868
6910.17 17.6266
6913.94 17.2276
6917.70 16.8779
6921.47 16.5677
6924.66 16.3309
6927.85 16.1145
6934.23 15.7317
6940.60 15.4027
6946.98 15.1156
6955.10 14.7977
6963.21 14.5215
6971.33 14.2784
6979.44 14.0608
6992.20 13.7606
7004.95 13.5000
7017.71 13.2697
7030.46 13.0635
7052.49 12.7512
7074.52 12.4803
7096.55 12.2410
7118.58 12.0259
7155.68 11.7062
7192.78 11.4271
7229.88 11.1782
7266.98 10.9533
7331.91 10.6043
7396.84 10.2974
7461.77 10.0234
7526.70 9.77277
7628.73 9.41697
7730.76 9.09316
7832.79 8.79060
7934.82 8.50090
7971.92 8.39730
8083.23 8.08730
8194.53 7.77116
8305.84 7.43829
8361.49 7.26114
8417.15 7.07530
8468.16 6.89393
8519.18 6.69994
8570.19 6.49049
8621.21 6.26175
8667.59 6.03249
8713.96 5.77897
8760.34 5.49357
8783.53 5.33707
8806.72 5.16976
8832.23 4.97046
8857.73 4.75336
8883.24 4.51564
8908.75 4.25370
8933.10 3.97698
8945.27 3.82765
8957.45 3.66992
8969.62 3.50326
8981.79 3.32710
8993.97 3.14033
9006.14 2.94271
9018.90 2.72227
9031.65 2.48761
9044.40 2.23796
9057.16 1.97291
9064.11 1.82185
9071.07 1.66639
9078.03 1.50684
9084.98 1.34370
9091.94 1.17770
9098.90 1.01000
9105.85 0.842275
9112.81 0.676900
9116.00 0.602696
9119.19 0.530042
9122.38 0.459530
9125.56 0.391770
9127.16 0.359093
9128.75 0.327379
9130.35 0.296713
9131.94 0.267205
9133.54 0.238954
9135.13 0.212123
9136.72 0.186854
9138.32 0.163328
9139.62 0.145499
9140.93 0.129081
9142.23 0.114155
9143.54 0.100861
9144.84 0.0893025
9146.14 0.0796387
9146.80 0.0755612
9147.45 0.0720137
9148.10 0.0690177
9148.75 0.0665952
9149.48 0.0646027
9150.20 0.0633799
9150.57 0.0630673
9150.93 0.0629604
9151.29 0.0630624
9151.65 0.0633779
9152.16 0.0641894
9152.67 0.0654403
9153.17 0.0671452
9153.68 0.0693179
9154.19 0.0719782
9154.70 0.0751304
9155.20 0.0787942
9155.71 0.0829851
9156.36 0.0891851
9157.01 0.0963089
9157.67 0.104401
9158.32 0.113497
9159.62 0.134858
9160.93 0.160718
9162.23 0.191462
9163.54 0.227438
9164.19 0.247529
9164.84 0.269095
9165.49 0.292195
9166.14 0.316890
9167.16 0.358656
9168.17 0.404693
9169.19 0.455276
9170.20 0.510648
9171.22 0.571242
9172.23 0.637281
9173.25 0.709257
9174.26 0.787410
9175.06 0.853485
9175.85 0.923879
9176.65 0.998816
9177.45 1.07853
9178.25 1.16328
9179.04 1.25332
9179.84 1.34895
9180.64 1.45044
9181.43 1.55828
9182.23 1.67251
9183.03 1.79362
9183.83 1.92201
9184.62 2.05806
9185.42 2.20221
9186.22 2.35493
9187.01 2.51670
9187.59 2.64042
9188.17 2.76942
9188.75 2.90393
9189.33 3.04392
9189.91 3.19011
9190.49 3.34251
9191.65 3.66670
9192.81 4.01923
9193.97 4.40196
9195.13 4.81790
9196.29 5.27010
9197.05 5.58832
9197.81 5.92463
9198.57 6.28012
9199.33 6.65595
9200.09 7.05338
9200.85 7.47373
9201.62 7.91843
9202.38 8.38898
9203.14 8.88702
9203.90 9.41425
9204.66 9.97254
9205.42 10.5639
9206.18 11.1904
9206.94 11.8545
9207.70 12.5586
9208.46 13.3046
9209.26 14.1360
9210.06 15.0213
9210.85 15.9644
9211.65 16.9695
9212.45 18.0412
9213.25 19.1842
9214.04 20.4039
9214.84 21.7061
9215.64 23.0986
9216.43 24.5847
9217.23 26.1733
9218.03 27.8724
9218.83 29.6926
9219.62 31.6386
9220.42 33.7224
9221.22 35.9547
9222.02 38.3498
9222.81 40.9142
9223.61 43.6637
9224.41 46.6123
9225.20 49.7748
9226.00 53.1670
9226.80 56.8054
9227.59 60.7072
9228.45 65.2064
9229.30 70.0464
9230.16 75.2617
9231.01 80.8630
9231.87 86.8849
9232.72 93.3334
9233.58 100.232
9234.43 107.594
9235.14 114.109
9235.86 120.954
9236.57 128.126
9237.28 135.606
9238.71 151.479
9240.14 168.359
9241.57 185.943
9242.99 203.741
9244.42 221.163
9245.14 229.519
9245.85 237.500
9246.89 248.271
9247.92 257.788
9248.96 265.798
9250.00 272.096
9250.78 275.608
9251.56 278.040
9252.34 279.381
9253.12 279.645
9253.89 278.868
9254.67 277.105
9255.45 274.430
9256.23 270.931
9257.01 266.696
9257.79 261.833
9259.34 250.605
9260.90 238.024
9262.46 224.768
9264.02 211.379
9265.57 198.255
9266.69 189.173
9267.80 180.434
9268.92 172.080
9270.03 164.146
9271.15 156.629
9272.26 149.543
9273.38 142.868
9274.49 136.602
9275.43 131.614
9276.37 126.887
9277.31 122.409
9278.25 118.165
9279.19 114.145
9280.13 110.336
9281.07 106.726
9282.01 103.304
9282.95 100.059
9283.89 96.9808
9285.77 91.2855
9287.65 86.1441
9289.53 81.4917
9291.50 77.0791
9293.47 73.0834
9295.44 69.4551
9297.41 66.1528
9299.38 63.1358
9301.35 60.3751
9303.32 57.8398
9305.29 55.5079
9307.26 53.3560
9309.23 51.3675
9311.20 49.5241
9313.16 47.8133
9315.13 46.2208
9317.10 44.7370
9319.07 43.3507
9321.04 42.0550
9324.62 39.9048
9328.20 37.9822
9331.79 36.2532
9335.37 34.6934
9338.95 33.2805
9342.53 31.9957
9346.11 30.8229
9349.69 29.7488
9353.63 28.6674
9357.57 27.6787
9361.51 26.7716
9365.45 25.9367
9369.39 25.1660
9373.33 24.4524
9381.20 23.1739
9386.22 22.4491
9391.23 21.7836
9396.24 21.1705
9401.26 20.6042
9411.28 19.5937
9421.31 18.7143
9429.19 18.1011
9437.07 17.5457
9444.95 17.0404
9452.82 16.5786
9460.70 16.1548
9468.58 15.7646
9484.34 15.0694
9500.09 14.4683
9515.85 13.9428
9531.61 13.4789
9547.36 13.0657
9562.40 12.7120
9577.44 12.3896
9607.52 11.8252
9637.60 11.3446
9667.68 10.9274
9699.20 10.5437
9730.71 10.2023
9762.22 9.89404
9793.74 9.61257
9845.30 9.19632
9896.87 8.81976
9948.43 8.47061
10000.0 8.13992
10031.9 7.94150
10107.6 7.47847
10183.3 7.01311
10259.0 6.52970
10296.8 6.27582
10334.7 6.01114
10378.5 5.68752
10422.4 5.34171
10466.2 4.96916
10510.0 4.56442
10547.9 4.18355
10566.8 3.98110
10585.7 3.77013
10604.6 3.54970
10623.6 3.31921
10642.5 3.07855
10661.4 2.82695
10683.3 2.52166
10705.2 2.20195
10727.2 1.86862
10749.1 1.52458
10767.0 1.23846
10784.9 0.953413
10793.9 0.813526
10802.9 0.677292
10807.4 0.610709
10811.8 0.545989
10816.3 0.483163
10820.8 0.422530
10824.0 0.380247
10827.3 0.339420
10830.5 0.300211
10833.7 0.262995
10837.0 0.227735
10840.2 0.194742
10843.5 0.164251
10845.1 0.150024
10846.7 0.136605
10849.1 0.118229
10851.4 0.101606
10853.8 0.0868637
10856.2 0.0741887
10858.5 0.0636162
10860.9 0.0553805
10862.1 0.0521461
10863.3 0.0495788
10864.4 0.0476753
10865.6 0.0464620
10866.6 0.0459928
10867.6 0.0460491
10868.6 0.0465957
10869.5 0.0476226
10870.4 0.0491662
10871.4 0.0512085
10872.3 0.0538088
10873.2 0.0569267
10875.1 0.0648444
10877.0 0.0751550
10878.8 0.0879430
10880.7 0.103353
10882.6 0.121439
10884.6 0.144138
10886.5 0.170268
10888.5 0.200141
10890.5 0.233967
10892.5 0.271989
10893.5 0.292769
10894.5 0.314497
10895.5 0.337649
10896.5 0.361800
10897.5 0.387475
10898.5 0.414196
10899.9 0.453382
10901.2 0.495228
10902.6 0.539846
10904.0 0.587355
10905.3 0.637880
10906.7 0.691551
10908.1 0.748503
10909.4 0.808881
10911.1 0.884901
10912.7 0.966187
10914.3 1.05303
10915.9 1.14573
10917.5 1.24463
10919.2 1.35001
10920.8 1.46218
10922.4 1.58071
10923.8 1.68739
10925.1 1.79970
10926.5 1.91790
10927.9 2.04228
10929.2 2.17310
10930.6 2.31069
10932.0 2.45535
10933.4 2.60741
10934.7 2.76723
10936.1 2.93516
10937.5 3.11160
10938.8 3.29695
10940.2 3.49164
10941.6 3.69612
10942.9 3.91087
10944.3 4.13638
10945.7 4.37319
10947.1 4.62185
10948.4 4.88295
10949.8 5.15712
10951.2 5.44500
10952.5 5.74730
10953.9 6.06473
10955.3 6.39808
10956.6 6.74816
10958.0 7.11582
10959.4 7.50199
10960.8 7.90763
10962.1 8.33377
10963.5 8.78147
10964.9 9.25189
10966.2 9.74253
10967.6 10.2619
10969.0 10.8078
10970.3 11.3817
10971.7 11.9851
10973.1 12.6197
10974.4 13.2871
10975.8 13.9891
10977.2 14.7277
10978.6 15.5049
10979.9 16.3229
10981.3 17.1839
10982.7 18.0904
10984.0 19.0449
10985.4 20.0501
10986.8 21.1090
10988.1 22.2162
10989.5 23.3912
10990.9 24.6295
10992.2 25.9346
10993.6 27.3105
10995.0 28.7610
10996.4 30.2904
10997.7 31.9031
10999.1 33.6039
11000.5 35.3976
11001.8 37.2893
11003.2 39.2845
11004.6 41.3888
11005.9 43.6079
11007.3 45.9479
11008.7 48.4150
11010.1 51.0156
11011.5 53.8384
11012.9 56.7951
11014.3 59.9351
11015.7 63.2207
11017.1 66.7058
11018.5 70.3484
11019.9 74.1802
11021.3 78.2087
11022.7 82.4703
11024.1 86.9075
11025.5 91.5513
11026.9 96.4029
11028.3 101.500
11029.7 106.770
11032.5 117.921
11034.2 125.154
11035.9 132.652
11039.4 148.311
11042.8 164.540
11046.3 180.783
11048.0 188.754
11049.7 196.489
11051.4 203.894
11053.1 210.874
11054.9 217.335
11056.6 223.191
11058.3 228.363
11060.0 232.764
11061.9 236.689
11063.8 239.604
11065.6 241.522
11067.5 242.430
11069.4 242.370
11071.3 241.392
11073.1 239.557
11075.0 236.963
11076.9 233.676
11078.8 229.823
11082.5 220.716
11086.3 210.349
11090.0 199.376
11093.8 188.259
11097.5 177.316
11100.0 170.242
11102.4 163.618
11104.8 157.245
11107.3 151.140
11109.7 145.311
11112.1 139.762
11114.5 134.489
11116.9 129.487
11119.4 124.767
11121.4 120.880
11123.5 117.178
11127.7 110.304
11131.9 104.034
11136.1 98.3452
11140.2 93.1581
11144.4 88.4440
11148.6 84.1418
11152.7 80.2084
11157.6 76.0543
11162.4 72.2991
11167.3 68.8808
11172.1 65.7735
11176.9 62.9296
11181.8 60.3305
11186.6 57.9440
11191.4 55.7471
11196.3 53.7159
11201.1 51.8413
11205.9 50.1003
11210.8 48.4865
11215.6 46.9814
11220.4 45.5808
11230.1 43.0446
11238.4 41.1049
11246.8 39.3659
11255.1 37.7893
11263.5 36.3599
11271.8 35.0589
11280.2 33.8701
11288.5 32.7801
11296.9 31.7791
11306.6 30.7153
11316.2 29.7428
11325.9 28.8509
11335.6 28.0312
11345.2 27.2736
11354.9 26.5726
11374.2 25.3174
11385.7 24.6545
11397.1 24.0422
11419.9 22.9490
11442.8 22.0051
11465.6 21.1745
11485.0 20.5516
11504.3 19.9869
11523.7 19.4741
11543.0 19.0080
11581.7 18.1866
11620.3 17.4882
11659.0 16.8874
11697.7 16.3644
11736.3 15.9046
11775.0 15.4974
11831.3 14.9819
11887.5 14.5388
11943.8 14.1538
11971.9 13.9796
11985.9 13.8973
11989.5 13.8766
11990.3 13.8710
11990.8 13.8678
11991.2 13.8643
11991.7 13.8602
11992.1 13.8552
11992.5 13.8489
11993.0 13.8409
11993.2 13.8359
11993.4 13.8301
11993.6 13.8235
11993.8 13.8158
11994.1 13.8069
11994.3 13.7967
11994.5 13.7850
11994.7 13.7716
11995.2 13.7390
11995.6 13.6972
11996.0 13.6448
11996.5 13.5804
11996.9 13.5028
11997.4 13.4115
11997.8 13.3065
11998.2 13.1884
11999.1 12.9197
12000.0 12.6284
12000.0 11.4222
12750.0 11.2842
13500.0 11.1557
14250.0 11.0355
15000.0 10.9228
16000.0 10.7891
17000.0 10.6650
18500.0 10.5008
20000.0 10.3519
21250.0 10.2431
22500.0 10.1418
23750.0 10.0469
25000.0 9.95786
26250.0 9.87806
27500.0 9.80265
28750.0 9.73119
30000.0 9.66331
32500.0 9.54195
35000.0 9.43109
37500.0 9.33231
40000.0 9.24095
42500.0 9.15886
45000.0 9.08223
47500.0 9.01040
50000.0 8.94284
52500.0 8.88125
55000.0 8.82296
60000.0 8.71505
65000.0 8.61913
70000.0 8.53130
75000.0 8.45159
80000.0 8.37774
85000.0 8.30969
90000.0 8.24606
99999.9 8.13009
100000 8.08212
112500 8.05555
125000 8.03191
137500 8.01063
150000 7.99129
175000 7.93238
200000 7.88172
250000 7.74970
300000 7.59935
350000 7.38491
400000 7.20413
450000 7.04841
500000 6.91201
507609 6.88186
515218 6.85228
522827 6.82327
530437 6.79480
538046 6.76685
545655 6.73941
553264 6.71247
560873 6.68599
568482 6.65998
576091 6.63442
583700 6.60928
591310 6.58457
598919 6.56027
606528 6.53636
614137 6.51284
621746 6.48970
624192 6.48030
626637 6.47100
631528 6.45268
636419 6.43475
641310 6.41719
651091 6.38312
660873 6.35042
670655 6.31899
680437 6.28878
690218 6.25973
700000 6.23178
706250 6.20985
712500 6.18831
718750 6.16717
725000 6.14639
731250 6.12599
737500 6.10595
743750 6.08625
750000 6.06690
756250 6.04788
762500 6.02919
768750 6.01081
775000 5.99275
781250 5.97499
787500 5.95753
793750 5.94036
800000 5.92347
806250 5.90392
812500 5.88466
818750 5.86567
825000 5.84696
831250 5.82852
837500 5.81034
843750 5.79242
850000 5.77475
856250 5.75732
862500 5.74014
868750 5.72319
875000 5.70648
881250 5.68999
887500 5.67373
893750 5.65768
900000 5.64185
906250 5.62448
912500 5.60734
918750 5.59040
925000 5.57367
931250 5.55715
937500 5.54082
943750 5.52469
950000 5.50876
956250 5.49301
962500 5.47746
968750 5.46208
975000 5.44688
981250 5.43186
987500 5.41701
993750 5.40234
1.00000E+06 5.38783
1.00781E+06 5.36824
1.01563E+06 5.34891
1.02344E+06 5.32984
1.03125E+06 5.31103
1.03906E+06 5.29246
1.04688E+06 5.27413
1.05469E+06 5.25604
1.06250E+06 5.23819
1.07031E+06 5.22056
1.07813E+06 5.20316
1.08594E+06 5.18597
1.09375E+06 5.16901
1.10156E+06 5.15225
1.10938E+06 5.13570
1.11719E+06 5.11935
1.12500E+06 5.10320
1.13281E+06 5.08725
1.14063E+06 5.07149
1.14844E+06 5.05592
1.15625E+06 5.04053
1.16406E+06 5.02533
1.17188E+06 5.01030
1.17969E+06 4.99545
1.18750E+06 4.98077
1.19531E+06 4.96626
1.20313E+06 4.95192
1.21094E+06 4.93774
1.21875E+06 4.92372
1.22656E+06 4.90985
1.23438E+06 4.89615
1.24219E+06 4.88259
1.25000E+06 4.86919
1.25944E+06 4.85260
1.26889E+06 4.83623
1.27833E+06 4.82006
1.28777E+06 4.80410
1.29721E+06 4.78834
1.30666E+06 4.77278
1.31610E+06 4.75741
1.32554E+06 4.74223
1.32554E+06 4.74223
1.32827E+06 4.73771
1.33099E+06 4.73322
1.33645E+06 4.72430
1.34735E+06 4.70673
1.35825E+06 4.68951
1.36916E+06 4.67263
1.38006E+06 4.65608
1.39096E+06 4.63985
1.40187E+06 4.62394
1.41277E+06 4.60833
1.42367E+06 4.59302
1.43458E+06 4.57801
1.44548E+06 4.56328
1.45639E+06 4.54883
1.46729E+06 4.53465
1.47819E+06 4.52074
1.48910E+06 4.50709
1.50000E+06 4.49370
1.50900E+06 4.48240
1.51800E+06 4.47125
1.51800E+06 4.47125
1.52205E+06 4.46627
1.52205E+06 4.46626
1.52561E+06 4.46174
1.52918E+06 4.45724
1.53630E+06 4.44833
1.54342E+06 4.43952
1.55054E+06 4.43083
1.55767E+06 4.42225
1.56479E+06 4.41377
1.57192E+06 4.40539
1.57904E+06 4.39712
1.58616E+06 4.38895
1.59329E+06 4.38088
1.60041E+06 4.37291
1.60753E+06 4.36504
1.61466E+06 4.35726
1.62178E+06 4.34957
1.62890E+06 4.34198
1.63603E+06 4.33448
1.64315E+06 4.32707
1.65027E+06 4.31975
1.65740E+06 4.31252
1.66452E+06 4.30538
1.67164E+06 4.29832
1.67877E+06 4.29134
1.68589E+06 4.28445
1.69301E+06 4.27764
1.70014E+06 4.27091
1.70726E+06 4.26426
1.71438E+06 4.25769
1.72151E+06 4.25120
1.72863E+06 4.24478
1.73575E+06 4.23844
1.74288E+06 4.23217
1.75000E+06 4.22598
1.75787E+06 4.21892
1.76574E+06 4.21195
1.77360E+06 4.20504
1.78147E+06 4.19821
1.78750E+06 4.19300
1.79354E+06 4.18782
1.79957E+06 4.18270
1.80560E+06 4.17762
1.81164E+06 4.17258
1.81767E+06 4.16758
1.82370E+06 4.16263
1.82974E+06 4.15772
1.83577E+06 4.15284
1.84180E+06 4.14802
1.84784E+06 4.14323
1.85387E+06 4.13848
1.85990E+06 4.13377
1.86593E+06 4.12910
1.87197E+06 4.12447
1.87800E+06 4.11988
1.87800E+06 4.11987
1.88182E+06 4.11694
1.88563E+06 4.11403
1.89325E+06 4.10826
1.90088E+06 4.10256
1.90850E+06 4.09692
1.91613E+06 4.09134
1.92375E+06 4.08583
1.93138E+06 4.08038
1.93900E+06 4.07499
1.94663E+06 4.06966
1.95425E+06 4.06439
1.96188E+06 4.05918
1.96950E+06 4.05403
1.97713E+06 4.04894
1.98475E+06 4.04390
1.99238E+06 4.03892
2.00000E+06 4.03400
2.01092E+06 4.02694
2.02184E+06 4.01999
2.02832E+06 4.01588
2.03479E+06 4.01181
2.04127E+06 4.00778
2.04775E+06 4.00379
2.05422E+06 3.99983
2.06070E+06 3.99591
2.06717E+06 3.99203
2.07365E+06 3.98818
2.08013E+06 3.98437
2.08660E+06 3.98059
2.09308E+06 3.97685
2.09956E+06 3.97314
2.10603E+06 3.96946
2.11251E+06 3.96582
2.11898E+06 3.96222
2.12546E+06 3.95864
2.12546E+06 3.95864
2.13081E+06 3.95571
2.13616E+06 3.95280
2.14686E+06 3.94705
2.15756E+06 3.94136
2.16826E+06 3.93575
2.17896E+06 3.93021
2.18966E+06 3.92474
2.20036E+06 3.91934
2.21106E+06 3.91400
2.22176E+06 3.90874
2.23245E+06 3.90354
2.24315E+06 3.89841
2.25385E+06 3.89334
2.26455E+06 3.88833
2.27525E+06 3.88339
2.28595E+06 3.87851
2.29665E+06 3.87369
2.29665E+06 3.87369
2.30488E+06 3.87008
2.31311E+06 3.86651
2.32134E+06 3.86297
2.32957E+06 3.85945
2.32957E+06 3.85945
2.33654E+06 3.85652
2.34350E+06 3.85361
2.35047E+06 3.85073
2.35743E+06 3.84787
2.36492E+06 3.84483
2.36492E+06 3.84483
2.37138E+06 3.84224
2.37784E+06 3.83967
2.38429E+06 3.83712
2.39075E+06 3.83460
2.39076E+06 3.83459
2.40009E+06 3.83107
2.40941E+06 3.82758
2.41875E+06 3.82414
2.42808E+06 3.82072
2.43741E+06 3.81734
2.44674E+06 3.81400
2.45607E+06 3.81070
2.46541E+06 3.80743
2.47474E+06 3.80419
2.48407E+06 3.80099
2.49340E+06 3.79782
2.50273E+06 3.79468
2.51207E+06 3.79158
2.52140E+06 3.78851
2.53073E+06 3.78547
2.54006E+06 3.78246
2.54006E+06 3.78246
2.54761E+06 3.78012
2.55516E+06 3.77780
2.56270E+06 3.77550
2.57025E+06 3.77322
2.57156E+06 3.77283
2.57157E+06 3.77282
2.57846E+06 3.77085
2.58535E+06 3.76888
2.59224E+06 3.76693
2.59914E+06 3.76499
2.60603E+06 3.76306
2.61293E+06 3.76114
2.61982E+06 3.75924
2.62672E+06 3.75734
2.63361E+06 3.75546
2.64050E+06 3.75358
2.64740E+06 3.75172
2.65429E+06 3.74987
2.66119E+06 3.74803
2.66808E+06 3.74620
2.67498E+06 3.74438
2.68187E+06 3.74257
2.68188E+06 3.74257
2.69010E+06 3.74055
2.69833E+06 3.73854
2.70656E+06 3.73654
2.71479E+06 3.73456
2.71480E+06 3.73455
2.71682E+06 3.73408
2.71682E+06 3.73408
2.72622E+06 3.73191
2.73561E+06 3.72976
2.74501E+06 3.72762
2.75440E+06 3.72550
2.75440E+06 3.72550
2.76159E+06 3.72394
2.76879E+06 3.72239
2.77598E+06 3.72085
2.78317E+06 3.71932
2.78995E+06 3.71809
2.79672E+06 3.71686
2.80350E+06 3.71564
2.81027E+06 3.71443
2.81705E+06 3.71322
2.82383E+06 3.71202
2.83060E+06 3.71082
2.83738E+06 3.70963
2.84415E+06 3.70844
2.85093E+06 3.70726
2.85771E+06 3.70608
2.86448E+06 3.70491
2.87126E+06 3.70374
2.87803E+06 3.70258
2.88481E+06 3.70143
2.89159E+06 3.70027
2.89836E+06 3.69913
2.90514E+06 3.69799
2.91191E+06 3.69685
2.91869E+06 3.69572
2.92547E+06 3.69459
2.93224E+06 3.69347
2.93902E+06 3.69235
2.94579E+06 3.69124
2.95257E+06 3.69013
2.95935E+06 3.68903
2.96612E+06 3.68793
2.97290E+06 3.68684
2.97967E+06 3.68575
2.98645E+06 3.68466
2.99323E+06 3.68358
3.00000E+06 3.68251
3.00866E+06 3.68246
3.01733E+06 3.68241
3.02599E+06 3.68237
3.03465E+06 3.68232
3.04332E+06 3.68228
3.05198E+06 3.68223
3.06064E+06 3.68219
3.06931E+06 3.68214
3.07797E+06 3.68210
3.08663E+06 3.68205
3.09530E+06 3.68201
3.10396E+06 3.68197
3.11262E+06 3.68193
3.12129E+06 3.68188
3.12995E+06 3.68184
3.13861E+06 3.68180
3.14728E+06 3.68176
3.15594E+06 3.68171
3.16460E+06 3.68167
3.17327E+06 3.68163
3.18193E+06 3.68159
3.19059E+06 3.68155
3.19926E+06 3.68151
3.20792E+06 3.68147
3.21658E+06 3.68143
3.22525E+06 3.68139
3.23391E+06 3.68135
3.24257E+06 3.68132
3.25124E+06 3.68128
3.25990E+06 3.68124
3.26856E+06 3.68120
3.27723E+06 3.68116
3.28589E+06 3.68113
3.29455E+06 3.68109
3.30322E+06 3.68105
3.31188E+06 3.68101
3.32054E+06 3.68098
3.32921E+06 3.68094
3.33787E+06 3.68090
3.34653E+06 3.68087
3.35520E+06 3.68083
3.36386E+06 3.68080
3.37252E+06 3.68076
3.38119E+06 3.68073
3.38985E+06 3.68069
3.39851E+06 3.68066
3.40718E+06 3.68062
3.41584E+06 3.68059
3.42450E+06 3.68055
3.43317E+06 3.68052
3.44183E+06 3.68049
3.45049E+06 3.68045
3.45916E+06 3.68042
3.46782E+06 3.68039
3.47648E+06 3.68035
3.48514E+06 3.68032
3.49381E+06 3.68029
3.50247E+06 3.68026
3.51113E+06 3.68023
3.51980E+06 3.68019
3.52846E+06 3.68016
3.53712E+06 3.68013
3.54579E+06 3.68010
3.55445E+06 3.68007
3.56837E+06 3.68001
3.58230E+06 3.67995
3.59622E+06 3.67989
3.61014E+06 3.67983
3.62407E+06 3.67977
3.63799E+06 3.67972
3.65192E+06 3.67966
3.66584E+06 3.67960
3.67976E+06 3.67955
3.69369E+06 3.67949
3.70761E+06 3.67943
3.72153E+06 3.67938
3.73546E+06 3.67932
3.74938E+06 3.67927
3.76330E+06 3.67922
3.77723E+06 3.67916
3.79115E+06 3.67911
3.80507E+06 3.67906
3.81900E+06 3.67901
3.83292E+06 3.67896
3.84684E+06 3.67890
3.86077E+06 3.67885
3.87469E+06 3.67880
3.88861E+06 3.67875
3.90254E+06 3.67870
3.91646E+06 3.67866
3.93038E+06 3.67861
3.94431E+06 3.67856
3.95823E+06 3.67851
3.97215E+06 3.67846
3.98608E+06 3.67841
4.00000E+06 3.67837
4.01563E+06 3.68108
4.03125E+06 3.68380
4.04688E+06 3.68651
4.06250E+06 3.68922
4.07813E+06 3.69192
4.09375E+06 3.69463
4.10938E+06 3.69733
4.12500E+06 3.70002
4.14063E+06 3.70272
4.15625E+06 3.70541
4.17188E+06 3.70810
4.18750E+06 3.71079
4.20313E+06 3.71347
4.21875E+06 3.71615
4.23438E+06 3.71883
4.25000E+06 3.72151
4.26563E+06 3.72418
4.28125E+06 3.72685
4.29688E+06 3.72952
4.31250E+06 3.73218
4.32813E+06 3.73485
4.34375E+06 3.73750
4.35938E+06 3.74016
4.37500E+06 3.74282
4.39063E+06 3.74547
4.40625E+06 3.74812
4.42188E+06 3.75076
4.43750E+06 3.75341
4.45313E+06 3.75605
4.46875E+06 3.75869
4.48438E+06 3.76132
4.50000E+06 3.76396
4.51563E+06 3.76659
4.53125E+06 3.76921
4.54688E+06 3.77184
4.56250E+06 3.77446
4.57813E+06 3.77708
4.59375E+06 3.77970
4.60938E+06 3.78232
4.62500E+06 3.78493
4.64063E+06 3.78754
4.65625E+06 3.79015
4.67188E+06 3.79275
4.68750E+06 3.79535
4.70313E+06 3.79795
4.71875E+06 3.80055
4.73438E+06 3.80314
4.75000E+06 3.80574
4.76563E+06 3.80832
4.78125E+06 3.81091
4.79688E+06 3.81350
4.81250E+06 3.81608
4.82813E+06 3.81866
4.84375E+06 3.82124
4.85938E+06 3.82381
4.87500E+06 3.82638
4.89063E+06 3.82895
4.90625E+06 3.83152
4.92188E+06 3.83408
4.93750E+06 3.83665
4.95313E+06 3.83921
4.96875E+06 3.84176
4.98438E+06 3.84432
5.00000E+06 3.84687
5.00781E+06 3.84896
5.01563E+06 3.85104
5.02344E+06 3.85313
5.03125E+06 3.85521
5.03906E+06 3.85729
5.04688E+06 3.85937
5.05469E+06 3.86145
5.06250E+06 3.86353
5.07031E+06 3.86561
5.07813E+06 3.86768
5.08594E+06 3.86976
5.09375E+06 3.87183
5.10156E+06 3.87391
5.10938E+06 3.87598
5.11719E+06 3.87805
5.12500E+06 3.88012
5.13281E+06 3.88219
5.14063E+06 3.88426
5.14844E+06 3.88632
5.15625E+06 3.88839
5.16406E+06 3.89045
5.17188E+06 3.89252
5.17969E+06 3.89458
5.18750E+06 3.89664
5.19531E+06 3.89870
5.20313E+06 3.90076
5.21094E+06 3.90282
5.21875E+06 3.90487
5.22656E+06 3.90693
5.23438E+06 3.90898
5.24219E+06 3.91104
5.25000E+06 3.91309
5.25781E+06 3.91514
5.26563E+06 3.91719
5.27344E+06 3.91924
5.28125E+06 3.92129
5.28906E+06 3.92334
5.29688E+06 3.92538
5.30469E+06 3.92743
5.31250E+06 3.92947
5.32031E+06 3.93151
5.32813E+06 3.93356
5.33594E+06 3.93560
5.34375E+06 3.93764
5.35156E+06 3.93968
5.35938E+06 3.94171
5.36719E+06 3.94375
5.37500E+06 3.94579
5.38281E+06 3.94782
5.39063E+06 3.94985
5.39844E+06 3.95189
5.40625E+06 3.95392
5.41406E+06 3.95595
5.42188E+06 3.95798
5.42969E+06 3.96001
5.43750E+06 3.96204
5.44531E+06 3.96406
5.45313E+06 3.96609
5.46094E+06 3.96811
5.46875E+06 3.97014
5.47656E+06 3.97216
5.48438E+06 3.97418
5.49219E+06 3.97620
5.50000E+06 3.97822
5.50781E+06 3.98024
5.51563E+06 3.98226
5.52344E+06 3.98427
5.53125E+06 3.98629
5.53906E+06 3.98830
5.54688E+06 3.99031
5.55469E+06 3.99233
5.56250E+06 3.99434
5.57031E+06 3.99635
5.57813E+06 3.99836
5.58594E+06 4.00037
5.59375E+06 4.00238
5.60156E+06 4.00438
5.60938E+06 4.00639
5.61719E+06 4.00839
5.62500E+06 4.01040
5.63281E+06 4.01240
5.64063E+06 4.01440
5.64844E+06 4.01640
5.65625E+06 4.01840
5.66406E+06 4.02040
5.67188E+06 4.02240
5.67969E+06 4.02439
5.68750E+06 4.02639
5.69531E+06 4.02839
5.70313E+06 4.03038
5.71094E+06 4.03237
5.71875E+06 4.03436
5.72656E+06 4.03636
5.73438E+06 4.03835
5.74219E+06 4.04034
5.75000E+06 4.04232
5.75781E+06 4.04431
5.76563E+06 4.04630
5.77344E+06 4.04828
5.78125E+06 4.05027
5.78906E+06 4.05225
5.79688E+06 4.05423
5.80469E+06 4.05622
5.81250E+06 4.05820
5.82031E+06 4.06018
5.82813E+06 4.06216
5.83594E+06 4.06414
5.84375E+06 4.06611
5.85156E+06 4.06809
5.85938E+06 4.07006
5.86719E+06 4.07204
5.87500E+06 4.07401
5.88281E+06 4.07599
5.89063E+06 4.07796
5.89844E+06 4.07993
5.90625E+06 4.08190
5.91406E+06 4.08387
5.92188E+06 4.08584
5.92969E+06 4.08780
5.93750E+06 4.08977
5.94531E+06 4.09174
5.95313E+06 4.09370
5.96094E+06 4.09567
5.96875E+06 4.09763
5.97656E+06 4.09959
5.98438E+06 4.10155
5.99219E+06 4.10351
6.00000E+06 4.10547
6.01367E+06 4.10902
6.02734E+06 4.11256
6.04101E+06 4.11610
6.05468E+06 4.11963
6.06835E+06 4.12317
6.08202E+06 4.12669
6.09569E+06 4.13022
6.10936E+06 4.13374
6.13625E+06 4.14060
6.16313E+06 4.14745
6.19002E+06 4.15429
6.21691E+06 4.16112
6.24379E+06 4.16793
6.27068E+06 4.17472
6.29756E+06 4.18151
6.32445E+06 4.18828
6.35134E+06 4.19504
6.37822E+06 4.20179
6.40511E+06 4.20852
6.43200E+06 4.21524
6.45888E+06 4.22195
6.48577E+06 4.22865
6.51265E+06 4.23533
6.53954E+06 4.24200
6.56783E+06 4.24895
6.59612E+06 4.25588
6.62441E+06 4.26279
6.65270E+06 4.26970
6.68098E+06 4.27659
6.70927E+06 4.28347
6.73756E+06 4.29033
6.76585E+06 4.29719
6.79512E+06 4.30422
6.82439E+06 4.31124
6.85366E+06 4.31825
6.88293E+06 4.32524
6.91219E+06 4.33222
6.94146E+06 4.33919
6.97073E+06 4.34614
7.00000E+06 4.35309
7.00743E+06 4.35422
7.01485E+06 4.35534
7.02228E+06 4.35647
7.02970E+06 4.35759
7.03713E+06 4.35872
7.04455E+06 4.35984
7.05198E+06 4.36096
7.05941E+06 4.36209
7.06683E+06 4.36321
7.07426E+06 4.36433
7.08168E+06 4.36545
7.08911E+06 4.36657
7.09653E+06 4.36769
7.10396E+06 4.36881
7.11139E+06 4.36993
7.11881E+06 4.37105
7.12624E+06 4.37216
7.13366E+06 4.37328
7.14109E+06 4.37440
7.14851E+06 4.37552
7.15594E+06 4.37663
7.16336E+06 4.37775
7.17079E+06 4.37886
7.17822E+06 4.37997
7.18564E+06 4.38109
7.19307E+06 4.38220
7.20049E+06 4.38331
7.20792E+06 4.38443
7.21534E+06 4.38554
7.22277E+06 4.38665
7.23020E+06 4.38776
7.23762E+06 4.38887
7.24530E+06 4.39000
7.25298E+06 4.39114
7.26065E+06 4.39227
7.26833E+06 4.39341
7.27601E+06 4.39454
7.28369E+06 4.39567
7.29137E+06 4.39681
7.29904E+06 4.39794
7.30672E+06 4.39907
7.31440E+06 4.40020
7.32208E+06 4.40133
7.32975E+06 4.40246
7.33743E+06 4.40359
7.34511E+06 4.40472
7.35279E+06 4.40585
7.36047E+06 4.40697
7.36814E+06 4.40810
7.37582E+06 4.40923
7.38350E+06 4.41036
7.39118E+06 4.41148
7.39886E+06 4.41261
7.40653E+06 4.41373
7.41421E+06 4.41486
7.42189E+06 4.41598
7.42957E+06 4.41710
7.43724E+06 4.41822
7.44492E+06 4.41935
7.45260E+06 4.42047
7.46028E+06 4.42159
7.46796E+06 4.42271
7.47563E+06 4.42383
7.48331E+06 4.42495
7.49125E+06 4.42609
7.49919E+06 4.42724
7.50713E+06 4.42838
7.51506E+06 4.42952
7.52300E+06 4.43067
7.53094E+06 4.43181
7.53888E+06 4.43295
7.54682E+06 4.43409
7.55476E+06 4.43523
7.56270E+06 4.43637
7.57063E+06 4.43751
7.57857E+06 4.43865
7.58651E+06 4.43978
7.59445E+06 4.44092
7.60239E+06 4.44206
7.61033E+06 4.44320
7.61826E+06 4.44433
7.62620E+06 4.44547
7.63414E+06 4.44660
7.64208E+06 4.44774
7.65002E+06 4.44887
7.65796E+06 4.45000
7.66590E+06 4.45114
7.67383E+06 4.45227
7.68177E+06 4.45340
7.68971E+06 4.45454
7.69765E+06 4.45567
7.70559E+06 4.45680
7.71353E+06 4.45793
7.72146E+06 4.45906
7.72940E+06 4.46019
7.73734E+06 4.46132
7.74555E+06 4.46247
7.75376E+06 4.46362
7.76197E+06 4.46477
7.77017E+06 4.46593
7.77838E+06 4.46708
7.78659E+06 4.46823
7.79480E+06 4.46938
7.80301E+06 4.47053
7.81121E+06 4.47168
7.81942E+06 4.47283
7.82763E+06 4.47397
7.83584E+06 4.47512
7.84405E+06 4.47627
7.85225E+06 4.47742
7.86046E+06 4.47856
7.86867E+06 4.47971
7.87688E+06 4.48085
7.88509E+06 4.48200
7.89330E+06 4.48314
7.90150E+06 4.48429
7.90971E+06 4.48543
7.91792E+06 4.48658
7.92613E+06 4.48772
7.93434E+06 4.48886
7.94254E+06 4.49000
7.95075E+06 4.49115
7.95896E+06 4.49229
7.96717E+06 4.49343
7.97538E+06 4.49457
7.98358E+06 4.49571
7.99179E+06 4.49685
8.00000E+06 4.49799
8.00638E+06 4.49815
8.01276E+06 4.49830
8.01914E+06 4.49846
8.02552E+06 4.49862
8.03190E+06 4.49878
8.03828E+06 4.49894
8.04466E+06 4.49910
8.05104E+06 4.49926
8.05742E+06 4.49942
8.06380E+06 4.49958
8.07018E+06 4.49973
8.07656E+06 4.49989
8.08295E+06 4.50005
8.08933E+06 4.50021
8.09571E+06 4.50037
8.10209E+06 4.50053
8.10847E+06 4.50069
8.11485E+06 4.50085
8.12123E+06 4.50101
8.12761E+06 4.50117
8.13399E+06 4.50133
8.14037E+06 4.50149
8.14675E+06 4.50165
8.15313E+06 4.50181
8.15951E+06 4.50197
8.16589E+06 4.50213
8.17227E+06 4.50229
8.17865E+06 4.50245
8.18503E+06 4.50261
8.19141E+06 4.50277
8.19779E+06 4.50293
8.20417E+06 4.50309
8.21296E+06 4.50330
8.22174E+06 4.50351
8.23053E+06 4.50372
8.23931E+06 4.50394
8.24809E+06 4.50415
8.25688E+06 4.50436
8.26566E+06 4.50457
8.27445E+06 4.50479
8.28323E+06 4.50500
8.29202E+06 4.50521
8.30080E+06 4.50543
8.30959E+06 4.50564
8.31837E+06 4.50585
8.32716E+06 4.50606
8.33594E+06 4.50628
8.34473E+06 4.50649
8.35351E+06 4.50670
8.36230E+06 4.50692
8.37108E+06 4.50713
8.37986E+06 4.50734
8.38865E+06 4.50756
8.39743E+06 4.50777
8.40622E+06 4.50798
8.41500E+06 4.50820
8.42379E+06 4.50841
8.43257E+06 4.50862
8.44136E+06 4.50884
8.45014E+06 4.50905
8.45893E+06 4.50926
8.46771E+06 4.50948
8.47650E+06 4.50969
8.48528E+06 4.50991
8.49321E+06 4.51009
8.50113E+06 4.51028
8.50905E+06 4.51046
8.51698E+06 4.51065
8.52490E+06 4.51084
8.53283E+06 4.51102
8.54075E+06 4.51121
8.54867E+06 4.51139
8.55660E+06 4.51158
8.56452E+06 4.51177
8.57245E+06 4.51195
8.58037E+06 4.51214
8.58829E+06 4.51233
8.59622E+06 4.51251
8.60414E+06 4.51270
8.61207E+06 4.51289
8.61999E+06 4.51307
8.62791E+06 4.51326
8.63584E+06 4.51345
8.64376E+06 4.51363
8.65169E+06 4.51382
8.65961E+06 4.51401
8.66753E+06 4.51419
8.67546E+06 4.51438
8.68338E+06 4.51457
8.69131E+06 4.51476
8.69923E+06 4.51494
8.70715E+06 4.51513
8.71508E+06 4.51532
8.72300E+06 4.51551
8.73093E+06 4.51570
8.73885E+06 4.51588
8.74701E+06 4.51607
8.75517E+06 4.51625
8.76333E+06 4.51644
8.77149E+06 4.51662
8.77966E+06 4.51681
8.78782E+06 4.51700
8.79598E+06 4.51718
8.80414E+06 4.51737
8.81230E+06 4.51755
8.82046E+06 4.51774
8.82862E+06 4.51793
8.83678E+06 4.51811
8.84494E+06 4.51830
8.85310E+06 4.51848
8.86127E+06 4.51867
8.86943E+06 4.51886
8.87759E+06 4.51904
8.88575E+06 4.51923
8.89391E+06 4.51942
8.90207E+06 4.51960
8.91023E+06 4.51979
8.91839E+06 4.51998
8.92655E+06 4.52017
8.93471E+06 4.52035
8.94287E+06 4.52054
8.95104E+06 4.52073
8.95920E+06 4.52092
8.96736E+06 4.52110
8.97552E+06 4.52129
8.98368E+06 4.52148
8.99184E+06 4.52167
9.00000E+06 4.52186
9.00761E+06 4.52124
9.01521E+06 4.52062
9.02282E+06 4.52001
9.03043E+06 4.51940
9.03803E+06 4.51878
9.04564E+06 4.51817
9.05325E+06 4.51756
9.06085E+06 4.51695
9.06846E+06 4.51633
9.07607E+06 4.51572
9.08368E+06 4.51511
9.09128E+06 4.51450
9.09889E+06 4.51390
9.10650E+06 4.51329
9.11410E+06 4.51268
9.12171E+06 4.51207
9.12932E+06 4.51147
9.13692E+06 4.51086
9.14453E+06 4.51025
9.15214E+06 4.50965
9.15974E+06 4.50905
9.16735E+06 4.50844
9.17496E+06 4.50784
9.18256E+06 4.50724
9.19017E+06 4.50663
9.19778E+06 4.50603
9.20538E+06 4.50543
9.21299E+06 4.50483
9.22060E+06 4.50423
9.22820E+06 4.50363
9.23581E+06 4.50304
9.24342E+06 4.50244
9.25102E+06 4.50184
9.25863E+06 4.50124
9.26624E+06 4.50065
9.27384E+06 4.50005
9.28145E+06 4.49946
9.28906E+06 4.49886
9.29666E+06 4.49827
9.30427E+06 4.49767
9.31188E+06 4.49708
9.31948E+06 4.49649
9.32709E+06 4.49590
9.33470E+06 4.49531
9.34230E+06 4.49471
9.34991E+06 4.49412
9.35752E+06 4.49354
9.36512E+06 4.49295
9.37273E+06 4.49236
9.38034E+06 4.49177
9.38794E+06 4.49118
9.39555E+06 4.49060
9.40316E+06 4.49001
9.41076E+06 4.48943
9.41837E+06 4.48884
9.42598E+06 4.48826
9.43358E+06 4.48767
9.44119E+06 4.48709
9.44880E+06 4.48651
9.45640E+06 4.48592
9.46401E+06 4.48534
9.47162E+06 4.48476
9.47922E+06 4.48418
9.48683E+06 4.48360
9.49485E+06 4.48299
9.50287E+06 4.48238
9.51089E+06 4.48177
9.51890E+06 4.48116
9.52692E+06 4.48055
9.53494E+06 4.47994
9.54296E+06 4.47933
9.55098E+06 4.47872
9.55900E+06 4.47812
9.56701E+06 4.47751
9.57503E+06 4.47691
9.58305E+06 4.47630
9.59107E+06 4.47570
9.59909E+06 4.47509
9.60711E+06 4.47449
9.61512E+06 4.47389
9.62314E+06 4.47328
9.63116E+06 4.47269
9.63918E+06 4.47208
9.64720E+06 4.47148
9.65522E+06 4.47088
9.66323E+06 4.47028
9.67125E+06 4.46969
9.67927E+06 4.46909
9.68729E+06 4.46849
9.69531E+06 4.46790
9.70332E+06 4.46730
9.71134E+06 4.46670
9.71936E+06 4.46611
9.72738E+06 4.46552
9.73540E+06 4.46492
9.74342E+06 4.46433
9.75143E+06 4.46374
9.75945E+06 4.46314
9.76747E+06 4.46256
9.77549E+06 4.46196
9.78351E+06 4.46137
9.79153E+06 4.46078
9.79954E+06 4.46020
9.80756E+06 4.45961
9.81558E+06 4.45902
9.82360E+06 4.45843
9.83162E+06 4.45785
9.83964E+06 4.45726
9.84765E+06 4.45668
9.85567E+06 4.45609
9.86369E+06 4.45551
9.87171E+06 4.45492
9.87973E+06 4.45434
9.88775E+06 4.45376
9.89576E+06 4.45318
9.90378E+06 4.45260
9.91180E+06 4.45202
9.91982E+06 4.45144
9.92784E+06 4.45086
9.93585E+06 4.45028
9.94387E+06 4.44970
9.95189E+06 4.44912
9.95991E+06 4.44854
9.96793E+06 4.44797
9.97595E+06 4.44739
9.98396E+06 4.44682
9.99198E+06 4.44624
1.00000E+07 4.44567
1.00076E+07 4.44436
1.00153E+07 4.44306
1.00229E+07 4.44176
1.00305E+07 4.44046
1.00381E+07 4.43916
1.00458E+07 4.43786
1.00534E+07 4.43657
1.00610E+07 4.43528
1.00687E+07 4.43398
1.00763E+07 4.43269
1.00839E+07 4.43141
1.00915E+07 4.43012
1.00992E+07 4.42884
1.01068E+07 4.42756
1.01144E+07 4.42628
1.01220E+07 4.42500
1.01297E+07 4.42372
1.01373E+07 4.42245
1.01449E+07 4.42117
1.01525E+07 4.41990
1.01602E+07 4.41863
1.01678E+07 4.41737
1.01754E+07 4.41610
1.01830E+07 4.41484
1.01907E+07 4.41357
1.01983E+07 4.41231
1.02059E+07 4.41105
1.02136E+07 4.40980
1.02212E+07 4.40854
1.02288E+07 4.40729
1.02364E+07 4.40603
1.02441E+07 4.40479
1.02517E+07 4.40354
1.02593E+07 4.40229
1.02669E+07 4.40104
1.02746E+07 4.39980
1.02822E+07 4.39856
1.02898E+07 4.39732
1.02975E+07 4.39608
1.03051E+07 4.39484
1.03127E+07 4.39361
1.03203E+07 4.39237
1.03280E+07 4.39114
1.03356E+07 4.38991
1.03432E+07 4.38869
1.03508E+07 4.38746
1.03585E+07 4.38624
1.03661E+07 4.38501
1.03737E+07 4.38379
1.03813E+07 4.38257
1.03890E+07 4.38136
1.03966E+07 4.38014
1.04042E+07 4.37892
1.04118E+07 4.37771
1.04195E+07 4.37650
1.04271E+07 4.37529
1.04347E+07 4.37408
1.04424E+07 4.37288
1.04500E+07 4.37167
1.04576E+07 4.37047
1.04652E+07 4.36927
1.04729E+07 4.36807
1.04805E+07 4.36687
1.04881E+07 4.36568
1.04951E+07 4.36457
1.05021E+07 4.36345
1.05091E+07 4.36234
1.05162E+07 4.36124
1.05232E+07 4.36013
1.05302E+07 4.35902
1.05372E+07 4.35792
1.05442E+07 4.35682
1.05559E+07 4.35498
1.05675E+07 4.35315
1.05792E+07 4.35132
1.05908E+07 4.34949
1.06025E+07 4.34767
1.06141E+07 4.34586
1.06258E+07 4.34404
1.06374E+07 4.34223
1.06375E+07 4.34222
1.06484E+07 4.34052
1.06593E+07 4.33882
1.06702E+07 4.33713
1.06811E+07 4.33543
1.06920E+07 4.33375
1.07029E+07 4.33206
1.07138E+07 4.33038
1.07247E+07 4.32870
1.07356E+07 4.32703
1.07466E+07 4.32535
1.07575E+07 4.32368
1.07684E+07 4.32202
1.07793E+07 4.32035
1.07902E+07 4.31869
1.08011E+07 4.31703
1.08120E+07 4.31538
1.08238E+07 4.31357
1.08355E+07 4.31177
1.08473E+07 4.30998
1.08590E+07 4.30819
1.08708E+07 4.30640
1.08825E+07 4.30463
1.08943E+07 4.30285
1.09060E+07 4.30108
1.09178E+07 4.29932
1.09295E+07 4.29756
1.09413E+07 4.29581
1.09530E+07 4.29407
1.09648E+07 4.29232
1.09765E+07 4.29059
1.09883E+07 4.28886
1.10000E+07 4.28713
1.10239E+07 4.28298
1.10479E+07 4.27887
1.10718E+07 4.27482
1.10957E+07 4.27082
1.11197E+07 4.26687
1.11436E+07 4.26297
1.11675E+07 4.25912
1.11914E+07 4.25533
1.12154E+07 4.25158
1.12393E+07 4.24788
1.12632E+07 4.24423
1.12871E+07 4.24064
1.13111E+07 4.23709
1.13350E+07 4.23359
1.13589E+07 4.23013
1.13829E+07 4.22673
1.14068E+07 4.22338
1.14307E+07 4.22007
1.14546E+07 4.21681
1.14786E+07 4.21359
1.15025E+07 4.21042
1.15264E+07 4.20730
1.15504E+07 4.20423
1.15743E+07 4.20120
1.15982E+07 4.19822
1.16221E+07 4.19528
1.16461E+07 4.19239
1.16700E+07 4.18955
1.16939E+07 4.18675
1.17179E+07 4.18399
1.17418E+07 4.18128
1.17657E+07 4.17861
1.17730E+07 4.17758
1.17804E+07 4.17654
1.17877E+07 4.17552
1.17950E+07 4.17449
1.18023E+07 4.17347
1.18096E+07 4.17245
1.18170E+07 4.17144
1.18243E+07 4.17043
1.18316E+07 4.16942
1.18389E+07 4.16842
1.18463E+07 4.16742
1.18536E+07 4.16643
1.18609E+07 4.16544
1.18682E+07 4.16445
1.18755E+07 4.16347
1.18829E+07 4.16249
1.18902E+07 4.16152
1.18975E+07 4.16055
1.19048E+07 4.15958
1.19121E+07 4.15862
1.19195E+07 4.15766
1.19268E+07 4.15670
1.19341E+07 4.15575
1.19414E+07 4.15480
1.19488E+07 4.15385
1.19561E+07 4.15291
1.19634E+07 4.15197
1.19707E+07 4.15104
1.19780E+07 4.15011
1.19854E+07 4.14918
1.19927E+07 4.14826
1.20000E+07 4.14734
1.20076E+07 4.14594
1.20153E+07 4.14455
1.20229E+07 4.14316
1.20305E+07 4.14178
1.20381E+07 4.14040
1.20458E+07 4.13902
1.20534E+07 4.13765
1.20610E+07 4.13628
1.20686E+07 4.13491
1.20763E+07 4.13355
1.20839E+07 4.13219
1.20915E+07 4.13084
1.20991E+07 4.12949
1.21068E+07 4.12815
1.21144E+07 4.12681
1.21220E+07 4.12547
1.21296E+07 4.12414
1.21373E+07 4.12281
1.21449E+07 4.12149
1.21525E+07 4.12017
1.21601E+07 4.11885
1.21678E+07 4.11754
1.21754E+07 4.11623
1.21830E+07 4.11492
1.21906E+07 4.11362
1.21983E+07 4.11233
1.22059E+07 4.11103
1.22135E+07 4.10974
1.22211E+07 4.10846
1.22288E+07 4.10718
1.22364E+07 4.10590
1.22440E+07 4.10463
1.22516E+07 4.10336
1.22593E+07 4.10209
1.22669E+07 4.10083
1.22745E+07 4.09957
1.22821E+07 4.09832
1.22898E+07 4.09707
1.22974E+07 4.09582
1.23050E+07 4.09458
1.23126E+07 4.09334
1.23203E+07 4.09210
1.23279E+07 4.09087
1.23355E+07 4.08965
1.23431E+07 4.08842
1.23508E+07 4.08720
1.23584E+07 4.08599
1.23660E+07 4.08477
1.23736E+07 4.08357
1.23813E+07 4.08236
1.23889E+07 4.08116
1.23965E+07 4.07996
1.24041E+07 4.07877
1.24118E+07 4.07758
1.24194E+07 4.07640
1.24270E+07 4.07522
1.24346E+07 4.07404
1.24423E+07 4.07286
1.24499E+07 4.07169
1.24575E+07 4.07052
1.24651E+07 4.06936
1.24728E+07 4.06820
1.24804E+07 4.06705
1.24880E+07 4.06590
1.25040E+07 4.06319
1.25200E+07 4.06050
1.25360E+07 4.05782
1.25520E+07 4.05516
1.25680E+07 4.05251
1.25840E+07 4.04987
1.26000E+07 4.04724
1.26160E+07 4.04462
1.26320E+07 4.04202
1.26480E+07 4.03943
1.26640E+07 4.03684
1.26800E+07 4.03428
1.26960E+07 4.03172
1.27120E+07 4.02918
1.27280E+07 4.02665
1.27440E+07 4.02413
1.27600E+07 4.02162
1.27760E+07 4.01912
1.27920E+07 4.01664
1.28080E+07 4.01417
1.28240E+07 4.01171
1.28400E+07 4.00926
1.28560E+07 4.00682
1.28720E+07 4.00440
1.28880E+07 4.00198
1.29040E+07 3.99958
1.29200E+07 3.99719
1.29360E+07 3.99481
1.29520E+07 3.99245
1.29680E+07 3.99009
1.29840E+07 3.98775
1.30000E+07 3.98542
1.30078E+07 3.98418
1.30156E+07 3.98295
1.30234E+07 3.98173
1.30313E+07 3.98050
1.30391E+07 3.97927
1.30469E+07 3.97805
1.30547E+07 3.97683
1.30625E+07 3.97561
1.30703E+07 3.97439
1.30781E+07 3.97317
1.30859E+07 3.97196
1.30938E+07 3.97074
1.31016E+07 3.96953
1.31094E+07 3.96832
1.31172E+07 3.96711
1.31250E+07 3.96591
1.31328E+07 3.96470
1.31406E+07 3.96350
1.31484E+07 3.96230
1.31563E+07 3.96110
1.31641E+07 3.95990
1.31719E+07 3.95870
1.31797E+07 3.95751
1.31875E+07 3.95631
1.31953E+07 3.95512
1.32031E+07 3.95393
1.32109E+07 3.95274
1.32188E+07 3.95155
1.32266E+07 3.95037
1.32344E+07 3.94918
1.32422E+07 3.94800
1.32500E+07 3.94682
1.32578E+07 3.94564
1.32656E+07 3.94447
1.32734E+07 3.94329
1.32813E+07 3.94212
1.32891E+07 3.94095
1.32969E+07 3.93978
1.33047E+07 3.93861
1.33125E+07 3.93744
1.33203E+07 3.93628
1.33281E+07 3.93511
1.33359E+07 3.93395
1.33438E+07 3.93279
1.33516E+07 3.93163
1.33594E+07 3.93047
1.33672E+07 3.92932
1.33750E+07 3.92817
1.33828E+07 3.92701
1.33906E+07 3.92586
1.33984E+07 3.92471
1.34063E+07 3.92357
1.34141E+07 3.92242
1.34219E+07 3.92128
1.34297E+07 3.92013
1.34375E+07 3.91899
1.34453E+07 3.91785
1.34531E+07 3.91672
1.34609E+07 3.91558
1.34688E+07 3.91445
1.34766E+07 3.91331
1.34844E+07 3.91218
1.34922E+07 3.91106
1.35000E+07 3.90993
1.35078E+07 3.90880
1.35156E+07 3.90768
1.35234E+07 3.90655
1.35313E+07 3.90543
1.35391E+07 3.90431
1.35469E+07 3.90320
1.35547E+07 3.90208
1.35625E+07 3.90097
1.35703E+07 3.89985
1.35781E+07 3.89874
1.35859E+07 3.89763
1.35938E+07 3.89652
1.36016E+07 3.89542
1.36094E+07 3.89431
1.36172E+07 3.89321
1.36250E+07 3.89211
1.36328E+07 3.89101
1.36406E+07 3.88991
1.36484E+07 3.88881
1.36563E+07 3.88772
1.36641E+07 3.88662
1.36719E+07 3.88553
1.36797E+07 3.88444
1.36875E+07 3.88335
1.36953E+07 3.88226
1.37031E+07 3.88118
1.37109E+07 3.88010
1.37188E+07 3.87901
1.37266E+07 3.87793
1.37344E+07 3.87685
1.37422E+07 3.87578
1.37500E+07 3.87470
1.37578E+07 3.87363
1.37656E+07 3.87255
1.37734E+07 3.87148
1.37813E+07 3.87041
1.37891E+07 3.86935
1.37969E+07 3.86828
1.38047E+07 3.86722
1.38125E+07 3.86615
1.38203E+07 3.86509
1.38281E+07 3.86403
1.38359E+07 3.86297
1.38438E+07 3.86192
1.38516E+07 3.86086
1.38594E+07 3.85981
1.38672E+07 3.85876
1.38750E+07 3.85771
1.38828E+07 3.85666
1.38906E+07 3.85562
1.38984E+07 3.85457
1.39063E+07 3.85353
1.39141E+07 3.85249
1.39219E+07 3.85145
1.39297E+07 3.85041
1.39375E+07 3.84937
1.39453E+07 3.84834
1.39531E+07 3.84730
1.39609E+07 3.84627
1.39688E+07 3.84524
1.39766E+07 3.84421
1.39844E+07 3.84319
1.39922E+07 3.84216
1.40000E+07 3.84114
1.40078E+07 3.84009
1.40156E+07 3.83905
1.40234E+07 3.83801
1.40313E+07 3.83697
1.40391E+07 3.83594
1.40469E+07 3.83490
1.40547E+07 3.83387
1.40625E+07 3.83284
1.40703E+07 3.83181
1.40781E+07 3.83078
1.40859E+07 3.82976
1.40938E+07 3.82873
1.41016E+07 3.82771
1.41094E+07 3.82669
1.41172E+07 3.82568
1.41250E+07 3.82466
1.41328E+07 3.82364
1.41406E+07 3.82263
1.41484E+07 3.82162
1.41563E+07 3.82061
1.41641E+07 3.81960
1.41719E+07 3.81860
1.41797E+07 3.81759
1.41875E+07 3.81659
1.41953E+07 3.81559
1.42031E+07 3.81459
1.42109E+07 3.81360
1.42188E+07 3.81260
1.42266E+07 3.81161
1.42344E+07 3.81062
1.42422E+07 3.80963
1.42500E+07 3.80864
1.42578E+07 3.80766
1.42656E+07 3.80667
1.42734E+07 3.80569
1.42813E+07 3.80471
1.42891E+07 3.80373
1.42969E+07 3.80275
1.43047E+07 3.80178
1.43125E+07 3.80081
1.43203E+07 3.79983
1.43281E+07 3.79887
1.43359E+07 3.79790
1.43438E+07 3.79693
1.43516E+07 3.79597
1.43594E+07 3.79501
1.43672E+07 3.79405
1.43750E+07 3.79309
1.43828E+07 3.79213
1.43906E+07 3.79117
1.43984E+07 3.79022
1.44063E+07 3.78927
1.44141E+07 3.78832
1.44219E+07 3.78737
1.44297E+07 3.78642
1.44375E+07 3.78548
1.44453E+07 3.78454
1.44531E+07 3.78360
1.44609E+07 3.78266
1.44688E+07 3.78172
1.44766E+07 3.78078
1.44844E+07 3.77985
1.44922E+07 3.77892
1.45000E+07 3.77799
1.45156E+07 3.77602
1.45313E+07 3.77405
1.45469E+07 3.77209
1.45625E+07 3.77014
1.45781E+07 3.76820
1.45938E+07 3.76626
1.46094E+07 3.76432
1.46250E+07 3.76239
1.46406E+07 3.76047
1.46563E+07 3.75856
1.46719E+07 3.75665
1.46875E+07 3.75474
1.47031E+07 3.75285
1.47188E+07 3.75096
1.47344E+07 3.74907
1.47500E+07 3.74719
1.47656E+07 3.74532
1.47813E+07 3.74345
1.47969E+07 3.74159
1.48125E+07 3.73974
1.48281E+07 3.73789
1.48438E+07 3.73605
1.48594E+07 3.73421
1.48750E+07 3.73238
1.48906E+07 3.73056
1.49063E+07 3.72874
1.49219E+07 3.72693
1.49375E+07 3.72513
1.49531E+07 3.72333
1.49688E+07 3.72154
1.49844E+07 3.71975
1.50000E+07 3.71797
1.50156E+07 3.71613
1.50313E+07 3.71430
1.50469E+07 3.71247
1.50625E+07 3.71065
1.50781E+07 3.70883
1.50938E+07 3.70702
1.51094E+07 3.70521
1.51250E+07 3.70341
1.51406E+07 3.70162
1.51563E+07 3.69983
1.51719E+07 3.69805
1.51875E+07 3.69627
1.52031E+07 3.69450
1.52188E+07 3.69273
1.52344E+07 3.69097
1.52500E+07 3.68922
1.52656E+07 3.68747
1.52813E+07 3.68573
1.52969E+07 3.68399
1.53125E+07 3.68226
1.53281E+07 3.68053
1.53438E+07 3.67881
1.53594E+07 3.67709
1.53750E+07 3.67538
1.53906E+07 3.67368
1.54063E+07 3.67198
1.54219E+07 3.67029
1.54375E+07 3.66860
1.54531E+07 3.66692
1.54688E+07 3.66524
1.54844E+07 3.66357
1.55000E+07 3.66191
1.55156E+07 3.66025
1.55313E+07 3.65860
1.55469E+07 3.65695
1.55625E+07 3.65531
1.55781E+07 3.65367
1.55938E+07 3.65204
1.56094E+07 3.65041
1.56250E+07 3.64880
1.56406E+07 3.64718
1.56563E+07 3.64557
1.56719E+07 3.64397
1.56875E+07 3.64237
1.57031E+07 3.64078
1.57188E+07 3.63920
1.57344E+07 3.63762
1.57500E+07 3.63604
1.57656E+07 3.63448
1.57813E+07 3.63291
1.57969E+07 3.63136
1.58125E+07 3.62981
1.58281E+07 3.62826
1.58438E+07 3.62672
1.58594E+07 3.62519
1.58750E+07 3.62366
1.58906E+07 3.62214
1.59063E+07 3.62062
1.59219E+07 3.61911
1.59375E+07 3.61761
1.59531E+07 3.61611
1.59688E+07 3.61462
1.59844E+07 3.61313
1.60000E+07 3.61165
1.60313E+07 3.60775
1.60625E+07 3.60388
1.60938E+07 3.60002
1.61250E+07 3.59619
1.61563E+07 3.59237
1.61875E+07 3.58858
1.62188E+07 3.58481
1.62500E+07 3.58105
1.62813E+07 3.57732
1.63125E+07 3.57361
1.63438E+07 3.56992
1.63750E+07 3.56624
1.64063E+07 3.56259
1.64375E+07 3.55896
1.64688E+07 3.55535
1.65000E+07 3.55176
1.65313E+07 3.54819
1.65625E+07 3.54463
1.65938E+07 3.54110
1.66250E+07 3.53759
1.66563E+07 3.53410
1.66875E+07 3.53063
1.67188E+07 3.52718
1.67500E+07 3.52375
1.67813E+07 3.52034
1.68125E+07 3.51695
1.68438E+07 3.51358
1.68750E+07 3.51023
1.69063E+07 3.50690
1.69375E+07 3.50359
1.69688E+07 3.50031
1.70000E+07 3.49704
1.70625E+07 3.49001
1.71250E+07 3.48304
1.71875E+07 3.47614
1.72500E+07 3.46930
1.73125E+07 3.46253
1.73750E+07 3.45583
1.74375E+07 3.44918
1.75000E+07 3.44260
1.75625E+07 3.43609
1.76250E+07 3.42964
1.76875E+07 3.42326
1.77500E+07 3.41694
1.78125E+07 3.41068
1.78750E+07 3.40449
1.79375E+07 3.39836
1.80000E+07 3.39230
1.80310E+07 3.38794
1.80938E+07 3.37913
1.81565E+07 3.37041
1.81566E+07 3.37040
1.82620E+07 3.35572
1.83674E+07 3.34121
1.84729E+07 3.32689
1.85783E+07 3.31274
1.86837E+07 3.29876
1.87891E+07 3.28496
1.88946E+07 3.27134
1.90000E+07 3.25788
1.90968E+07 3.24552
1.91935E+07 3.23329
1.92943E+07 3.22054
1.93951E+07 3.20794
1.94959E+07 3.19548
1.95968E+07 3.18316
1.96976E+07 3.17098
1.97984E+07 3.15895
1.98992E+07 3.14705
2.00000E+07 3.13529
