Kr-80(n,tot) ENDFB-8.0
Energy(eV) XS(b)
1.00000E-05 626.047
1.03125E-05 616.503
1.06250E-05 607.384
1.09375E-05 598.658
1.12500E-05 590.299
1.15625E-05 582.281
1.18750E-05 574.582
1.21875E-05 567.181
1.25000E-05 560.060
1.28125E-05 553.201
1.31250E-05 546.588
1.34375E-05 540.208
1.37500E-05 534.047
1.43750E-05 522.333
1.50000E-05 511.360
1.56250E-05 501.052
1.62500E-05 491.345
1.68750E-05 482.183
1.75000E-05 473.517
1.81250E-05 465.303
1.87500E-05 457.504
1.93750E-05 450.086
2.00000E-05 443.018
2.09375E-05 433.017
2.18750E-05 423.666
2.28125E-05 414.899
2.37500E-05 406.657
2.46875E-05 398.889
2.56250E-05 391.552
2.65625E-05 384.607
2.75000E-05 378.021
2.84375E-05 371.764
2.93750E-05 365.809
3.03125E-05 360.133
3.12500E-05 354.715
3.21875E-05 349.536
3.31250E-05 344.578
3.40625E-05 339.827
3.50000E-05 335.269
3.59375E-05 330.890
3.68750E-05 326.680
3.78125E-05 322.627
3.87500E-05 318.723
3.96875E-05 314.958
4.06250E-05 311.324
4.25000E-05 304.422
4.43750E-05 297.963
4.62500E-05 291.901
4.81250E-05 286.198
5.00000E-05 280.820
5.15625E-05 276.564
5.31250E-05 272.498
5.46875E-05 268.608
5.62500E-05 264.882
5.78125E-05 261.308
5.93750E-05 257.876
6.09375E-05 254.578
6.25000E-05 251.405
6.40625E-05 248.348
6.56250E-05 245.402
6.71875E-05 242.560
6.87500E-05 239.815
7.18750E-05 234.597
7.50000E-05 229.710
7.81250E-05 225.120
8.12500E-05 220.799
8.43750E-05 216.721
8.75000E-05 212.864
9.06250E-05 209.208
9.37500E-05 205.738
9.68750E-05 202.438
0.000100000 199.295
0.000103125 196.296
0.000106250 193.431
0.000109375 190.690
0.000112500 188.065
0.000115625 185.547
0.000118750 183.130
0.000121875 180.807
0.000125000 178.572
0.000128125 176.420
0.000131250 174.346
0.000134375 172.344
0.000137500 170.412
0.000143750 166.739
0.000150000 163.299
0.000156250 160.070
0.000162500 157.029
0.000168750 154.160
0.000175000 151.447
0.000181250 148.876
0.000187500 146.436
0.000193750 144.116
0.000200000 141.906
0.000209375 138.781
0.000218750 135.859
0.000228125 133.121
0.000237500 130.548
0.000246875 128.125
0.000256250 125.836
0.000265625 123.671
0.000275000 121.619
0.000284375 119.669
0.000293750 117.815
0.000303125 116.048
0.000312500 114.362
0.000321875 112.751
0.000331250 111.209
0.000340625 109.732
0.000350000 108.316
0.000359375 106.955
0.000368750 105.648
0.000378125 104.390
0.000387500 103.178
0.000396875 102.010
0.000406250 100.883
0.000425000 98.7430
0.000443750 96.7417
0.000462500 94.8646
0.000481250 93.0996
0.000500000 91.4359
0.000515625 90.1201
0.000531250 88.8635
0.000546875 87.6617
0.000562500 86.5109
0.000578125 85.4077
0.000593750 84.3488
0.000609375 83.3314
0.000625000 82.3528
0.000640625 81.4106
0.000656250 80.5027
0.000671875 79.6270
0.000687500 78.7818
0.000718750 77.1756
0.000750000 75.6721
0.000781250 74.2608
0.000812500 72.9327
0.000843750 71.6799
0.000875000 70.4957
0.000906250 69.3739
0.000937500 68.3094
0.000968750 67.2974
0.00100000 66.3338
0.00103125 65.4149
0.00106250 64.5372
0.00109375 63.6979
0.00112500 62.8942
0.00115625 62.1237
0.00118750 61.3841
0.00121875 60.6735
0.00125000 59.9900
0.00128125 59.3319
0.00131250 58.6977
0.00134375 58.0861
0.00137500 57.4956
0.00143750 56.3735
0.00150000 55.3231
0.00156250 54.3370
0.00162500 53.4089
0.00168750 52.5334
0.00175000 51.7057
0.00181250 50.9216
0.00187500 50.1774
0.00193750 49.4698
0.00200000 48.7960
0.00209375 47.8430
0.00218750 46.9524
0.00228125 46.1178
0.00237500 45.3335
0.00246875 44.5948
0.00256250 43.8972
0.00265625 43.2373
0.00275000 42.6116
0.00284375 42.0175
0.00293750 41.4522
0.00303125 40.9135
0.00312500 40.3994
0.00321875 39.9082
0.00331250 39.4381
0.00340625 38.9876
0.00350000 38.5556
0.00359375 38.1406
0.00368750 37.7417
0.00378125 37.3579
0.00387500 36.9881
0.00396875 36.6316
0.00406250 36.2876
0.00425000 35.6344
0.00443750 35.0232
0.00462500 34.4498
0.00481250 33.9105
0.00500000 33.4019
0.00515625 32.9997
0.00531250 32.6154
0.00546875 32.2478
0.00562500 31.8957
0.00578125 31.5580
0.00593750 31.2339
0.00609375 30.9223
0.00625000 30.6226
0.00640625 30.3340
0.00656250 30.0558
0.00671875 29.7874
0.00687500 29.5282
0.00718750 29.0356
0.00750000 28.5743
0.00781250 28.1411
0.00812500 27.7332
0.00843750 27.3483
0.00875000 26.9843
0.00906250 26.6394
0.00937500 26.3119
0.00968750 26.0005
0.0100000 25.7039
0.0103125 25.4209
0.0106250 25.1505
0.0109375 24.8919
0.0112500 24.6442
0.0115625 24.4066
0.0118750 24.1785
0.0121875 23.9592
0.0125000 23.7483
0.0128125 23.5452
0.0131250 23.3493
0.0134375 23.1604
0.0137500 22.9780
0.0143750 22.6312
0.0150000 22.3065
0.0156250 22.0014
0.0162500 21.7142
0.0168750 21.4431
0.0175000 21.1867
0.0181250 20.9437
0.0187500 20.7130
0.0193750 20.4936
0.0200000 20.2846
0.0206625 20.0735
0.0213250 19.8723
0.0219875 19.6804
0.0226500 19.4969
0.0233125 19.3214
0.0239750 19.1532
0.0246375 18.9918
0.0253000 18.8369
0.0264578 18.5802
0.0276156 18.3399
0.0287734 18.1143
0.0299313 17.9020
0.0310891 17.7017
0.0322469 17.5123
0.0334047 17.3328
0.0345625 17.1625
0.0355274 17.0269
0.0364922 16.8968
0.0374570 16.7717
0.0384219 16.6514
0.0393867 16.5355
0.0403516 16.4238
0.0413164 16.3160
0.0422813 16.2119
0.0442109 16.0141
0.0461406 15.8289
0.0480703 15.6549
0.0500000 15.4912
0.0515625 15.3654
0.0531250 15.2452
0.0546875 15.1302
0.0562500 15.0200
0.0578125 14.9143
0.0593750 14.8129
0.0609375 14.7154
0.0625000 14.6215
0.0640625 14.5312
0.0656250 14.4441
0.0671875 14.3600
0.0687500 14.2789
0.0718750 14.1246
0.0750000 13.9800
0.0781250 13.8441
0.0812500 13.7161
0.0843750 13.5953
0.0875000 13.4811
0.0906250 13.3727
0.0937500 13.2699
0.0968750 13.1720
0.100000 13.0788
0.103125 12.9899
0.106250 12.9049
0.109375 12.8235
0.112500 12.7456
0.115625 12.6709
0.118750 12.5991
0.121875 12.5301
0.125000 12.4637
0.128125 12.3998
0.131250 12.3381
0.134375 12.2787
0.137500 12.2212
0.143750 12.1120
0.150000 12.0097
0.156250 11.9134
0.162500 11.8228
0.168750 11.7372
0.175000 11.6562
0.181250 11.5795
0.187500 11.5066
0.193750 11.4373
0.200000 11.3712
0.209375 11.2777
0.218750 11.1902
0.228125 11.1081
0.237500 11.0308
0.246875 10.9580
0.256250 10.8891
0.265625 10.8240
0.275000 10.7621
0.284375 10.7033
0.293750 10.6474
0.303125 10.5940
0.312500 10.5430
0.321875 10.4942
0.331250 10.4475
0.340625 10.4028
0.350000 10.3598
0.359375 10.3185
0.368750 10.2787
0.378125 10.2404
0.387500 10.2035
0.396875 10.1680
0.406250 10.1336
0.425000 10.0683
0.443750 10.0071
0.462500 9.94946
0.500000 9.84414
0.531250 9.76486
0.562500 9.69196
0.593750 9.62474
0.625000 9.56250
0.687500 9.45061
0.750000 9.35257
0.812500 9.26564
0.875000 9.18801
0.937500 9.11790
1.00000 9.05392
1.06250 8.99535
1.12500 8.94143
1.18750 8.89154
1.25000 8.84517
1.37500 8.76136
1.50000 8.68735
1.62500 8.62122
1.75000 8.56167
1.87500 8.50745
2.00000 8.45756
2.18750 8.38978
2.37500 8.32899
2.56250 8.27384
2.75000 8.22343
2.93750 8.17693
3.12500 8.13367
3.31250 8.09325
3.50000 8.05530
3.68750 8.01951
3.87500 7.98560
4.25000 7.92262
4.62500 7.86500
5.00000 7.81175
5.31250 7.77015
5.62500 7.73065
5.93750 7.69301
6.25000 7.65701
6.87500 7.58918
7.50000 7.52596
8.12500 7.46647
8.75000 7.41008
9.37500 7.35628
10.0000 7.30463
10.6250 7.25487
11.2500 7.20674
11.8750 7.16003
12.5000 7.11458
13.7500 7.02691
15.0000 6.94281
16.2500 6.86163
17.5000 6.78288
18.7500 6.70612
20.0000 6.63103
21.8750 6.52099
23.7500 6.41345
25.6250 6.30783
27.5000 6.20365
29.3750 6.10052
31.2500 5.99805
33.1250 5.89595
35.0000 5.79392
36.8750 5.69167
38.7500 5.58894
40.6250 5.48547
42.5000 5.38100
44.3750 5.27527
46.2500 5.16801
48.1250 5.05896
50.0000 4.94785
51.5625 4.85348
53.1250 4.75731
54.6875 4.65917
56.2500 4.55889
57.8125 4.45629
59.3750 4.35119
60.9375 4.24342
62.5000 4.13281
63.9649 4.02639
65.4297 3.91720
66.8945 3.80516
68.3594 3.69023
69.0918 3.63191
69.8242 3.57267
71.2891 3.45211
72.0215 3.39083
72.7539 3.32893
73.4863 3.26646
74.2188 3.20348
75.0000 3.13584
76.0742 3.04227
77.1484 2.94846
78.2227 2.85497
78.7598 2.80858
79.2969 2.76260
79.8340 2.71712
80.3711 2.67233
80.9082 2.62847
81.4453 2.58565
81.9824 2.54415
82.5195 2.50436
83.0567 2.46650
83.5938 2.43092
84.0820 2.40114
84.5703 2.37399
85.0586 2.34993
85.5469 2.32979
86.0352 2.31313
86.5234 2.30185
87.0117 2.29654
87.5000 2.29797
87.8906 2.30469
88.2813 2.31707
88.6719 2.33584
89.0625 2.36181
89.4531 2.39571
89.6484 2.41600
89.8438 2.43884
90.0391 2.46436
90.2344 2.49269
90.4297 2.52397
90.6250 2.55840
90.7593 2.58403
90.8936 2.61133
91.0278 2.64041
91.0950 2.65564
91.1621 2.67133
91.2293 2.68751
91.2964 2.70418
91.3635 2.72135
91.4307 2.73903
91.4978 2.75724
91.5650 2.77599
91.6321 2.79529
91.6992 2.81514
91.7725 2.83747
91.8457 2.86049
91.9190 2.88424
91.9922 2.90873
92.0654 2.93398
92.1387 2.96002
92.2119 2.98686
92.2852 3.01452
92.3828 3.05272
92.4317 3.07241
92.4805 3.09248
92.5293 3.11296
92.5781 3.13385
92.6270 3.15516
92.6758 3.17689
92.7246 3.19905
92.7674 3.21881
92.8101 3.23890
92.8528 3.25935
92.8955 3.28015
92.9383 3.30131
92.9810 3.32282
93.0237 3.34471
93.0664 3.36698
93.1336 3.40274
93.2007 3.43948
93.2678 3.47720
93.3350 3.51594
93.4021 3.55572
93.4693 3.59657
93.5364 3.63852
93.6035 3.68159
93.6707 3.72582
93.7378 3.77124
93.8049 3.81787
93.8721 3.86575
93.9392 3.91492
94.0064 3.96539
94.0735 4.01722
94.1406 4.07043
94.2078 4.12507
94.2749 4.18117
94.3421 4.23878
94.4092 4.29793
94.4763 4.35867
94.5435 4.42104
94.6106 4.48510
94.6777 4.55086
94.7357 4.60910
94.7937 4.66868
94.8517 4.72965
94.9097 4.79203
94.9677 4.85588
95.0257 4.92119
95.0836 4.98803
95.1416 5.05643
95.1996 5.12643
95.2576 5.19806
95.3156 5.27139
95.3736 5.34642
95.4895 5.50184
95.6055 5.66469
95.6726 5.76252
95.7398 5.86305
95.8069 5.96637
95.8740 6.07255
95.9412 6.18169
96.0083 6.29386
96.0755 6.40918
96.1426 6.52772
96.2097 6.64960
96.2769 6.77493
96.4111 7.03633
96.5454 7.31287
96.6797 7.60550
96.8140 7.91533
96.9483 8.24349
97.0825 8.59123
97.2168 8.95988
97.3511 9.35095
97.4854 9.76599
97.6196 10.2067
97.7539 10.6750
97.8882 11.1730
98.0225 11.7027
98.1568 12.2668
98.2910 12.8677
98.4253 13.5084
98.5596 14.1922
98.6939 14.9224
98.8281 15.7029
98.9624 16.5380
99.0967 17.4323
99.2310 18.3910
99.3652 19.4197
99.4995 20.5249
99.6338 21.7136
99.7681 22.9936
99.9024 24.3734
100.000 25.4454
100.122 26.8750
100.244 28.4113
100.367 30.0641
100.489 31.8431
100.611 33.7639
100.733 35.8389
100.855 38.0842
100.977 40.5153
101.100 43.1566
101.222 46.0266
101.344 49.1561
101.466 52.5697
101.588 56.3072
101.649 58.3085
101.710 60.4018
101.771 62.5998
101.833 64.9055
101.894 67.3257
101.955 69.8635
102.016 72.5352
102.077 75.3453
102.138 78.3031
102.199 81.4187
102.260 84.7030
102.321 88.1681
102.382 91.8267
102.443 95.6866
102.504 99.7758
102.566 104.105
102.627 108.692
102.688 113.550
102.749 118.716
102.810 124.207
102.871 130.049
102.932 136.262
103.010 144.789
103.087 154.053
103.165 164.165
103.243 175.200
103.321 187.305
103.398 200.583
103.476 215.207
103.515 223.091
103.554 231.361
103.615 245.279
103.676 260.396
103.737 276.854
103.798 294.811
103.859 314.453
103.920 335.992
103.982 359.679
104.043 385.760
104.104 414.661
104.134 430.303
104.165 446.746
104.195 464.158
104.226 482.494
104.256 501.885
104.287 522.411
104.317 544.237
104.348 567.317
104.379 591.914
104.409 617.987
104.440 645.842
104.470 675.443
104.501 707.044
104.531 740.826
104.555 768.592
104.578 797.889
104.602 828.831
104.626 861.542
104.649 896.156
104.673 932.822
104.696 971.700
104.720 1012.97
104.744 1056.82
104.767 1103.46
104.791 1153.13
104.814 1206.08
104.838 1262.58
104.862 1322.95
104.885 1387.50
104.909 1456.59
104.939 1553.60
104.970 1659.48
105.000 1775.96
105.031 1903.39
105.062 2043.85
105.092 2197.72
105.123 2366.85
105.153 2552.70
105.184 2757.48
105.214 2981.39
105.245 3227.41
105.275 3495.36
105.306 3788.30
105.336 4105.36
105.367 4449.41
105.397 4818.59
105.428 5215.19
105.459 5635.95
105.489 6080.76
105.520 6547.51
105.550 7034.91
105.581 7535.97
105.642 8564.41
105.707 9654.78
105.739 10177.0
105.772 10669.2
105.804 11124.9
105.837 11531.9
105.869 11882.8
105.902 12169.9
105.927 12340.8
105.951 12468.7
105.976 12552.7
106.000 12591.7
106.032 12574.6
106.064 12481.2
106.096 12314.1
106.128 12077.3
106.160 11776.5
106.191 11418.6
106.223 11011.4
106.255 10563.5
106.286 10108.3
106.316 9633.49
106.376 8649.73
106.437 7662.28
106.467 7182.50
106.497 6717.33
106.529 6251.37
106.560 5807.94
106.592 5389.12
106.623 4997.38
106.654 4630.82
106.686 4291.75
106.717 3977.49
106.749 3689.17
106.780 3423.78
106.812 3181.65
106.843 2959.73
106.875 2757.89
106.906 2573.28
106.937 2405.56
106.969 2252.19
107.000 2112.76
107.023 2018.80
107.046 1930.82
107.069 1848.41
107.092 1771.46
107.115 1698.94
107.138 1630.83
107.161 1566.80
107.183 1506.82
107.206 1450.08
107.229 1396.58
107.252 1346.11
107.275 1298.63
107.298 1253.55
107.321 1210.88
107.366 1132.29
107.398 1082.72
107.429 1036.65
107.461 993.491
107.492 953.251
107.524 915.436
107.555 880.071
107.587 846.741
107.618 815.485
107.649 785.947
107.681 758.177
107.712 731.869
107.744 707.075
107.775 683.535
107.807 661.301
107.869 620.186
107.932 582.939
107.995 549.235
108.058 518.584
108.121 490.620
108.184 465.033
108.247 441.555
108.310 419.956
108.373 400.038
108.427 384.031
108.481 369.079
108.536 355.062
108.590 341.902
108.644 329.528
108.699 317.878
108.753 306.894
108.807 296.525
108.862 286.707
108.916 277.435
108.970 268.652
109.025 260.323
109.133 244.906
109.242 230.964
109.305 223.477
109.368 216.402
109.431 209.699
109.493 203.341
109.619 191.567
109.745 180.911
109.871 171.234
109.997 162.417
110.122 154.356
110.248 146.967
110.397 138.996
110.546 131.755
110.694 125.155
110.843 119.125
110.992 113.594
111.140 108.511
111.289 103.820
111.438 99.4836
111.563 96.0586
111.689 92.8444
111.815 89.8216
111.941 86.9750
112.067 84.2908
112.192 81.7565
112.318 79.3608
112.444 77.0932
112.570 74.9445
112.696 72.9062
112.821 70.9706
112.947 69.1305
113.199 65.7119
113.450 62.6049
113.702 59.7714
113.954 57.1788
114.205 54.7993
114.457 52.6093
114.708 50.5883
114.960 48.7184
115.212 46.9844
115.463 45.3733
115.669 44.1372
115.875 42.9700
116.081 41.8672
116.287 40.8240
116.493 39.8334
116.698 38.8920
116.904 37.9959
117.110 37.1436
117.316 36.3314
117.522 35.5575
117.933 34.1134
118.345 32.7938
118.757 31.5842
119.008 30.8935
119.260 30.2366
119.512 29.6112
119.763 29.0151
120.266 27.9034
120.770 26.8879
121.273 25.9572
121.776 25.1014
122.279 24.3122
122.782 23.5823
123.377 22.7878
123.972 22.0587
124.567 21.3875
125.161 20.7678
125.756 20.1943
126.351 19.6644
126.945 19.1687
127.540 18.7062
128.043 18.3386
128.546 17.9907
129.049 17.6612
129.553 17.3488
130.056 17.0521
130.559 16.7698
131.062 16.5013
131.565 16.2453
132.069 16.0011
132.572 15.7678
133.075 15.5449
133.578 15.3315
134.585 14.9313
135.591 14.5629
136.597 14.2227
137.604 13.9075
138.610 13.6148
139.617 13.3422
140.623 13.0876
141.629 12.8494
142.636 12.6261
143.642 12.4161
144.511 12.2448
145.381 12.0819
146.250 11.9281
147.119 11.7799
147.988 11.6394
148.857 11.5039
149.726 11.3755
150.595 11.2519
151.465 11.1334
152.334 11.0204
153.203 10.9109
154.072 10.8067
155.810 10.6088
157.549 10.4253
158.555 10.3252
159.561 10.2289
160.568 10.1361
161.574 10.0472
163.587 9.87863
165.600 9.72215
167.613 9.57583
169.625 9.43915
171.638 9.31095
173.651 9.19024
175.115 9.10694
176.579 9.02706
178.043 8.95038
179.506 8.87670
180.970 8.80581
182.434 8.73768
185.362 8.60856
188.289 8.48810
191.217 8.37546
194.145 8.26982
197.072 8.17047
200.000 8.07675
202.448 8.00238
204.896 7.93183
207.344 7.86353
209.792 7.79875
212.240 7.73570
214.688 7.67577
219.584 7.56179
224.479 7.45629
226.927 7.40593
229.375 7.35758
231.823 7.31024
234.271 7.26471
239.167 7.17718
244.552 7.08680
247.245 7.04327
249.938 7.00123
255.323 6.92013
260.709 6.84320
266.094 6.76954
271.480 6.69916
276.865 6.63151
282.251 6.56616
287.636 6.50312
293.021 6.44184
298.407 6.38217
303.792 6.32394
309.178 6.26677
314.563 6.21056
319.949 6.15503
325.334 6.09993
330.720 6.04508
336.105 5.99019
341.490 5.93499
346.876 5.87916
349.569 5.85094
352.261 5.82243
357.647 5.76429
360.340 5.73464
363.032 5.70434
365.725 5.67353
368.418 5.64213
371.355 5.60683
374.293 5.57070
377.230 5.53323
380.168 5.49444
383.105 5.45404
386.043 5.41189
387.512 5.39004
388.980 5.36763
390.449 5.34466
391.918 5.32105
393.999 5.28639
396.079 5.25019
398.160 5.21227
400.241 5.17244
401.281 5.15174
402.322 5.13044
403.362 5.10862
404.402 5.08620
405.443 5.06301
406.483 5.03909
407.523 5.01439
408.564 4.98887
409.910 4.95451
411.256 4.91855
412.603 4.88083
413.949 4.84117
415.296 4.79939
416.642 4.75527
417.315 4.73226
417.988 4.70857
418.661 4.68416
419.335 4.65902
420.375 4.61857
421.415 4.57607
422.456 4.53134
423.496 4.48418
424.016 4.45961
424.536 4.43437
425.057 4.40844
425.577 4.38177
426.097 4.35427
426.617 4.32591
427.137 4.29669
427.658 4.26655
428.331 4.22612
429.004 4.18400
429.677 4.14007
430.350 4.09423
431.024 4.04636
431.697 3.99634
432.370 3.94404
433.043 3.88935
433.655 3.83743
434.267 3.78333
434.573 3.75543
434.879 3.72696
435.185 3.69791
435.491 3.66828
435.797 3.63805
436.103 3.60722
436.409 3.57581
436.715 3.54381
437.021 3.51125
437.327 3.47812
437.633 3.44445
437.939 3.41027
438.276 3.37211
438.612 3.33343
438.949 3.29433
439.285 3.25493
439.622 3.21537
439.959 3.17584
440.295 3.13659
440.632 3.09793
440.968 3.06022
441.305 3.02398
441.641 2.98982
441.810 2.97376
441.978 2.95854
442.146 2.94429
442.315 2.93116
442.483 2.91932
442.651 2.90897
442.820 2.90033
442.988 2.89365
443.156 2.88923
443.324 2.88737
443.554 2.88967
443.783 2.89857
444.013 2.91543
444.242 2.94190
444.472 2.98005
444.587 3.00427
444.701 3.03238
444.816 3.06483
444.931 3.10202
445.046 3.14452
445.160 3.19283
445.306 3.26348
445.451 3.34596
445.596 3.44213
445.742 3.55389
445.887 3.68379
445.960 3.75638
446.032 3.83447
446.105 3.91872
446.178 4.00950
446.251 4.10734
446.323 4.21266
446.392 4.32023
446.461 4.43563
446.530 4.55984
446.599 4.69321
446.667 4.83690
446.736 4.99135
446.805 5.15769
446.874 5.33697
446.939 5.51955
447.004 5.71551
447.069 5.92629
447.134 6.15321
447.149 6.20913
447.210 6.44295
447.272 6.69407
447.302 6.82660
447.333 6.96404
447.363 7.10661
447.394 7.25456
447.436 7.46732
447.478 7.69139
447.520 7.92749
447.562 8.17582
447.604 8.43843
447.647 8.71567
447.689 9.00857
447.731 9.31749
447.773 9.64511
447.815 9.99205
447.857 10.3598
447.899 10.7489
447.920 10.9534
447.941 11.1632
447.962 11.3805
447.983 11.6035
448.004 11.8347
448.025 12.0722
448.046 12.3172
448.067 12.5703
448.088 12.8329
448.109 13.1029
448.130 13.3834
448.151 13.6720
448.173 13.9720
448.194 14.2809
448.215 14.6006
448.236 14.9317
448.257 15.2764
448.278 15.6319
448.299 16.0023
448.320 16.3848
448.341 16.7837
448.362 17.1959
448.383 17.6241
448.404 18.0693
448.425 18.5345
448.446 19.0163
448.467 19.5203
448.488 20.0430
448.509 20.5905
448.530 21.1588
448.551 21.7520
448.572 22.3714
448.593 23.0219
448.614 23.6989
448.635 24.4072
448.656 25.1489
448.677 25.9298
448.698 26.7447
448.719 27.5996
448.740 28.4971
448.761 29.4445
448.782 30.4359
448.804 31.4837
448.825 32.5816
448.846 33.7435
448.867 34.9623
448.888 36.2474
448.909 37.6033
448.930 39.0416
448.951 40.5537
448.972 42.1593
448.993 43.8488
449.014 45.6443
449.035 47.5352
449.056 49.5365
449.077 51.6552
449.098 53.9098
449.119 56.2869
449.140 58.8176
449.161 61.4865
449.182 64.3285
449.203 67.3263
449.224 70.5030
449.245 73.8691
449.266 77.4531
449.287 81.2324
449.308 85.2551
449.329 89.4952
449.351 94.0059
449.372 98.7575
449.393 103.784
449.414 109.100
449.435 114.745
449.456 120.682
449.477 126.980
449.498 133.596
449.519 140.607
449.540 147.960
449.561 155.704
449.582 163.853
449.603 172.462
449.624 181.464
449.645 190.960
449.666 200.871
449.687 211.305
449.708 222.176
449.729 233.541
449.750 245.413
449.783 264.864
449.815 285.517
449.848 307.451
449.880 330.675
449.913 355.191
449.945 380.988
449.978 408.043
450.010 436.320
450.052 474.684
450.094 514.867
450.137 556.681
450.179 599.788
450.263 689.247
450.347 780.326
450.431 869.959
450.473 913.053
450.515 954.269
450.557 993.143
450.599 1029.23
450.641 1062.26
450.683 1091.67
450.726 1118.11
450.770 1139.93
450.813 1156.83
450.857 1168.58
450.900 1175.02
450.915 1175.97
450.962 1174.91
451.009 1167.56
451.056 1154.10
451.103 1134.79
451.137 1117.30
451.171 1097.14
451.205 1074.46
451.240 1049.47
451.305 995.695
451.371 935.864
451.419 889.458
451.466 841.551
451.562 743.534
451.627 676.335
451.693 611.033
451.759 548.610
451.791 518.751
451.824 489.908
451.857 462.147
451.890 435.521
451.923 410.068
451.955 385.814
451.988 362.771
452.021 340.943
452.054 320.322
452.087 300.891
452.116 284.195
452.146 268.495
452.176 253.661
452.206 239.760
452.236 226.667
452.266 214.434
452.295 202.982
452.325 192.271
452.355 182.232
452.385 172.896
452.415 164.188
452.445 156.072
452.474 148.487
452.504 141.449
452.534 134.897
452.564 128.799
452.597 122.554
452.630 116.800
452.662 111.480
452.695 106.558
452.728 102.002
452.761 97.7800
452.794 93.8649
452.826 90.2302
452.859 86.8419
452.892 83.6983
452.925 80.7688
452.958 78.0347
452.990 75.4792
453.023 73.0870
453.056 70.8442
453.089 68.7381
453.128 66.4079
453.166 64.2360
453.205 62.2075
453.244 60.3135
453.283 58.5326
453.322 56.8590
453.360 55.2833
453.399 53.8009
453.438 52.3967
453.477 51.0678
453.515 49.8084
453.554 48.6159
453.632 46.3980
453.709 44.3867
453.775 42.8210
453.841 41.3704
453.906 40.0207
453.972 38.7620
454.037 37.5852
454.103 36.4829
454.169 35.4482
454.234 34.4752
454.300 33.5574
454.365 32.6928
454.431 31.8759
454.497 31.1029
454.562 30.3704
454.628 29.6756
454.693 29.0156
454.759 28.3879
454.890 27.2201
455.022 26.1583
455.153 25.1876
455.284 24.2987
455.415 23.4806
455.547 22.7267
455.678 22.0295
455.809 21.3830
455.922 20.8610
456.036 20.3706
456.149 19.9083
456.262 19.4724
456.376 19.0603
456.489 18.6706
456.602 18.3014
456.716 17.9511
456.829 17.6181
456.942 17.3017
457.056 17.0002
457.169 16.7132
457.396 16.1777
457.622 15.6888
457.754 15.4245
457.885 15.1732
458.016 14.9334
458.147 14.7050
458.410 14.2782
458.672 13.8877
458.935 13.5291
459.197 13.1989
459.460 12.8938
459.722 12.6113
460.032 12.3031
460.343 12.0197
460.653 11.7583
460.963 11.5167
461.273 11.2926
461.583 11.0842
461.894 10.8899
462.204 10.7084
462.466 10.5637
462.729 10.4266
462.991 10.2966
463.254 10.1731
463.516 10.0557
463.779 9.94386
464.041 9.83731
464.304 9.73567
464.566 9.63856
464.829 9.54572
465.091 9.45686
465.353 9.37178
465.878 9.21186
466.403 9.06441
466.928 8.92796
467.453 8.80138
467.978 8.68359
468.503 8.57374
469.028 8.47101
469.553 8.37477
470.078 8.28438
470.603 8.19935
471.056 8.12988
471.510 8.06385
471.963 8.00099
472.416 7.94099
472.870 7.88359
473.323 7.82868
473.777 7.77612
474.230 7.72578
474.683 7.67748
475.137 7.63113
476.043 7.54378
476.950 7.46288
477.857 7.38771
478.382 7.34656
478.907 7.30703
479.957 7.23240
481.007 7.16314
482.056 7.09865
483.106 7.03843
484.156 6.98204
485.206 6.92911
486.256 6.87929
487.020 6.84485
487.783 6.81180
488.547 6.78005
489.310 6.74953
490.074 6.72016
490.837 6.69196
492.364 6.63841
493.892 6.58831
495.419 6.54141
496.946 6.49736
498.473 6.45587
500.000 6.41669
501.143 6.38876
502.287 6.36188
503.430 6.33600
504.573 6.31108
505.717 6.28704
506.860 6.26381
509.147 6.21964
511.433 6.17817
513.720 6.13912
516.006 6.10221
518.293 6.06720
520.060 6.04133
521.827 6.01641
523.594 5.99235
525.361 5.96910
527.128 5.94669
528.895 5.92495
530.662 5.90372
532.429 5.88316
535.962 5.84361
539.496 5.80602
543.030 5.77015
546.564 5.73579
549.474 5.70852
552.385 5.68207
555.295 5.65635
558.205 5.63129
561.115 5.60684
564.026 5.58293
569.846 5.53661
572.756 5.51413
575.667 5.49218
581.487 5.44890
587.308 5.40679
593.128 5.36566
601.443 5.30828
605.601 5.28000
609.758 5.25201
618.073 5.19645
626.388 5.14132
635.535 5.08081
644.681 5.02008
653.828 4.95878
662.974 4.89653
672.121 4.83312
681.267 4.76804
690.414 4.70101
699.560 4.63179
708.291 4.56294
712.656 4.52762
717.022 4.49127
725.752 4.41640
734.483 4.33740
738.848 4.29644
743.214 4.25397
747.579 4.21053
751.945 4.16571
756.310 4.11909
760.675 4.07128
765.041 4.02166
769.406 3.97037
773.979 3.91426
778.553 3.85588
783.126 3.79495
787.699 3.73120
792.272 3.66455
796.846 3.59456
801.419 3.52101
805.992 3.44366
810.357 3.36573
812.540 3.32530
814.723 3.28360
819.088 3.19695
823.454 3.10506
825.636 3.05714
827.819 3.00758
830.002 2.95668
832.184 2.90415
834.367 2.84975
836.550 2.79381
838.732 2.73598
840.915 2.67634
843.202 2.61146
845.488 2.54422
847.775 2.47450
850.062 2.40217
852.348 2.32711
854.635 2.24919
856.921 2.16827
859.208 2.08424
861.495 1.99697
863.781 1.90636
866.068 1.81234
867.211 1.76404
868.355 1.71486
869.498 1.66482
870.641 1.61392
871.785 1.56218
872.928 1.50961
874.071 1.45625
875.214 1.40213
876.358 1.34731
877.501 1.29184
878.956 1.22044
880.411 1.14834
881.866 1.07583
883.322 1.00326
884.777 0.931102
886.232 0.859994
887.687 0.790728
888.415 0.757094
889.142 0.724331
889.922 0.690385
890.701 0.657887
891.481 0.627099
892.260 0.598327
893.040 0.571956
893.430 0.559825
893.819 0.548482
894.209 0.537982
894.599 0.528397
894.989 0.519797
895.378 0.512265
895.846 0.504756
896.314 0.499074
896.782 0.495396
897.015 0.494367
897.249 0.493914
897.483 0.494061
897.717 0.494838
897.951 0.496275
898.185 0.498403
898.419 0.501259
898.652 0.504876
898.886 0.509297
899.120 0.514558
899.302 0.519259
899.484 0.524515
899.575 0.527359
899.666 0.530346
899.757 0.533486
899.848 0.536775
899.932 0.539970
900.017 0.543298
900.101 0.546768
900.185 0.550374
900.335 0.557110
900.484 0.564306
900.634 0.571979
900.783 0.580142
900.900 0.586886
901.017 0.593942
901.251 0.609041
901.485 0.625503
901.719 0.643387
901.952 0.662779
902.186 0.683739
902.420 0.706363
902.654 0.730716
902.940 0.762991
903.226 0.798160
903.369 0.816890
903.511 0.836418
903.654 0.856766
903.797 0.877962
903.940 0.900048
904.083 0.923021
904.226 0.946925
904.369 0.971790
904.512 0.997646
904.655 1.02453
904.798 1.05246
904.941 1.08149
905.084 1.11167
905.226 1.14299
905.369 1.17551
905.512 1.20927
905.655 1.24435
905.798 1.28072
905.941 1.31846
906.084 1.35763
906.227 1.39828
906.370 1.44042
906.513 1.48413
906.656 1.52946
906.799 1.57646
906.941 1.62520
907.084 1.67573
907.227 1.72811
907.370 1.78246
907.513 1.83876
907.656 1.89713
907.799 1.95762
907.942 2.02033
908.085 2.08533
908.371 2.22254
908.656 2.37002
908.942 2.52842
909.228 2.69865
909.514 2.88162
909.800 3.07840
910.086 3.28994
910.371 3.51750
910.657 3.76240
910.943 4.02617
911.229 4.31019
911.515 4.61631
911.800 4.94643
912.086 5.30280
912.372 5.68752
912.658 6.10328
912.944 6.55299
913.230 7.04000
913.515 7.56756
913.801 8.13980
914.087 8.76120
914.373 9.43701
914.659 10.1724
914.945 10.9742
915.230 11.8490
915.516 12.8056
915.659 13.3171
915.802 13.8526
915.945 14.4133
916.088 15.0008
916.231 15.6165
916.374 16.2622
916.517 16.9402
916.660 17.6513
916.803 18.3982
916.945 19.1830
917.088 20.0081
917.231 20.8760
917.374 21.7897
917.517 22.7519
917.660 23.7668
917.803 24.8363
917.946 25.9650
918.089 27.1569
918.232 28.4165
918.375 29.7486
918.517 31.1584
918.660 32.6518
918.784 34.0144
918.907 35.4473
919.031 36.9561
919.154 38.5461
919.278 40.2240
919.401 41.9933
919.524 43.8617
919.648 45.8363
919.771 47.9267
919.895 50.1380
920.018 52.4809
920.141 54.9657
920.265 57.6056
920.388 60.4085
920.512 63.3899
920.635 66.5645
920.778 70.5064
920.921 74.7546
921.064 79.3432
921.207 84.3077
921.350 89.6882
921.493 95.5301
921.636 101.885
921.778 108.812
921.921 116.383
922.064 124.665
922.207 133.751
922.350 143.743
922.493 154.766
922.636 166.941
922.708 173.516
922.779 180.433
922.850 187.733
922.922 195.423
922.993 203.551
923.065 212.124
923.136 221.198
923.208 230.782
923.279 240.939
923.351 251.681
923.422 263.079
923.493 275.148
923.565 287.971
923.636 301.562
923.708 316.017
923.779 331.352
923.851 347.673
923.922 365.000
923.994 383.451
924.065 403.044
924.124 420.021
924.182 437.873
924.241 456.644
924.299 476.343
924.357 497.080
924.416 518.867
924.474 541.745
924.533 565.714
924.591 590.897
924.650 617.292
924.708 644.934
924.767 673.803
924.884 735.521
925.001 802.595
925.072 846.279
925.144 891.966
925.215 939.615
925.286 989.090
925.429 1093.39
925.572 1203.74
926.008 1557.75
926.117 1644.18
926.226 1726.95
926.335 1804.49
926.444 1875.25
926.513 1916.23
926.583 1953.48
926.652 1986.64
926.722 2015.38
926.791 2039.53
926.861 2058.78
926.931 2073.03
927.000 2082.12
927.080 2086.12
927.144 2084.35
927.209 2078.10
927.273 2067.47
927.338 2052.57
927.467 2010.59
927.596 1953.78
927.726 1884.17
927.855 1804.07
927.984 1715.97
928.113 1622.41
928.508 1325.77
928.607 1253.59
928.705 1183.49
928.804 1115.93
928.903 1051.33
928.999 991.175
929.095 934.208
929.192 880.431
929.288 829.855
929.384 782.439
929.480 738.104
929.577 696.737
929.673 658.207
929.796 613.021
929.918 571.864
930.041 534.401
930.163 500.331
930.286 469.283
930.409 440.989
930.531 415.175
930.654 391.608
930.750 374.478
930.846 358.501
930.943 343.566
931.039 329.590
931.135 316.482
931.232 304.199
931.328 292.664
931.424 281.819
931.521 271.600
931.617 261.980
931.713 252.905
931.810 244.334
931.906 236.230
932.002 228.561
932.098 221.295
932.195 214.405
932.387 201.645
932.580 190.112
932.773 179.648
932.965 170.123
933.158 161.420
933.351 153.455
933.543 146.141
933.736 139.407
933.885 134.560
934.033 130.002
934.182 125.702
934.331 121.648
934.480 117.815
934.629 114.191
934.778 110.756
934.927 107.502
935.075 104.411
935.224 101.476
935.522 96.0252
935.820 91.0761
936.117 86.5690
936.310 83.8604
936.503 81.3032
936.695 78.8836
936.888 76.5938
937.081 74.4221
937.273 72.3624
937.466 70.4058
937.658 68.5452
938.044 65.0863
938.429 61.9419
938.814 59.0723
939.199 56.4462
939.585 54.0346
939.970 51.8148
940.355 49.7652
940.740 47.8690
941.126 46.1099
941.511 44.4756
941.896 42.9531
942.281 41.5328
942.667 40.2041
943.052 38.9590
943.437 37.7896
943.822 36.6900
944.208 35.6542
944.593 34.6777
944.978 33.7554
945.363 32.8836
945.749 32.0582
946.134 31.2760
946.519 30.5335
946.904 29.8284
947.290 29.1575
947.675 28.5190
948.060 27.9103
948.445 27.3298
949.216 26.2456
949.986 25.2537
950.757 24.3432
951.527 23.5049
952.298 22.7308
953.068 22.0140
953.839 21.3487
954.609 20.7297
955.205 20.2801
955.800 19.8537
956.396 19.4489
956.991 19.0644
957.586 18.6988
958.182 18.3501
958.777 18.0170
959.373 17.6986
960.563 17.1027
961.754 16.5563
962.945 16.0536
964.136 15.5897
964.906 15.3082
965.677 15.0400
966.447 14.7844
967.218 14.5404
967.988 14.3073
968.759 14.0844
970.300 13.6665
971.841 13.2822
973.382 12.9276
974.923 12.5994
976.464 12.2947
978.285 11.9615
980.106 11.6543
981.927 11.3700
983.749 11.1062
985.570 10.8606
987.391 10.6324
989.212 10.4176
991.033 10.2160
993.275 9.98423
995.516 9.76853
996.637 9.66633
997.197 9.61771
997.478 9.59651
997.618 9.58808
997.758 9.58226
997.898 9.58044
998.038 9.58456
998.178 9.59720
998.318 9.62171
998.458 9.66211
998.528 9.68973
998.598 9.72306
998.668 9.76285
998.738 9.80961
998.808 9.86403
998.878 9.92669
998.948 9.99824
999.018 10.0790
999.089 10.1695
999.159 10.2698
999.229 10.3803
999.299 10.5007
999.369 10.6312
999.439 10.7712
999.509 10.9205
999.579 11.0780
999.649 11.2434
999.719 11.4152
999.859 11.7745
999.999 12.1455
1000.00 14.8640
1062.50 14.6396
1125.00 14.4322
1187.50 14.2397
1250.00 14.0603
1312.50 13.8985
1375.00 13.7466
1500.00 13.4682
1600.00 13.2728
1700.00 13.0926
1850.00 12.8543
2000.00 12.6395
2125.00 12.4832
2250.00 12.3381
2375.00 12.2027
2500.00 12.0760
2750.00 11.8572
3000.00 11.6616
3250.00 11.4935
3500.00 11.3406
3750.00 11.2064
4000.00 11.0826
4250.00 10.9742
4500.00 10.8732
5000.00 10.6899
5500.00 10.5379
6000.00 10.4015
6500.00 10.2849
7000.00 10.1784
7500.00 10.0854
8000.00 9.99928
9000.00 9.85442
10000.0 9.72715
10625.0 9.66053
11250.0 9.59832
12500.0 9.48514
13750.0 9.39155
15000.0 9.30736
16000.0 9.24894
17000.0 9.19463
18500.0 9.12335
20000.0 9.05853
21250.0 9.01162
22500.0 8.96788
23750.0 8.92692
25000.0 8.88843
27500.0 8.82180
30000.0 8.76200
32500.0 8.70993
35000.0 8.66242
37500.0 8.61998
40000.0 8.58081
42500.0 8.54532
45000.0 8.51225
47500.0 8.48131
50000.0 8.45224
52500.0 8.42528
55000.0 8.39982
60000.0 8.35276
65000.0 8.31011
70000.0 8.27114
75000.0 8.23503
80000.0 8.20161
85000.0 8.16983
90000.0 8.14012
94999.9 8.11223
99999.9 8.08597
100000 8.08475
106250 8.07109
112500 8.05832
125000 8.03509
137500 8.01439
150000 7.99575
162500 7.96533
175000 7.93732
200000 7.88724
225000 7.81760
250000 7.75584
300000 7.60580
350000 7.39113
400000 7.21030
450000 7.05465
500000 6.91840
507774 6.88745
515548 6.85711
523322 6.82736
531096 6.79819
538869 6.76958
546643 6.74150
554417 6.71395
562191 6.68690
569965 6.66033
577739 6.63424
585513 6.60860
593287 6.58341
601060 6.55865
608834 6.53431
616608 6.51037
624382 6.48683
626745 6.47783
629108 6.46893
633834 6.45137
638560 6.43415
643287 6.41726
652739 6.38444
662191 6.35284
671643 6.32241
681096 6.29309
690548 6.26483
700000 6.23757
712500 6.19406
725000 6.15211
737500 6.11162
750000 6.07253
762500 6.03479
775000 5.99831
787500 5.96306
800000 5.92897
812500 5.89012
825000 5.85239
837500 5.81573
850000 5.78011
862500 5.74547
875000 5.71177
887500 5.67899
900000 5.64708
912500 5.61253
925000 5.57883
937500 5.54595
950000 5.51385
962500 5.48252
975000 5.45192
987500 5.42203
1.00000E+06 5.39282
1.00747E+06 5.37407
1.01494E+06 5.35555
1.02241E+06 5.33728
1.02987E+06 5.31924
1.03734E+06 5.30143
1.04481E+06 5.28384
1.05228E+06 5.26648
1.05975E+06 5.24932
1.06721E+06 5.23238
1.07468E+06 5.21565
1.08215E+06 5.19912
1.08962E+06 5.18280
1.09709E+06 5.16667
1.10455E+06 5.15073
1.11202E+06 5.13498
1.11949E+06 5.11942
1.12696E+06 5.10404
1.13443E+06 5.08884
1.14190E+06 5.07381
1.14936E+06 5.05896
1.15683E+06 5.04428
1.16430E+06 5.02977
1.17177E+06 5.01542
1.17924E+06 5.00123
1.18670E+06 4.98720
1.19417E+06 4.97333
1.20164E+06 4.95961
1.20911E+06 4.94604
1.21658E+06 4.93262
1.22404E+06 4.91934
1.23151E+06 4.90621
1.23898E+06 4.89322
1.25000E+06 4.87360
1.26103E+06 4.85423
1.27206E+06 4.83516
1.27613E+06 4.82806
1.28020E+06 4.82101
1.28834E+06 4.80708
1.29648E+06 4.79337
1.30462E+06 4.77988
1.31275E+06 4.76660
1.32089E+06 4.75353
1.32903E+06 4.74066
1.33717E+06 4.72799
1.34083E+06 4.72202
1.34448E+06 4.71609
1.35179E+06 4.70436
1.35910E+06 4.69281
1.36641E+06 4.68144
1.37372E+06 4.67023
1.38103E+06 4.65919
1.38834E+06 4.64832
1.39565E+06 4.63760
1.40296E+06 4.62704
1.41026E+06 4.61664
1.41757E+06 4.60640
1.42488E+06 4.59630
1.43219E+06 4.58635
1.43950E+06 4.57655
1.44681E+06 4.56689
1.45412E+06 4.55737
1.45413E+06 4.55736
1.45986E+06 4.54958
1.46559E+06 4.54188
1.47706E+06 4.52675
1.48853E+06 4.51195
1.50000E+06 4.49747
1.50781E+06 4.48741
1.51563E+06 4.47748
1.52344E+06 4.46767
1.53125E+06 4.45799
1.53906E+06 4.44842
1.54688E+06 4.43897
1.55469E+06 4.42963
1.56250E+06 4.42041
1.57031E+06 4.41129
1.57813E+06 4.40229
1.58594E+06 4.39340
1.59375E+06 4.38461
1.60156E+06 4.37593
1.60938E+06 4.36735
1.61719E+06 4.35887
1.62500E+06 4.35049
1.63281E+06 4.34222
1.64063E+06 4.33404
1.64844E+06 4.32595
1.65625E+06 4.31796
1.66406E+06 4.31006
1.67188E+06 4.30226
1.67969E+06 4.29454
1.68750E+06 4.28691
1.69531E+06 4.27937
1.70313E+06 4.27192
1.71094E+06 4.26456
1.71875E+06 4.25727
1.72656E+06 4.25007
1.73438E+06 4.24295
1.74219E+06 4.23592
1.75000E+06 4.22896
1.75756E+06 4.22218
1.76512E+06 4.21546
1.77268E+06 4.20880
1.78024E+06 4.20220
1.78779E+06 4.19567
1.79535E+06 4.18919
1.80291E+06 4.18277
1.81047E+06 4.17640
1.81639E+06 4.17150
1.82232E+06 4.16663
1.83416E+06 4.15701
1.84601E+06 4.14753
1.85785E+06 4.13819
1.86970E+06 4.12899
1.88154E+06 4.11992
1.89339E+06 4.11098
1.90524E+06 4.10218
1.91708E+06 4.09350
1.92893E+06 4.08494
1.94077E+06 4.07651
1.95262E+06 4.06820
1.96446E+06 4.06001
1.97631E+06 4.05194
1.98816E+06 4.04398
2.00000E+06 4.03613
2.00270E+06 4.03440
2.00540E+06 4.03268
2.00810E+06 4.03097
2.01081E+06 4.02926
2.01351E+06 4.02755
2.01621E+06 4.02585
2.01891E+06 4.02416
2.02161E+06 4.02247
2.02431E+06 4.02078
2.02701E+06 4.01910
2.02971E+06 4.01743
2.03242E+06 4.01575
2.03512E+06 4.01409
2.03782E+06 4.01242
2.04052E+06 4.01077
2.04322E+06 4.00911
2.04592E+06 4.00746
2.04862E+06 4.00582
2.05132E+06 4.00418
2.05403E+06 4.00254
2.05673E+06 4.00091
2.05943E+06 3.99928
2.06213E+06 3.99766
2.06483E+06 3.99604
2.06753E+06 3.99443
2.07023E+06 3.99282
2.07293E+06 3.99121
2.07564E+06 3.98961
2.07834E+06 3.98802
2.08104E+06 3.98642
2.08374E+06 3.98484
2.08644E+06 3.98325
2.08914E+06 3.98167
2.09184E+06 3.98010
2.09454E+06 3.97853
2.09725E+06 3.97696
2.09995E+06 3.97540
2.10265E+06 3.97384
2.10535E+06 3.97229
2.10805E+06 3.97074
2.11075E+06 3.96919
2.11345E+06 3.96765
2.11615E+06 3.96611
2.11886E+06 3.96458
2.12156E+06 3.96305
2.12426E+06 3.96152
2.12696E+06 3.96000
2.12966E+06 3.95848
2.13236E+06 3.95697
2.13506E+06 3.95546
2.13776E+06 3.95396
2.14047E+06 3.95246
2.14317E+06 3.95096
2.14587E+06 3.94946
2.14857E+06 3.94797
2.15127E+06 3.94649
2.15397E+06 3.94501
2.15667E+06 3.94353
2.15937E+06 3.94206
2.16208E+06 3.94059
2.16478E+06 3.93912
2.16748E+06 3.93766
2.17018E+06 3.93620
2.17288E+06 3.93474
2.17288E+06 3.93474
2.17678E+06 3.93281
2.18067E+06 3.93089
2.18456E+06 3.92898
2.18845E+06 3.92707
2.19235E+06 3.92517
2.19624E+06 3.92328
2.20013E+06 3.92139
2.20402E+06 3.91951
2.20792E+06 3.91763
2.21181E+06 3.91577
2.21570E+06 3.91391
2.21959E+06 3.91205
2.22348E+06 3.91020
2.22738E+06 3.90836
2.23127E+06 3.90652
2.23516E+06 3.90469
2.23905E+06 3.90286
2.24295E+06 3.90105
2.24684E+06 3.89923
2.25073E+06 3.89743
2.25462E+06 3.89563
2.25851E+06 3.89383
2.26241E+06 3.89204
2.26630E+06 3.89026
2.27019E+06 3.88848
2.27408E+06 3.88671
2.27798E+06 3.88495
2.28187E+06 3.88319
2.28576E+06 3.88144
2.28965E+06 3.87969
2.29354E+06 3.87795
2.29744E+06 3.87621
2.30133E+06 3.87448
2.30522E+06 3.87276
2.30911E+06 3.87104
2.31301E+06 3.86933
2.31690E+06 3.86762
2.32079E+06 3.86592
2.32468E+06 3.86422
2.32857E+06 3.86253
2.33247E+06 3.86084
2.33636E+06 3.85916
2.34025E+06 3.85749
2.34414E+06 3.85582
2.34804E+06 3.85415
2.35193E+06 3.85249
2.35582E+06 3.85084
2.35971E+06 3.84919
2.36361E+06 3.84755
2.36750E+06 3.84591
2.37139E+06 3.84428
2.37528E+06 3.84265
2.37918E+06 3.84103
2.38307E+06 3.83941
2.38696E+06 3.83780
2.39085E+06 3.83620
2.39475E+06 3.83460
2.39864E+06 3.83300
2.40253E+06 3.83141
2.40642E+06 3.82982
2.41031E+06 3.82824
2.41421E+06 3.82666
2.41810E+06 3.82509
2.42199E+06 3.82353
2.42498E+06 3.82244
2.42796E+06 3.82135
2.43095E+06 3.82027
2.43394E+06 3.81919
2.43693E+06 3.81811
2.43991E+06 3.81703
2.44290E+06 3.81595
2.44589E+06 3.81488
2.44887E+06 3.81381
2.45186E+06 3.81274
2.45485E+06 3.81168
2.45783E+06 3.81061
2.46082E+06 3.80955
2.46381E+06 3.80850
2.46679E+06 3.80744
2.46978E+06 3.80639
2.46979E+06 3.80638
2.47327E+06 3.80527
2.47676E+06 3.80415
2.48025E+06 3.80304
2.48374E+06 3.80193
2.48723E+06 3.80083
2.49072E+06 3.79973
2.49420E+06 3.79863
2.49769E+06 3.79753
2.50118E+06 3.79643
2.50467E+06 3.79534
2.50816E+06 3.79425
2.51165E+06 3.79316
2.51514E+06 3.79208
2.51863E+06 3.79100
2.52212E+06 3.78992
2.52560E+06 3.78884
2.52909E+06 3.78777
2.53258E+06 3.78669
2.53607E+06 3.78562
2.53956E+06 3.78456
2.54305E+06 3.78349
2.54654E+06 3.78243
2.55003E+06 3.78137
2.55351E+06 3.78031
2.55700E+06 3.77926
2.56049E+06 3.77821
2.56398E+06 3.77716
2.56747E+06 3.77611
2.57096E+06 3.77507
2.57445E+06 3.77403
2.57794E+06 3.77299
2.58143E+06 3.77195
2.58491E+06 3.77091
2.58840E+06 3.76988
2.59189E+06 3.76885
2.59538E+06 3.76782
2.59887E+06 3.76680
2.60236E+06 3.76577
2.60585E+06 3.76475
2.60934E+06 3.76374
2.61283E+06 3.76272
2.61632E+06 3.76171
2.61980E+06 3.76069
2.62329E+06 3.75969
2.62678E+06 3.75868
2.63027E+06 3.75767
2.63376E+06 3.75667
2.63725E+06 3.75567
2.64074E+06 3.75468
2.64423E+06 3.75368
2.64772E+06 3.75269
2.65120E+06 3.75170
2.65469E+06 3.75071
2.65818E+06 3.74972
2.66167E+06 3.74874
2.66516E+06 3.74776
2.66865E+06 3.74678
2.67214E+06 3.74580
2.67563E+06 3.74482
2.67912E+06 3.74385
2.68260E+06 3.74288
2.68609E+06 3.74191
2.68958E+06 3.74095
2.69307E+06 3.73998
2.69518E+06 3.73950
2.69729E+06 3.73902
2.69940E+06 3.73854
2.70151E+06 3.73806
2.70362E+06 3.73757
2.70573E+06 3.73710
2.70783E+06 3.73662
2.70994E+06 3.73614
2.71205E+06 3.73566
2.71416E+06 3.73518
2.71627E+06 3.73471
2.71838E+06 3.73423
2.72049E+06 3.73375
2.72260E+06 3.73328
2.72471E+06 3.73280
2.72682E+06 3.73233
2.72893E+06 3.73186
2.73103E+06 3.73138
2.73314E+06 3.73091
2.73525E+06 3.73044
2.73736E+06 3.72997
2.73947E+06 3.72950
2.74158E+06 3.72903
2.74369E+06 3.72856
2.74580E+06 3.72809
2.74791E+06 3.72762
2.75002E+06 3.72715
2.75212E+06 3.72668
2.75423E+06 3.72622
2.75634E+06 3.72575
2.75845E+06 3.72528
2.76056E+06 3.72482
2.76267E+06 3.72436
2.76478E+06 3.72389
2.76689E+06 3.72343
2.76900E+06 3.72296
2.77111E+06 3.72250
2.77322E+06 3.72204
2.77532E+06 3.72158
2.77743E+06 3.72112
2.77954E+06 3.72066
2.78165E+06 3.72020
2.78376E+06 3.71974
2.78587E+06 3.71928
2.78798E+06 3.71882
2.79009E+06 3.71836
2.79220E+06 3.71790
2.79431E+06 3.71745
2.79642E+06 3.71699
2.79852E+06 3.71653
2.80063E+06 3.71608
2.80274E+06 3.71562
2.80485E+06 3.71517
2.80696E+06 3.71472
2.80907E+06 3.71426
2.81118E+06 3.71381
2.81329E+06 3.71336
2.81540E+06 3.71291
2.81751E+06 3.71246
2.81961E+06 3.71201
2.82172E+06 3.71156
2.82383E+06 3.71111
2.82594E+06 3.71066
2.82805E+06 3.71021
2.83016E+06 3.70982
2.83227E+06 3.70943
2.83437E+06 3.70904
2.83648E+06 3.70866
2.83859E+06 3.70827
2.84070E+06 3.70788
2.84280E+06 3.70750
2.84491E+06 3.70711
2.84702E+06 3.70672
2.84913E+06 3.70634
2.85123E+06 3.70595
2.85334E+06 3.70557
2.85545E+06 3.70518
2.85756E+06 3.70480
2.85966E+06 3.70442
2.86177E+06 3.70404
2.86388E+06 3.70365
2.86599E+06 3.70327
2.86809E+06 3.70289
2.87020E+06 3.70251
2.87231E+06 3.70213
2.87442E+06 3.70175
2.87652E+06 3.70137
2.87863E+06 3.70099
2.88074E+06 3.70061
2.88285E+06 3.70023
2.88495E+06 3.69985
2.88706E+06 3.69947
2.88917E+06 3.69910
2.89128E+06 3.69872
2.89338E+06 3.69834
2.89549E+06 3.69797
2.89549E+06 3.69797
2.89858E+06 3.69748
2.90167E+06 3.69700
2.90476E+06 3.69652
2.90785E+06 3.69604
2.91093E+06 3.69556
2.91402E+06 3.69508
2.91711E+06 3.69461
2.92020E+06 3.69413
2.92329E+06 3.69365
2.92638E+06 3.69318
2.92946E+06 3.69270
2.93255E+06 3.69223
2.93564E+06 3.69176
2.93873E+06 3.69128
2.94182E+06 3.69081
2.94491E+06 3.69034
2.94799E+06 3.68987
2.95108E+06 3.68940
2.95417E+06 3.68893
2.95726E+06 3.68846
2.96035E+06 3.68799
2.96344E+06 3.68752
2.96653E+06 3.68706
2.96961E+06 3.68659
2.97270E+06 3.68612
2.97579E+06 3.68566
2.97888E+06 3.68519
2.98197E+06 3.68473
2.98506E+06 3.68427
2.98814E+06 3.68381
2.99123E+06 3.68334
2.99432E+06 3.68288
2.99432E+06 3.68288
2.99716E+06 3.68250
3.00000E+06 3.68212
3.01934E+06 3.67974
3.03868E+06 3.67737
3.05802E+06 3.67503
3.07736E+06 3.67270
3.07999E+06 3.67241
3.07999E+06 3.67241
3.08865E+06 3.67155
3.09731E+06 3.67069
3.11462E+06 3.66898
3.13194E+06 3.66728
3.14925E+06 3.66559
3.14925E+06 3.66559
3.15671E+06 3.66516
3.16416E+06 3.66473
3.17906E+06 3.66387
3.19397E+06 3.66302
3.20887E+06 3.66217
3.22378E+06 3.66132
3.23868E+06 3.66048
3.25359E+06 3.65965
3.26849E+06 3.65882
3.28340E+06 3.65799
3.29830E+06 3.65717
3.31321E+06 3.65635
3.32811E+06 3.65554
3.34302E+06 3.65473
3.35792E+06 3.65392
3.37283E+06 3.65312
3.38773E+06 3.65233
3.39584E+06 3.65219
3.40396E+06 3.65205
3.42018E+06 3.65177
3.43641E+06 3.65150
3.45263E+06 3.65122
3.46253E+06 3.65122
3.47243E+06 3.65121
3.48233E+06 3.65121
3.49223E+06 3.65120
3.50212E+06 3.65120
3.51202E+06 3.65119
3.52192E+06 3.65119
3.53182E+06 3.65119
3.54250E+06 3.65133
3.55319E+06 3.65147
3.56387E+06 3.65160
3.57455E+06 3.65174
3.58888E+06 3.65204
3.60321E+06 3.65234
3.61496E+06 3.65265
3.62670E+06 3.65295
3.64030E+06 3.65342
3.65389E+06 3.65388
3.66749E+06 3.65435
3.68108E+06 3.65481
3.68921E+06 3.65519
3.69733E+06 3.65556
3.71359E+06 3.65631
3.72984E+06 3.65706
3.74609E+06 3.65781
3.75979E+06 3.65880
3.77348E+06 3.65979
3.78718E+06 3.66078
3.80087E+06 3.66177
3.81457E+06 3.66276
3.82826E+06 3.66375
3.84196E+06 3.66475
3.85566E+06 3.66574
3.86935E+06 3.66673
3.88305E+06 3.66773
3.89674E+06 3.66872
3.91044E+06 3.66972
3.92413E+06 3.67071
3.93783E+06 3.67171
3.95153E+06 3.67271
3.96522E+06 3.67371
3.97392E+06 3.67454
3.98261E+06 3.67536
4.00000E+06 3.67701
4.02223E+06 3.67950
4.04447E+06 3.68199
4.06670E+06 3.68448
4.08894E+06 3.68697
4.11117E+06 3.68947
4.13340E+06 3.69196
4.15564E+06 3.69446
4.17787E+06 3.69696
4.19165E+06 3.69872
4.20542E+06 3.70049
4.21564E+06 3.70183
4.22919E+06 3.70382
4.24273E+06 3.70580
4.26982E+06 3.70978
4.29691E+06 3.71376
4.32400E+06 3.71775
4.35108E+06 3.72174
4.37817E+06 3.72574
4.40526E+06 3.72974
4.43235E+06 3.73375
4.44834E+06 3.73636
4.44835E+06 3.73636
4.45907E+06 3.73824
4.46978E+06 3.74012
4.49121E+06 3.74388
4.51264E+06 3.74765
4.53407E+06 3.75143
4.55549E+06 3.75521
4.57692E+06 3.75901
4.59835E+06 3.76281
4.61978E+06 3.76662
4.63166E+06 3.76912
4.64354E+06 3.77163
4.66731E+06 3.77662
4.69107E+06 3.78161
4.71484E+06 3.78658
4.73860E+06 3.79154
4.76236E+06 3.79650
4.78613E+06 3.80144
4.80989E+06 3.80638
4.83365E+06 3.81131
4.85742E+06 3.81623
4.88118E+06 3.82114
4.90495E+06 3.82605
4.92871E+06 3.83096
4.95247E+06 3.83585
4.97624E+06 3.84075
5.00000E+06 3.84564
5.03089E+06 3.85400
5.06178E+06 3.86242
5.09267E+06 3.87087
5.12356E+06 3.87937
5.17618E+06 3.89297
5.22879E+06 3.90667
5.28141E+06 3.92046
5.33403E+06 3.93433
5.38664E+06 3.94828
5.43926E+06 3.96230
5.49187E+06 3.97638
5.54449E+06 3.99052
5.60031E+06 4.00462
5.65612E+06 4.01879
5.71194E+06 4.03301
5.76775E+06 4.04729
5.82581E+06 4.06159
5.88388E+06 4.07596
5.94194E+06 4.09038
6.00000E+06 4.10487
6.00676E+06 4.10657
6.01352E+06 4.10828
6.02028E+06 4.10999
6.02704E+06 4.11170
6.03380E+06 4.11341
6.04056E+06 4.11512
6.04732E+06 4.11683
6.05408E+06 4.11854
6.06084E+06 4.12026
6.06760E+06 4.12197
6.07436E+06 4.12368
6.08112E+06 4.12539
6.08788E+06 4.12711
6.09464E+06 4.12882
6.10140E+06 4.13053
6.10816E+06 4.13225
6.11492E+06 4.13396
6.12168E+06 4.13568
6.12844E+06 4.13739
6.13520E+06 4.13911
6.14196E+06 4.14083
6.14872E+06 4.14254
6.15548E+06 4.14426
6.16224E+06 4.14598
6.16900E+06 4.14770
6.17576E+06 4.14941
6.18252E+06 4.15113
6.18928E+06 4.15285
6.19604E+06 4.15457
6.20280E+06 4.15629
6.20956E+06 4.15801
6.21632E+06 4.15973
6.22308E+06 4.16145
6.22984E+06 4.16317
6.23660E+06 4.16489
6.24336E+06 4.16661
6.25012E+06 4.16833
6.25688E+06 4.17006
6.26364E+06 4.17178
6.27040E+06 4.17350
6.27716E+06 4.17522
6.28392E+06 4.17695
6.29068E+06 4.17867
6.29744E+06 4.18040
6.30420E+06 4.18212
6.31096E+06 4.18385
6.31772E+06 4.18557
6.32448E+06 4.18730
6.33124E+06 4.18902
6.33800E+06 4.19075
6.34476E+06 4.19247
6.35152E+06 4.19420
6.35828E+06 4.19593
6.36504E+06 4.19765
6.37180E+06 4.19938
6.37856E+06 4.20111
6.38532E+06 4.20284
6.39208E+06 4.20456
6.39884E+06 4.20629
6.40560E+06 4.20802
6.41236E+06 4.20975
6.41912E+06 4.21148
6.42588E+06 4.21321
6.43264E+06 4.21494
6.43976E+06 4.21669
6.44688E+06 4.21844
6.45400E+06 4.22019
6.46113E+06 4.22194
6.46825E+06 4.22369
6.47537E+06 4.22545
6.48249E+06 4.22720
6.48961E+06 4.22895
6.49673E+06 4.23070
6.50385E+06 4.23246
6.51097E+06 4.23421
6.51810E+06 4.23596
6.52522E+06 4.23771
6.53234E+06 4.23947
6.53946E+06 4.24122
6.54658E+06 4.24298
6.55370E+06 4.24473
6.56082E+06 4.24649
6.56794E+06 4.24824
6.57507E+06 4.25000
6.58219E+06 4.25176
6.58931E+06 4.25351
6.59643E+06 4.25527
6.60355E+06 4.25703
6.61067E+06 4.25878
6.61779E+06 4.26054
6.62491E+06 4.26230
6.63204E+06 4.26406
6.63916E+06 4.26582
6.64628E+06 4.26757
6.65340E+06 4.26933
6.66052E+06 4.27109
6.66789E+06 4.27286
6.67527E+06 4.27464
6.68264E+06 4.27641
6.69002E+06 4.27818
6.69739E+06 4.27996
6.70476E+06 4.28173
6.71214E+06 4.28351
6.71951E+06 4.28528
6.72688E+06 4.28706
6.73426E+06 4.28883
6.74163E+06 4.29061
6.74901E+06 4.29238
6.75638E+06 4.29416
6.76375E+06 4.29594
6.77113E+06 4.29771
6.77850E+06 4.29949
6.78587E+06 4.30127
6.79325E+06 4.30305
6.80062E+06 4.30483
6.80800E+06 4.30661
6.81537E+06 4.30839
6.82274E+06 4.31016
6.83012E+06 4.31195
6.83749E+06 4.31372
6.84486E+06 4.31550
6.85224E+06 4.31729
6.85961E+06 4.31907
6.86699E+06 4.32085
6.87436E+06 4.32263
6.88173E+06 4.32441
6.88911E+06 4.32620
6.89648E+06 4.32798
6.90295E+06 4.32951
6.90942E+06 4.33105
6.91589E+06 4.33259
6.92236E+06 4.33412
6.92883E+06 4.33566
6.93530E+06 4.33720
6.94177E+06 4.33873
6.94824E+06 4.34027
6.95471E+06 4.34181
6.96118E+06 4.34334
6.96765E+06 4.34488
6.97412E+06 4.34642
6.98059E+06 4.34795
6.98706E+06 4.34949
6.99353E+06 4.35103
7.00000E+06 4.35256
7.00622E+06 4.35349
7.01244E+06 4.35441
7.01866E+06 4.35533
7.02488E+06 4.35626
7.03110E+06 4.35718
7.03732E+06 4.35811
7.04354E+06 4.35903
7.04976E+06 4.35995
7.05598E+06 4.36088
7.06220E+06 4.36180
7.06842E+06 4.36273
7.07464E+06 4.36365
7.08086E+06 4.36458
7.08708E+06 4.36550
7.09330E+06 4.36643
7.09952E+06 4.36735
7.10574E+06 4.36828
7.11196E+06 4.36920
7.11818E+06 4.37013
7.12440E+06 4.37105
7.13062E+06 4.37198
7.13684E+06 4.37290
7.14306E+06 4.37383
7.14928E+06 4.37475
7.15550E+06 4.37568
7.16172E+06 4.37661
7.16794E+06 4.37753
7.17416E+06 4.37846
7.18038E+06 4.37938
7.18660E+06 4.38031
7.19282E+06 4.38124
7.19904E+06 4.38216
7.20526E+06 4.38309
7.21148E+06 4.38401
7.21770E+06 4.38494
7.22392E+06 4.38587
7.23014E+06 4.38679
7.23636E+06 4.38772
7.24258E+06 4.38865
7.24880E+06 4.38958
7.25502E+06 4.39050
7.26124E+06 4.39143
7.26746E+06 4.39236
7.27368E+06 4.39328
7.27990E+06 4.39421
7.28612E+06 4.39514
7.29234E+06 4.39607
7.29856E+06 4.39699
7.30478E+06 4.39792
7.31100E+06 4.39885
7.31722E+06 4.39978
7.32344E+06 4.40070
7.32966E+06 4.40163
7.33588E+06 4.40256
7.34210E+06 4.40349
7.34832E+06 4.40442
7.35454E+06 4.40534
7.36076E+06 4.40627
7.36698E+06 4.40720
7.37320E+06 4.40813
7.37942E+06 4.40906
7.38564E+06 4.40999
7.39186E+06 4.41091
7.39808E+06 4.41184
7.40465E+06 4.41278
7.41123E+06 4.41372
7.41780E+06 4.41465
7.42438E+06 4.41559
7.43095E+06 4.41653
7.43752E+06 4.41746
7.44410E+06 4.41840
7.45067E+06 4.41934
7.45724E+06 4.42027
7.46382E+06 4.42121
7.47039E+06 4.42215
7.47697E+06 4.42308
7.48354E+06 4.42402
7.49011E+06 4.42496
7.49669E+06 4.42590
7.50326E+06 4.42683
7.50983E+06 4.42777
7.51641E+06 4.42871
7.52298E+06 4.42965
7.52956E+06 4.43058
7.53613E+06 4.43152
7.54270E+06 4.43246
7.54928E+06 4.43340
7.55585E+06 4.43434
7.56242E+06 4.43528
7.56900E+06 4.43621
7.57557E+06 4.43715
7.58215E+06 4.43809
7.58872E+06 4.43903
7.59529E+06 4.43997
7.60187E+06 4.44091
7.60844E+06 4.44185
7.61501E+06 4.44279
7.62159E+06 4.44372
7.62816E+06 4.44466
7.63474E+06 4.44560
7.64131E+06 4.44654
7.64788E+06 4.44748
7.65446E+06 4.44842
7.66103E+06 4.44936
7.66760E+06 4.45030
7.67418E+06 4.45124
7.68075E+06 4.45218
7.68733E+06 4.45312
7.69390E+06 4.45406
7.70047E+06 4.45500
7.70705E+06 4.45594
7.71362E+06 4.45688
7.72019E+06 4.45782
7.72677E+06 4.45876
7.73334E+06 4.45970
7.73992E+06 4.46064
7.74649E+06 4.46158
7.75306E+06 4.46252
7.75964E+06 4.46346
7.76621E+06 4.46440
7.77278E+06 4.46534
7.77936E+06 4.46629
7.78593E+06 4.46723
7.79251E+06 4.46817
7.79908E+06 4.46911
7.80565E+06 4.47005
7.81223E+06 4.47099
7.81880E+06 4.47193
7.82446E+06 4.47272
7.83013E+06 4.47350
7.83579E+06 4.47429
7.84145E+06 4.47508
7.84711E+06 4.47586
7.85278E+06 4.47665
7.85844E+06 4.47743
7.86410E+06 4.47822
7.86976E+06 4.47901
7.87543E+06 4.47979
7.88109E+06 4.48058
7.88675E+06 4.48136
7.89241E+06 4.48215
7.89808E+06 4.48293
7.90374E+06 4.48372
7.90940E+06 4.48450
7.91506E+06 4.48529
7.92073E+06 4.48608
7.92639E+06 4.48686
7.93205E+06 4.48765
7.93771E+06 4.48843
7.94338E+06 4.48922
7.94904E+06 4.49000
7.95470E+06 4.49078
7.96036E+06 4.49157
7.96603E+06 4.49236
7.97169E+06 4.49314
7.97735E+06 4.49393
7.98301E+06 4.49471
7.98868E+06 4.49550
7.99434E+06 4.49628
8.00000E+06 4.49706
8.00465E+06 4.49717
8.00929E+06 4.49728
8.01394E+06 4.49738
8.01859E+06 4.49748
8.02323E+06 4.49759
8.02788E+06 4.49770
8.03252E+06 4.49780
8.03717E+06 4.49791
8.04182E+06 4.49801
8.04646E+06 4.49812
8.05111E+06 4.49822
8.05576E+06 4.49833
8.06040E+06 4.49844
8.06505E+06 4.49854
8.06969E+06 4.49865
8.07434E+06 4.49875
8.07899E+06 4.49886
8.08363E+06 4.49897
8.08828E+06 4.49907
8.09292E+06 4.49918
8.09757E+06 4.49929
8.10222E+06 4.49940
8.10686E+06 4.49950
8.11151E+06 4.49961
8.11616E+06 4.49972
8.12080E+06 4.49983
8.12545E+06 4.49993
8.13009E+06 4.50004
8.13474E+06 4.50015
8.13939E+06 4.50026
8.14403E+06 4.50036
8.14868E+06 4.50047
8.15333E+06 4.50058
8.15797E+06 4.50069
8.16262E+06 4.50080
8.16726E+06 4.50091
8.17191E+06 4.50102
8.17656E+06 4.50112
8.18120E+06 4.50123
8.18585E+06 4.50134
8.19050E+06 4.50145
8.19514E+06 4.50156
8.19979E+06 4.50167
8.20443E+06 4.50178
8.20908E+06 4.50189
8.21373E+06 4.50200
8.21837E+06 4.50211
8.22302E+06 4.50222
8.22766E+06 4.50233
8.23231E+06 4.50244
8.23696E+06 4.50255
8.24160E+06 4.50266
8.24625E+06 4.50277
8.25089E+06 4.50288
8.25554E+06 4.50299
8.26019E+06 4.50310
8.26483E+06 4.50321
8.26948E+06 4.50332
8.27413E+06 4.50343
8.27877E+06 4.50355
8.28342E+06 4.50366
8.28806E+06 4.50377
8.29271E+06 4.50388
8.29736E+06 4.50399
8.30200E+06 4.50410
8.30665E+06 4.50421
8.31129E+06 4.50433
8.31594E+06 4.50444
8.32059E+06 4.50455
8.32523E+06 4.50466
8.32988E+06 4.50477
8.33453E+06 4.50489
8.33917E+06 4.50500
8.34382E+06 4.50511
8.34846E+06 4.50522
8.35311E+06 4.50534
8.35776E+06 4.50545
8.36240E+06 4.50556
8.36705E+06 4.50567
8.37169E+06 4.50579
8.37634E+06 4.50590
8.38099E+06 4.50601
8.38563E+06 4.50613
8.39028E+06 4.50624
8.39493E+06 4.50635
8.39957E+06 4.50647
8.40422E+06 4.50658
8.40886E+06 4.50670
8.41351E+06 4.50681
8.41816E+06 4.50692
8.42280E+06 4.50704
8.42745E+06 4.50715
8.43210E+06 4.50727
8.43674E+06 4.50738
8.44139E+06 4.50750
8.44603E+06 4.50761
8.45068E+06 4.50772
8.45533E+06 4.50784
8.45997E+06 4.50795
8.46462E+06 4.50807
8.46927E+06 4.50819
8.47391E+06 4.50830
8.47856E+06 4.50842
8.48320E+06 4.50853
8.48785E+06 4.50865
8.49250E+06 4.50876
8.49714E+06 4.50888
8.50179E+06 4.50899
8.50643E+06 4.50911
8.51108E+06 4.50922
8.51573E+06 4.50934
8.52037E+06 4.50946
8.52502E+06 4.50957
8.52967E+06 4.50969
8.53431E+06 4.50980
8.53896E+06 4.50992
8.54360E+06 4.51004
8.54825E+06 4.51015
8.55290E+06 4.51027
8.55754E+06 4.51039
8.56219E+06 4.51050
8.56683E+06 4.51062
8.57148E+06 4.51074
8.57613E+06 4.51086
8.58077E+06 4.51097
8.58542E+06 4.51109
8.59006E+06 4.51121
8.59471E+06 4.51133
8.60104E+06 4.51147
8.60738E+06 4.51161
8.61371E+06 4.51175
8.62004E+06 4.51189
8.62637E+06 4.51203
8.63271E+06 4.51217
8.63904E+06 4.51231
8.64537E+06 4.51245
8.65171E+06 4.51259
8.65804E+06 4.51273
8.66437E+06 4.51287
8.67070E+06 4.51301
8.67704E+06 4.51315
8.68337E+06 4.51330
8.68970E+06 4.51344
8.69603E+06 4.51358
8.70237E+06 4.51372
8.70870E+06 4.51386
8.71503E+06 4.51400
8.72136E+06 4.51415
8.72770E+06 4.51429
8.73403E+06 4.51443
8.74036E+06 4.51457
8.74669E+06 4.51472
8.75303E+06 4.51486
8.75936E+06 4.51500
8.76569E+06 4.51515
8.77203E+06 4.51529
8.77836E+06 4.51543
8.78469E+06 4.51558
8.79102E+06 4.51572
8.79736E+06 4.51586
8.80369E+06 4.51601
8.81002E+06 4.51615
8.81635E+06 4.51630
8.82269E+06 4.51644
8.82902E+06 4.51658
8.83535E+06 4.51673
8.84169E+06 4.51687
8.84802E+06 4.51702
8.85435E+06 4.51716
8.86068E+06 4.51731
8.86702E+06 4.51745
8.87335E+06 4.51760
8.87968E+06 4.51774
8.88601E+06 4.51789
8.89235E+06 4.51803
8.89868E+06 4.51818
8.90501E+06 4.51832
8.91134E+06 4.51847
8.91768E+06 4.51861
8.92401E+06 4.51876
8.93034E+06 4.51891
8.93667E+06 4.51905
8.94301E+06 4.51920
8.94934E+06 4.51934
8.95567E+06 4.51949
8.96201E+06 4.51964
8.96834E+06 4.51978
8.97467E+06 4.51993
8.98100E+06 4.52008
8.98734E+06 4.52022
8.99367E+06 4.52037
9.00000E+06 4.52052
9.00737E+06 4.51992
9.01474E+06 4.51932
9.02210E+06 4.51872
9.02947E+06 4.51813
9.03684E+06 4.51753
9.04421E+06 4.51693
9.05157E+06 4.51634
9.05894E+06 4.51575
9.06631E+06 4.51515
9.07368E+06 4.51456
9.08104E+06 4.51397
9.08841E+06 4.51337
9.09578E+06 4.51278
9.10315E+06 4.51219
9.11051E+06 4.51160
9.11788E+06 4.51101
9.12525E+06 4.51043
9.13262E+06 4.50984
9.13998E+06 4.50925
9.14735E+06 4.50866
9.15472E+06 4.50808
9.16209E+06 4.50749
9.16945E+06 4.50691
9.17682E+06 4.50632
9.18419E+06 4.50574
9.19156E+06 4.50516
9.19892E+06 4.50457
9.20629E+06 4.50399
9.21366E+06 4.50341
9.22103E+06 4.50283
9.22839E+06 4.50225
9.23576E+06 4.50167
9.24770E+06 4.50072
9.25964E+06 4.49978
9.27158E+06 4.49884
9.28353E+06 4.49790
9.29547E+06 4.49696
9.30741E+06 4.49603
9.31935E+06 4.49509
9.33129E+06 4.49416
9.34323E+06 4.49323
9.35517E+06 4.49230
9.36711E+06 4.49137
9.37906E+06 4.49044
9.39100E+06 4.48952
9.40294E+06 4.48859
9.41488E+06 4.48767
9.42682E+06 4.48675
9.43876E+06 4.48583
9.45070E+06 4.48491
9.46264E+06 4.48399
9.47459E+06 4.48308
9.48653E+06 4.48216
9.49847E+06 4.48125
9.51041E+06 4.48034
9.52235E+06 4.47943
9.53429E+06 4.47852
9.54623E+06 4.47761
9.55817E+06 4.47671
9.57012E+06 4.47581
9.58206E+06 4.47490
9.59400E+06 4.47400
9.60594E+06 4.47310
9.61788E+06 4.47220
9.62982E+06 4.47131
9.64176E+06 4.47041
9.65370E+06 4.46952
9.66565E+06 4.46863
9.67759E+06 4.46773
9.68953E+06 4.46684
9.70147E+06 4.46596
9.71341E+06 4.46507
9.72535E+06 4.46418
9.73729E+06 4.46330
9.74923E+06 4.46242
9.76118E+06 4.46153
9.77312E+06 4.46065
9.78506E+06 4.45978
9.79700E+06 4.45890
9.80894E+06 4.45802
9.82088E+06 4.45715
9.83282E+06 4.45627
9.84476E+06 4.45540
9.85671E+06 4.45453
9.86865E+06 4.45366
9.88059E+06 4.45279
9.89253E+06 4.45193
9.90447E+06 4.45106
9.91641E+06 4.45020
9.92835E+06 4.44933
9.94029E+06 4.44847
9.95224E+06 4.44761
9.96418E+06 4.44675
9.97612E+06 4.44590
9.98806E+06 4.44504
1.00000E+07 4.44419
1.00078E+07 4.44287
1.00156E+07 4.44157
1.00234E+07 4.44026
1.00313E+07 4.43895
1.00391E+07 4.43765
1.00469E+07 4.43634
1.00547E+07 4.43504
1.00625E+07 4.43374
1.00703E+07 4.43244
1.00781E+07 4.43114
1.00859E+07 4.42984
1.00938E+07 4.42855
1.01016E+07 4.42725
1.01094E+07 4.42596
1.01172E+07 4.42466
1.01250E+07 4.42337
1.01328E+07 4.42208
1.01406E+07 4.42079
1.01484E+07 4.41950
1.01563E+07 4.41822
1.01641E+07 4.41693
1.01719E+07 4.41565
1.01797E+07 4.41437
1.01875E+07 4.41308
1.01953E+07 4.41180
1.02031E+07 4.41052
1.02109E+07 4.40924
1.02188E+07 4.40797
1.02266E+07 4.40669
1.02344E+07 4.40541
1.02422E+07 4.40414
1.02500E+07 4.40287
1.02578E+07 4.40160
1.02656E+07 4.40033
1.02734E+07 4.39906
1.02813E+07 4.39779
1.02891E+07 4.39652
1.02969E+07 4.39526
1.03047E+07 4.39400
1.03125E+07 4.39273
1.03203E+07 4.39147
1.03281E+07 4.39021
1.03359E+07 4.38895
1.03438E+07 4.38769
1.03516E+07 4.38643
1.03594E+07 4.38518
1.03672E+07 4.38392
1.03750E+07 4.38267
1.03828E+07 4.38142
1.03906E+07 4.38016
1.03984E+07 4.37892
1.04063E+07 4.37767
1.04141E+07 4.37642
1.04219E+07 4.37517
1.04297E+07 4.37393
1.04375E+07 4.37268
1.04453E+07 4.37144
1.04531E+07 4.37019
1.04609E+07 4.36895
1.04688E+07 4.36771
1.04766E+07 4.36647
1.04844E+07 4.36524
1.04922E+07 4.36400
1.05000E+07 4.36277
1.05078E+07 4.36153
1.05156E+07 4.36030
1.05234E+07 4.35907
1.05313E+07 4.35783
1.05391E+07 4.35660
1.05469E+07 4.35537
1.05547E+07 4.35415
1.05625E+07 4.35292
1.05703E+07 4.35169
1.05781E+07 4.35047
1.05859E+07 4.34925
1.05938E+07 4.34803
1.06016E+07 4.34680
1.06094E+07 4.34559
1.06172E+07 4.34437
1.06250E+07 4.34315
1.06328E+07 4.34193
1.06406E+07 4.34072
1.06484E+07 4.33950
1.06563E+07 4.33829
1.06641E+07 4.33708
1.06719E+07 4.33587
1.06797E+07 4.33466
1.06875E+07 4.33345
1.06953E+07 4.33224
1.07031E+07 4.33103
1.07109E+07 4.32983
1.07188E+07 4.32863
1.07266E+07 4.32742
1.07344E+07 4.32622
1.07422E+07 4.32502
1.07500E+07 4.32382
1.07578E+07 4.32262
1.07656E+07 4.32142
1.07734E+07 4.32023
1.07813E+07 4.31903
1.07891E+07 4.31784
1.07969E+07 4.31664
1.08047E+07 4.31545
1.08125E+07 4.31426
1.08203E+07 4.31307
1.08281E+07 4.31188
1.08359E+07 4.31069
1.08438E+07 4.30951
1.08516E+07 4.30832
1.08594E+07 4.30714
1.08672E+07 4.30595
1.08750E+07 4.30477
1.08828E+07 4.30359
1.08906E+07 4.30241
1.08984E+07 4.30123
1.09063E+07 4.30005
1.09141E+07 4.29888
1.09219E+07 4.29770
1.09297E+07 4.29653
1.09375E+07 4.29536
1.09453E+07 4.29418
1.09531E+07 4.29301
1.09609E+07 4.29184
1.09688E+07 4.29068
1.09766E+07 4.28951
1.09844E+07 4.28834
1.09922E+07 4.28718
1.10000E+07 4.28602
1.10071E+07 4.28496
1.10143E+07 4.28390
1.10214E+07 4.28284
1.10285E+07 4.28178
1.10357E+07 4.28073
1.10428E+07 4.27967
1.10499E+07 4.27862
1.10570E+07 4.27756
1.10642E+07 4.27651
1.10713E+07 4.27546
1.10784E+07 4.27441
1.10856E+07 4.27336
1.10927E+07 4.27231
1.10998E+07 4.27126
1.11070E+07 4.27022
1.11141E+07 4.26917
1.11212E+07 4.26813
1.11283E+07 4.26708
1.11355E+07 4.26604
1.11426E+07 4.26500
1.11497E+07 4.26396
1.11569E+07 4.26292
1.11640E+07 4.26188
1.11711E+07 4.26084
1.11783E+07 4.25980
1.11854E+07 4.25877
1.11925E+07 4.25773
1.11996E+07 4.25670
1.12068E+07 4.25567
1.12139E+07 4.25464
1.12210E+07 4.25360
1.12282E+07 4.25258
1.12353E+07 4.25155
1.12424E+07 4.25052
1.12495E+07 4.24950
1.12567E+07 4.24847
1.12638E+07 4.24745
1.12709E+07 4.24642
1.12781E+07 4.24540
1.12852E+07 4.24438
1.12923E+07 4.24336
1.12995E+07 4.24234
1.13066E+07 4.24133
1.13137E+07 4.24031
1.13208E+07 4.23930
1.13280E+07 4.23829
1.13351E+07 4.23727
1.13422E+07 4.23626
1.13494E+07 4.23525
1.13565E+07 4.23425
1.13636E+07 4.23324
1.13708E+07 4.23223
1.13779E+07 4.23123
1.13850E+07 4.23023
1.13921E+07 4.22923
1.13993E+07 4.22823
1.14064E+07 4.22723
1.14135E+07 4.22623
1.14207E+07 4.22524
1.14278E+07 4.22425
1.14349E+07 4.22326
1.14421E+07 4.22227
1.14492E+07 4.22128
1.14563E+07 4.22029
1.14633E+07 4.21930
1.14703E+07 4.21831
1.14773E+07 4.21733
1.14842E+07 4.21634
1.14912E+07 4.21536
1.14982E+07 4.21438
1.15052E+07 4.21339
1.15122E+07 4.21241
1.15191E+07 4.21143
1.15261E+07 4.21046
1.15331E+07 4.20948
1.15401E+07 4.20851
1.15471E+07 4.20754
1.15540E+07 4.20657
1.15610E+07 4.20560
1.15680E+07 4.20463
1.15750E+07 4.20366
1.15820E+07 4.20270
1.15890E+07 4.20174
1.15959E+07 4.20078
1.16029E+07 4.19982
1.16099E+07 4.19886
1.16169E+07 4.19791
1.16239E+07 4.19696
1.16308E+07 4.19601
1.16378E+07 4.19506
1.16448E+07 4.19411
1.16518E+07 4.19317
1.16588E+07 4.19223
1.16657E+07 4.19129
1.16727E+07 4.19035
1.16797E+07 4.18941
1.16897E+07 4.18799
1.16997E+07 4.18656
1.17097E+07 4.18515
1.17197E+07 4.18374
1.17298E+07 4.18233
1.17398E+07 4.18093
1.17498E+07 4.17953
1.17598E+07 4.17814
1.17698E+07 4.17675
1.17798E+07 4.17537
1.17898E+07 4.17400
1.17998E+07 4.17263
1.18098E+07 4.17126
1.18198E+07 4.16991
1.18299E+07 4.16856
1.18399E+07 4.16721
1.18499E+07 4.16587
1.18599E+07 4.16453
1.18699E+07 4.16321
1.18799E+07 4.16188
1.18899E+07 4.16057
1.18999E+07 4.15926
1.19099E+07 4.15796
1.19199E+07 4.15666
1.19299E+07 4.15537
1.19400E+07 4.15409
1.19500E+07 4.15281
1.19600E+07 4.15154
1.19700E+07 4.15028
1.19800E+07 4.14903
1.19900E+07 4.14778
1.20000E+07 4.14654
1.20078E+07 4.14500
1.20156E+07 4.14347
1.20234E+07 4.14194
1.20313E+07 4.14042
1.20391E+07 4.13890
1.20469E+07 4.13738
1.20547E+07 4.13587
1.20625E+07 4.13436
1.20703E+07 4.13286
1.20781E+07 4.13136
1.20859E+07 4.12987
1.20938E+07 4.12838
1.21016E+07 4.12689
1.21094E+07 4.12541
1.21172E+07 4.12394
1.21250E+07 4.12247
1.21328E+07 4.12100
1.21406E+07 4.11953
1.21484E+07 4.11808
1.21563E+07 4.11662
1.21641E+07 4.11517
1.21719E+07 4.11372
1.21797E+07 4.11228
1.21875E+07 4.11085
1.21953E+07 4.10941
1.22031E+07 4.10798
1.22109E+07 4.10656
1.22188E+07 4.10514
1.22266E+07 4.10372
1.22344E+07 4.10231
1.22422E+07 4.10091
1.22500E+07 4.09951
1.22578E+07 4.09811
1.22656E+07 4.09671
1.22734E+07 4.09532
1.22813E+07 4.09394
1.22891E+07 4.09256
1.22969E+07 4.09118
1.23047E+07 4.08981
1.23125E+07 4.08844
1.23203E+07 4.08708
1.23281E+07 4.08572
1.23359E+07 4.08436
1.23438E+07 4.08301
1.23516E+07 4.08167
1.23594E+07 4.08032
1.23672E+07 4.07899
1.23750E+07 4.07765
1.23828E+07 4.07632
1.23906E+07 4.07500
1.23984E+07 4.07368
1.24063E+07 4.07237
1.24141E+07 4.07105
1.24219E+07 4.06975
1.24297E+07 4.06844
1.24375E+07 4.06714
1.24453E+07 4.06585
1.24531E+07 4.06456
1.24609E+07 4.06328
1.24688E+07 4.06200
1.24766E+07 4.06072
1.24844E+07 4.05945
1.24922E+07 4.05818
1.25000E+07 4.05691
1.25078E+07 4.05565
1.25156E+07 4.05440
1.25234E+07 4.05315
1.25313E+07 4.05190
1.25391E+07 4.05066
1.25469E+07 4.04942
1.25547E+07 4.04819
1.25625E+07 4.04696
1.25703E+07 4.04574
1.25781E+07 4.04452
1.25859E+07 4.04330
1.25938E+07 4.04209
1.26016E+07 4.04088
1.26094E+07 4.03968
1.26172E+07 4.03848
1.26250E+07 4.03729
1.26328E+07 4.03610
1.26406E+07 4.03492
1.26484E+07 4.03373
1.26563E+07 4.03256
1.26641E+07 4.03139
1.26719E+07 4.03022
1.26797E+07 4.02906
1.26875E+07 4.02790
1.26953E+07 4.02674
1.27031E+07 4.02560
1.27109E+07 4.02445
1.27188E+07 4.02331
1.27266E+07 4.02217
1.27344E+07 4.02104
1.27422E+07 4.01991
1.27500E+07 4.01879
1.27578E+07 4.01767
1.27656E+07 4.01656
1.27734E+07 4.01545
1.27813E+07 4.01435
1.27891E+07 4.01324
1.27969E+07 4.01215
1.28047E+07 4.01106
1.28125E+07 4.00997
1.28203E+07 4.00889
1.28281E+07 4.00781
1.28359E+07 4.00674
1.28438E+07 4.00567
1.28516E+07 4.00460
1.28594E+07 4.00354
1.28672E+07 4.00249
1.28750E+07 4.00144
1.28828E+07 4.00039
1.28906E+07 3.99935
1.28984E+07 3.99831
1.29063E+07 3.99728
1.29141E+07 3.99625
1.29219E+07 3.99523
1.29297E+07 3.99421
1.29375E+07 3.99320
1.29453E+07 3.99219
1.29531E+07 3.99118
1.29609E+07 3.99018
1.29688E+07 3.98919
1.29766E+07 3.98820
1.29844E+07 3.98721
1.29922E+07 3.98623
1.30000E+07 3.98525
1.30078E+07 3.98388
1.30156E+07 3.98252
1.30234E+07 3.98116
1.30313E+07 3.97980
1.30391E+07 3.97844
1.30469E+07 3.97709
1.30547E+07 3.97574
1.30625E+07 3.97440
1.30703E+07 3.97306
1.30781E+07 3.97172
1.30859E+07 3.97039
1.30938E+07 3.96906
1.31016E+07 3.96774
1.31094E+07 3.96641
1.31172E+07 3.96510
1.31250E+07 3.96378
1.31328E+07 3.96247
1.31406E+07 3.96116
1.31484E+07 3.95986
1.31563E+07 3.95856
1.31641E+07 3.95726
1.31719E+07 3.95597
1.31797E+07 3.95468
1.31875E+07 3.95340
1.31953E+07 3.95212
1.32031E+07 3.95084
1.32109E+07 3.94956
1.32188E+07 3.94829
1.32266E+07 3.94703
1.32344E+07 3.94577
1.32422E+07 3.94451
1.32500E+07 3.94325
1.32578E+07 3.94200
1.32656E+07 3.94075
1.32734E+07 3.93951
1.32813E+07 3.93827
1.32891E+07 3.93703
1.32969E+07 3.93580
1.33047E+07 3.93457
1.33125E+07 3.93335
1.33203E+07 3.93212
1.33281E+07 3.93091
1.33359E+07 3.92969
1.33438E+07 3.92848
1.33516E+07 3.92728
1.33594E+07 3.92608
1.33672E+07 3.92488
1.33750E+07 3.92368
1.33828E+07 3.92249
1.33906E+07 3.92131
1.33984E+07 3.92013
1.34063E+07 3.91895
1.34141E+07 3.91777
1.34219E+07 3.91660
1.34297E+07 3.91543
1.34375E+07 3.91427
1.34453E+07 3.91311
1.34531E+07 3.91196
1.34609E+07 3.91081
1.34688E+07 3.90966
1.34766E+07 3.90851
1.34844E+07 3.90738
1.34922E+07 3.90624
1.35000E+07 3.90511
1.35078E+07 3.90398
1.35156E+07 3.90286
1.35234E+07 3.90174
1.35313E+07 3.90062
1.35391E+07 3.89951
1.35469E+07 3.89841
1.35547E+07 3.89730
1.35625E+07 3.89620
1.35703E+07 3.89511
1.35781E+07 3.89402
1.35859E+07 3.89293
1.35938E+07 3.89185
1.36016E+07 3.89077
1.36094E+07 3.88970
1.36172E+07 3.88863
1.36250E+07 3.88756
1.36328E+07 3.88650
1.36406E+07 3.88544
1.36484E+07 3.88439
1.36563E+07 3.88334
1.36641E+07 3.88229
1.36719E+07 3.88125
1.36797E+07 3.88022
1.36875E+07 3.87918
1.36953E+07 3.87815
1.37031E+07 3.87713
1.37109E+07 3.87611
1.37188E+07 3.87510
1.37266E+07 3.87408
1.37344E+07 3.87308
1.37422E+07 3.87208
1.37500E+07 3.87108
1.37578E+07 3.87008
1.37656E+07 3.86910
1.37734E+07 3.86811
1.37813E+07 3.86713
1.37891E+07 3.86615
1.37969E+07 3.86518
1.38047E+07 3.86422
1.38125E+07 3.86325
1.38203E+07 3.86229
1.38281E+07 3.86134
1.38359E+07 3.86039
1.38438E+07 3.85945
1.38516E+07 3.85851
1.38594E+07 3.85757
1.38672E+07 3.85664
1.38750E+07 3.85571
1.38828E+07 3.85479
1.38906E+07 3.85387
1.38984E+07 3.85296
1.39063E+07 3.85205
1.39141E+07 3.85115
1.39219E+07 3.85025
1.39297E+07 3.84936
1.39375E+07 3.84847
1.39453E+07 3.84758
1.39531E+07 3.84670
1.39609E+07 3.84583
1.39688E+07 3.84496
1.39766E+07 3.84409
1.39844E+07 3.84323
1.39922E+07 3.84238
1.40000E+07 3.84152
1.40156E+07 3.83928
1.40313E+07 3.83706
1.40469E+07 3.83485
1.40625E+07 3.83266
1.40781E+07 3.83049
1.40938E+07 3.82833
1.41094E+07 3.82619
1.41250E+07 3.82407
1.41406E+07 3.82197
1.41563E+07 3.81989
1.41719E+07 3.81782
1.41875E+07 3.81577
1.42031E+07 3.81374
1.42188E+07 3.81172
1.42344E+07 3.80973
1.42500E+07 3.80775
1.42656E+07 3.80579
1.42813E+07 3.80385
1.42969E+07 3.80193
1.43125E+07 3.80002
1.43281E+07 3.79814
1.43438E+07 3.79627
1.43594E+07 3.79442
1.43750E+07 3.79259
1.43906E+07 3.79078
1.44063E+07 3.78899
1.44219E+07 3.78721
1.44375E+07 3.78546
1.44531E+07 3.78373
1.44688E+07 3.78201
1.44844E+07 3.78032
1.45000E+07 3.77864
1.45156E+07 3.77653
1.45313E+07 3.77443
1.45469E+07 3.77235
1.45625E+07 3.77028
1.45781E+07 3.76823
1.45938E+07 3.76619
1.46094E+07 3.76417
1.46250E+07 3.76217
1.46406E+07 3.76017
1.46563E+07 3.75820
1.46719E+07 3.75624
1.46875E+07 3.75430
1.47031E+07 3.75237
1.47188E+07 3.75046
1.47344E+07 3.74856
1.47500E+07 3.74669
1.47656E+07 3.74482
1.47813E+07 3.74298
1.47969E+07 3.74115
1.48125E+07 3.73933
1.48281E+07 3.73754
1.48438E+07 3.73576
1.48594E+07 3.73399
1.48750E+07 3.73224
1.48906E+07 3.73051
1.49063E+07 3.72880
1.49219E+07 3.72710
1.49375E+07 3.72542
1.49531E+07 3.72376
1.49688E+07 3.72212
1.49844E+07 3.72049
1.50000E+07 3.71888
1.50156E+07 3.71678
1.50313E+07 3.71470
1.50469E+07 3.71263
1.50625E+07 3.71058
1.50781E+07 3.70853
1.50938E+07 3.70650
1.51094E+07 3.70449
1.51250E+07 3.70248
1.51406E+07 3.70049
1.51563E+07 3.69852
1.51719E+07 3.69655
1.51875E+07 3.69460
1.52031E+07 3.69267
1.52188E+07 3.69074
1.52344E+07 3.68884
1.52500E+07 3.68694
1.52656E+07 3.68506
1.52813E+07 3.68319
1.52969E+07 3.68134
1.53125E+07 3.67950
1.53281E+07 3.67767
1.53438E+07 3.67585
1.53594E+07 3.67405
1.53750E+07 3.67227
1.53906E+07 3.67050
1.54063E+07 3.66874
1.54219E+07 3.66700
1.54375E+07 3.66527
1.54531E+07 3.66355
1.54688E+07 3.66185
1.54844E+07 3.66016
1.55000E+07 3.65849
1.55156E+07 3.65683
1.55313E+07 3.65519
1.55469E+07 3.65356
1.55625E+07 3.65194
1.55781E+07 3.65034
1.55938E+07 3.64876
1.56094E+07 3.64718
1.56250E+07 3.64563
1.56406E+07 3.64408
1.56563E+07 3.64256
1.56719E+07 3.64104
1.56875E+07 3.63955
1.57031E+07 3.63806
1.57188E+07 3.63659
1.57344E+07 3.63514
1.57500E+07 3.63370
1.57656E+07 3.63228
1.57813E+07 3.63087
1.57969E+07 3.62948
1.58125E+07 3.62810
1.58281E+07 3.62674
1.58438E+07 3.62539
1.58594E+07 3.62406
1.58750E+07 3.62275
1.58906E+07 3.62145
1.59063E+07 3.62016
1.59219E+07 3.61889
1.59375E+07 3.61764
1.59531E+07 3.61640
1.59688E+07 3.61518
1.59844E+07 3.61398
1.60000E+07 3.61279
1.60313E+07 3.60855
1.60625E+07 3.60435
1.60938E+07 3.60020
1.61250E+07 3.59608
1.61563E+07 3.59201
1.61875E+07 3.58798
1.62188E+07 3.58399
1.62500E+07 3.58004
1.62813E+07 3.57613
1.63125E+07 3.57226
1.63438E+07 3.56844
1.63750E+07 3.56466
1.64063E+07 3.56091
1.64375E+07 3.55721
1.64688E+07 3.55356
1.65000E+07 3.54994
1.65313E+07 3.54637
1.65625E+07 3.54283
1.65938E+07 3.53935
1.66250E+07 3.53590
1.66563E+07 3.53249
1.66875E+07 3.52913
1.67188E+07 3.52581
1.67500E+07 3.52253
1.67813E+07 3.51930
1.68125E+07 3.51611
1.68438E+07 3.51296
1.68750E+07 3.50986
1.69063E+07 3.50680
1.69375E+07 3.50378
1.69688E+07 3.50081
1.70000E+07 3.49788
1.70450E+07 3.49265
1.70899E+07 3.48749
1.71349E+07 3.48238
1.71799E+07 3.47733
1.72249E+07 3.47234
1.72698E+07 3.46741
1.73148E+07 3.46254
1.73598E+07 3.45774
1.74047E+07 3.45299
1.74497E+07 3.44830
1.74947E+07 3.44367
1.75396E+07 3.43910
1.75846E+07 3.43459
1.76296E+07 3.43014
1.76745E+07 3.42575
1.77195E+07 3.42142
1.77546E+07 3.41775
1.77896E+07 3.41410
1.78247E+07 3.41049
1.78598E+07 3.40691
1.78948E+07 3.40336
1.79299E+07 3.39983
1.79649E+07 3.39635
1.80000E+07 3.39289
1.80313E+07 3.38833
1.80625E+07 3.38379
1.80938E+07 3.37927
1.81250E+07 3.37478
1.81563E+07 3.37031
1.81875E+07 3.36586
1.82188E+07 3.36143
1.82500E+07 3.35703
1.82813E+07 3.35265
1.83125E+07 3.34829
1.83438E+07 3.34396
1.83750E+07 3.33965
1.84063E+07 3.33536
1.84375E+07 3.33109
1.84688E+07 3.32685
1.85000E+07 3.32262
1.85313E+07 3.31842
1.85625E+07 3.31425
1.85938E+07 3.31009
1.86250E+07 3.30596
1.86563E+07 3.30185
1.86875E+07 3.29776
1.87188E+07 3.29370
1.87500E+07 3.28965
1.87813E+07 3.28563
1.88125E+07 3.28164
1.88438E+07 3.27766
1.88750E+07 3.27371
1.89063E+07 3.26977
1.89375E+07 3.26587
1.89688E+07 3.26198
1.90000E+07 3.25811
1.90534E+07 3.25116
1.91067E+07 3.24425
1.91600E+07 3.23739
1.92134E+07 3.23057
1.92667E+07 3.22381
1.93201E+07 3.21709
1.93734E+07 3.21042
1.94268E+07 3.20380
1.94801E+07 3.19722
1.95334E+07 3.19070
1.95868E+07 3.18422
1.96401E+07 3.17779
1.96935E+07 3.17140
1.97468E+07 3.16506
1.98002E+07 3.15877
1.98535E+07 3.15253
1.98901E+07 3.14817
1.99268E+07 3.14383
1.99634E+07 3.13950
2.00000E+07 3.13520
