Kr-84(n,tot) ENDFB-8.0
Energy(eV) XS(b)
1.00000E-05 29.1757
1.03125E-05 28.7379
1.06250E-05 28.3197
1.09375E-05 27.9197
1.12500E-05 27.5365
1.15625E-05 27.1691
1.18750E-05 26.8163
1.21875E-05 26.4774
1.25000E-05 26.1512
1.28125E-05 25.8372
1.31250E-05 25.5346
1.34375E-05 25.2426
1.37500E-05 24.9607
1.43750E-05 24.4250
1.50000E-05 23.9234
1.56250E-05 23.4525
1.62500E-05 23.0093
1.68750E-05 22.5911
1.75000E-05 22.1957
1.81250E-05 21.8212
1.87500E-05 21.4657
1.93750E-05 21.1278
2.00000E-05 20.8060
2.09375E-05 20.3509
2.18750E-05 19.9257
2.28125E-05 19.5273
2.37500E-05 19.1531
2.46875E-05 18.8006
2.56250E-05 18.4679
2.65625E-05 18.1533
2.75000E-05 17.8551
2.84375E-05 17.5720
2.93750E-05 17.3028
3.03125E-05 17.0464
3.12500E-05 16.8018
3.21875E-05 16.5681
3.31250E-05 16.3447
3.40625E-05 16.1306
3.50000E-05 15.9254
3.59375E-05 15.7284
3.68750E-05 15.5392
3.78125E-05 15.3571
3.87500E-05 15.1819
3.96875E-05 15.0130
4.06250E-05 14.8502
4.25000E-05 14.5411
4.43750E-05 14.2523
4.62500E-05 13.9816
4.81250E-05 13.7274
5.00000E-05 13.4879
5.15625E-05 13.2987
5.31250E-05 13.1181
5.46875E-05 12.9455
5.62500E-05 12.7804
5.78125E-05 12.6223
5.93750E-05 12.4706
6.09375E-05 12.3249
6.25000E-05 12.1850
6.40625E-05 12.0503
6.56250E-05 11.9207
6.71875E-05 11.7958
6.87500E-05 11.6753
7.18750E-05 11.4466
7.50000E-05 11.2329
7.81250E-05 11.0327
8.12500E-05 10.8446
8.43750E-05 10.6675
8.75000E-05 10.5004
9.06250E-05 10.3424
9.37500E-05 10.1927
9.68750E-05 10.0507
0.000100000 9.91575
0.000103125 9.78727
0.000106250 9.66480
0.000109375 9.54790
0.000112500 9.43617
0.000115625 9.32926
0.000118750 9.22685
0.000121875 9.12863
0.000125000 9.03435
0.000128125 8.94375
0.000131250 8.85661
0.000134375 8.77273
0.000137500 8.69191
0.000143750 8.53879
0.000150000 8.39601
0.000156250 8.26250
0.000162500 8.13734
0.000168750 8.01974
0.000175000 7.90900
0.000181250 7.80451
0.000187500 7.70573
0.000193750 7.61218
0.000200000 7.52345
0.000209375 7.39855
0.000218750 7.28253
0.000228125 7.17443
0.000237500 7.07344
0.000246875 6.97886
0.000256250 6.89007
0.000265625 6.80654
0.000275000 6.72780
0.000284375 6.65344
0.000293750 6.58309
0.000303125 6.51642
0.000312500 6.45315
0.000321875 6.39302
0.000331250 6.33579
0.000340625 6.28124
0.000350000 6.22920
0.000359375 6.17948
0.000368750 6.13194
0.000378125 6.08642
0.000387500 6.04281
0.000396875 6.00097
0.000406250 5.96080
0.000425000 5.88508
0.000443750 5.81494
0.000462500 5.74977
0.000481250 5.68905
0.000500000 5.63233
0.000515625 5.58783
0.000531250 5.54565
0.000546875 5.50559
0.000562500 5.46750
0.000578125 5.43124
0.000593750 5.39667
0.000609375 5.36367
0.000625000 5.33215
0.000640625 5.30199
0.000656250 5.27312
0.000671875 5.24545
0.000687500 5.21890
0.000718750 5.16891
0.000750000 5.12267
0.000781250 5.07976
0.000812500 5.03983
0.000843750 5.00257
0.000875000 4.96771
0.000906250 4.93503
0.000937500 4.90433
0.000968750 4.87542
0.00100000 4.84815
0.00103125 4.82238
0.00106250 4.79798
0.00109375 4.77485
0.00112500 4.75289
0.00115625 4.73200
0.00118750 4.71212
0.00121875 4.69316
0.00125000 4.67506
0.00128125 4.65776
0.00131250 4.64121
0.00134375 4.62536
0.00137500 4.61017
0.00143750 4.58157
0.00150000 4.55515
0.00156250 4.53064
0.00162500 4.50784
0.00168750 4.48657
0.00175000 4.46668
0.00181250 4.44803
0.00187500 4.43050
0.00193750 4.41400
0.00200000 4.39842
0.00209375 4.37663
0.00218750 4.35653
0.00228125 4.33791
0.00237500 4.32061
0.00246875 4.30449
0.00256250 4.28943
0.00265625 4.27531
0.00275000 4.26206
0.00284375 4.24959
0.00293750 4.23783
0.00303125 4.22672
0.00312500 4.21619
0.00321875 4.20622
0.00331250 4.19674
0.00340625 4.18773
0.00350000 4.17914
0.00359375 4.17095
0.00368750 4.16313
0.00378125 4.15565
0.00387500 4.14850
0.00396875 4.14163
0.00406250 4.13505
0.00425000 4.12265
0.00443750 4.11118
0.00462500 4.10052
0.00481250 4.09059
0.00500000 4.08132
0.00515625 4.07404
0.00531250 4.06713
0.00546875 4.06057
0.00562500 4.05433
0.00578125 4.04838
0.00593750 4.04270
0.00609375 4.03728
0.00625000 4.03209
0.00640625 4.02712
0.00656250 4.02235
0.00671875 4.01778
0.00687500 4.01338
0.00718750 4.00509
0.00750000 3.99740
0.00781250 3.99023
0.00812500 3.98354
0.00843750 3.97728
0.00875000 3.97140
0.00906250 3.96587
0.00937500 3.96066
0.00968750 3.95573
0.0100000 3.95107
0.0103125 3.94665
0.0106250 3.94245
0.0109375 3.93845
0.0112500 3.93464
0.0115625 3.93101
0.0118750 3.92754
0.0121875 3.92422
0.0125000 3.92104
0.0128125 3.91800
0.0131250 3.91507
0.0134375 3.91226
0.0137500 3.90956
0.0143750 3.90445
0.0150000 3.89971
0.0156250 3.89528
0.0162500 3.89114
0.0168750 3.88726
0.0175000 3.88361
0.0181250 3.88017
0.0187500 3.87692
0.0193750 3.87385
0.0200000 3.87093
0.0206625 3.86801
0.0213250 3.86523
0.0219875 3.86260
0.0226500 3.86009
0.0233125 3.85770
0.0239750 3.85542
0.0246375 3.85324
0.0253000 3.85116
0.0264578 3.84773
0.0276156 3.84453
0.0287734 3.84155
0.0299313 3.83876
0.0310891 3.83614
0.0322469 3.83367
0.0334047 3.83135
0.0345625 3.82915
0.0355274 3.82741
0.0364922 3.82575
0.0374570 3.82415
0.0384219 3.82262
0.0393867 3.82115
0.0403516 3.81974
0.0413164 3.81838
0.0422813 3.81707
0.0442109 3.81460
0.0461406 3.81229
0.0480703 3.81014
0.0500000 3.80812
0.0515625 3.80657
0.0531250 3.80510
0.0546875 3.80369
0.0562500 3.80235
0.0578125 3.80107
0.0593750 3.79984
0.0609375 3.79867
0.0625000 3.79754
0.0640625 3.79645
0.0656250 3.79541
0.0671875 3.79440
0.0687500 3.79344
0.0718750 3.79160
0.0750000 3.78989
0.0781250 3.78829
0.0812500 3.78679
0.0843750 3.78538
0.0875000 3.78405
0.0906250 3.78279
0.0937500 3.78160
0.0968750 3.78047
0.100000 3.77939
0.103125 3.77837
0.106250 3.77740
0.109375 3.77647
0.112500 3.77558
0.115625 3.77473
0.118750 3.77391
0.121875 3.77313
0.125000 3.77238
0.128125 3.77166
0.131250 3.77097
0.134375 3.77030
0.137500 3.76965
0.143750 3.76843
0.150000 3.76729
0.156250 3.76622
0.162500 3.76521
0.168750 3.76426
0.175000 3.76337
0.181250 3.76253
0.187500 3.76172
0.193750 3.76097
0.200000 3.76024
0.209375 3.75922
0.218750 3.75827
0.228125 3.75738
0.237500 3.75654
0.246875 3.75576
0.256250 3.75502
0.265625 3.75431
0.275000 3.75365
0.284375 3.75302
0.293750 3.75242
0.303125 3.75185
0.312500 3.75131
0.321875 3.75079
0.331250 3.75030
0.340625 3.74982
0.350000 3.74937
0.359375 3.74893
0.368750 3.74851
0.378125 3.74810
0.387500 3.74772
0.396875 3.74734
0.406250 3.74698
0.425000 3.74629
0.443750 3.74565
0.462500 3.74505
0.500000 3.74395
0.531250 3.74313
0.562500 3.74237
0.593750 3.74168
0.625000 3.74103
0.687500 3.73988
0.750000 3.73887
0.812500 3.73798
0.875000 3.73719
0.937500 3.73648
1.00000 3.73583
1.06250 3.73523
1.12500 3.73468
1.18750 3.73418
1.25000 3.73371
1.37500 3.73286
1.50000 3.73211
1.62500 3.73145
1.75000 3.73085
1.87500 3.73030
2.00000 3.72980
2.18750 3.72912
2.37500 3.72850
2.56250 3.72795
2.75000 3.72744
2.93750 3.72697
3.12500 3.72653
3.31250 3.72612
3.50000 3.72573
3.87500 3.72502
4.25000 3.72437
4.62500 3.72378
5.00000 3.72323
5.31250 3.72279
5.62500 3.72238
5.93750 3.72198
6.25000 3.72160
6.87500 3.72088
7.50000 3.72020
8.12500 3.71955
8.75000 3.71893
9.37500 3.71833
10.0000 3.71776
10.6250 3.71720
11.2500 3.71665
11.8750 3.71611
12.5000 3.71559
13.7500 3.71456
15.0000 3.71357
16.2500 3.71260
17.5000 3.71164
18.7500 3.71070
20.0000 3.70977
21.8750 3.70840
23.7500 3.70704
25.6250 3.70569
27.5000 3.70436
29.3750 3.70303
31.2500 3.70171
33.1250 3.70039
35.0000 3.69908
38.7500 3.69646
42.5000 3.69384
46.2500 3.69122
50.0000 3.68859
53.1250 3.68640
56.2500 3.68419
62.5000 3.67977
68.7500 3.67531
75.0000 3.67081
81.2500 3.66626
87.5000 3.66166
93.7500 3.65700
100.000 3.65229
106.250 3.64752
112.500 3.64269
125.000 3.63283
137.500 3.62268
150.000 3.61221
159.375 3.60412
168.750 3.59585
175.000 3.59020
187.500 3.57860
200.000 3.56654
209.375 3.55716
218.750 3.54748
228.125 3.53747
237.500 3.52709
246.875 3.51632
256.250 3.50512
265.625 3.49344
275.000 3.48124
284.375 3.46846
293.750 3.45503
303.125 3.44088
312.500 3.42591
321.875 3.41002
331.250 3.39309
340.625 3.37496
345.313 3.36538
350.000 3.35543
356.445 3.34105
362.891 3.32586
369.336 3.30973
375.781 3.29246
382.227 3.27405
388.672 3.25418
391.895 3.24372
395.117 3.23272
398.340 3.22133
401.563 3.20951
407.422 3.18652
410.352 3.17427
413.281 3.16148
416.211 3.14807
419.141 3.13402
422.070 3.11928
425.000 3.10379
428.223 3.08575
431.445 3.06664
434.668 3.04629
437.891 3.02455
441.113 3.00135
444.336 2.97640
445.947 2.96325
447.559 2.94953
449.170 2.93532
450.781 2.92056
452.832 2.90083
454.883 2.88001
456.934 2.85801
458.984 2.83487
461.035 2.81019
463.086 2.78397
465.137 2.75604
467.188 2.72622
468.799 2.70133
470.410 2.67504
472.022 2.64721
473.633 2.61771
475.244 2.58638
476.856 2.55304
477.661 2.53555
478.467 2.51748
479.273 2.49880
480.078 2.47949
481.323 2.44828
482.569 2.41533
483.814 2.38048
485.059 2.34356
486.304 2.30440
486.926 2.28395
487.549 2.26288
488.172 2.24110
488.794 2.21860
489.417 2.19536
490.039 2.17135
490.845 2.13907
491.651 2.10536
492.456 2.07012
493.262 2.03326
494.068 1.99467
494.873 1.95426
495.679 1.91189
496.484 1.86746
496.924 1.84231
497.363 1.81649
497.803 1.78998
498.242 1.76276
498.682 1.73480
499.121 1.70610
499.561 1.67662
500.000 1.64637
500.587 1.60473
501.173 1.56165
501.760 1.51710
502.346 1.47111
502.933 1.42370
503.226 1.39948
503.520 1.37493
503.813 1.35006
504.106 1.32489
504.400 1.29944
504.693 1.27375
505.096 1.23811
505.499 1.20219
505.903 1.16617
506.306 1.13023
506.709 1.09464
507.113 1.05970
507.516 1.02584
507.919 0.993575
508.267 0.967500
508.616 0.943651
508.964 0.922696
509.312 0.905463
509.487 0.898552
509.661 0.892980
509.835 0.888910
510.009 0.886540
510.183 0.886088
510.357 0.887802
510.531 0.891961
510.705 0.898884
510.870 0.908316
511.035 0.920891
511.200 0.936992
511.365 0.957043
511.530 0.981562
511.695 1.01110
511.778 1.02796
511.860 1.04631
511.943 1.06627
512.025 1.08790
512.106 1.11072
512.186 1.13534
512.266 1.16188
512.346 1.19049
512.410 1.21496
512.474 1.24086
512.539 1.26831
512.630 1.31043
512.722 1.35608
512.814 1.40564
512.905 1.45929
513.006 1.52357
513.107 1.59369
513.208 1.67022
513.258 1.71107
513.308 1.75375
513.359 1.79842
513.409 1.84500
513.460 1.89367
513.510 1.94452
513.561 1.99765
513.611 2.05316
513.661 2.11118
513.712 2.17183
513.758 2.22944
513.803 2.28930
513.849 2.35177
513.895 2.41669
513.941 2.48446
513.987 2.55491
514.033 2.62831
514.078 2.70480
514.124 2.78470
514.170 2.86782
514.216 2.95448
514.262 3.04485
514.308 3.13933
514.353 3.23770
514.399 3.34035
514.445 3.44751
514.509 3.60573
514.573 3.77364
514.638 3.95249
514.702 4.14253
514.766 4.34521
514.830 4.56085
514.894 4.79117
514.958 5.03658
515.009 5.24161
515.059 5.45723
515.110 5.68455
515.160 5.92434
515.210 6.17745
515.261 6.44478
515.311 6.72734
515.362 7.02619
515.412 7.34317
515.462 7.67830
515.513 8.03361
515.563 8.41064
515.614 8.81109
515.664 9.23684
515.714 9.68996
515.765 10.1727
515.820 10.7364
515.875 11.3422
515.930 11.9942
515.985 12.6973
516.040 13.4568
516.095 14.2790
516.150 15.1710
516.205 16.1412
516.255 17.1089
516.306 18.1571
516.356 19.2975
516.407 20.5417
516.457 21.9030
516.507 23.3974
516.533 24.2000
516.558 25.0431
516.583 25.9294
516.608 26.8619
516.633 27.8440
516.659 28.8792
516.684 29.9714
516.709 31.1249
516.734 32.3441
516.759 33.6341
516.785 35.0001
516.810 36.4480
516.835 37.9841
516.860 39.6150
516.885 41.3482
516.911 43.1915
516.936 45.1534
516.961 47.2430
516.986 49.4702
517.011 51.8456
517.037 54.3908
517.062 57.0980
517.087 59.9898
517.112 63.0801
517.137 66.3836
517.163 69.9158
517.188 73.6935
517.213 77.7342
517.238 82.0742
517.264 86.6987
517.289 91.6449
517.314 96.9342
517.339 102.589
517.364 108.633
517.390 115.090
517.415 121.985
517.440 129.344
517.465 137.194
517.490 145.562
517.516 154.475
517.541 163.961
517.566 174.049
517.591 184.766
517.616 196.141
517.642 208.201
517.667 220.973
517.692 234.483
517.717 248.758
517.742 263.820
517.768 279.693
517.793 296.396
517.818 313.947
517.850 337.558
517.882 362.597
517.914 389.082
517.946 417.019
517.978 446.405
518.011 477.226
518.043 509.454
518.075 542.941
518.125 598.409
518.176 656.704
518.226 717.546
518.276 780.454
518.478 1039.77
518.528 1102.70
518.579 1163.12
518.629 1220.11
518.679 1272.78
518.713 1305.16
518.747 1334.88
518.780 1361.91
518.814 1385.86
518.857 1411.87
518.900 1432.32
518.943 1447.01
518.986 1455.77
519.000 1457.35
519.014 1458.26
519.061 1456.53
519.107 1447.74
519.154 1432.05
519.200 1409.73
519.241 1385.39
519.281 1356.67
519.321 1323.92
519.361 1287.62
519.402 1247.78
519.442 1205.21
519.523 1113.28
519.603 1015.37
519.684 915.226
519.754 829.296
519.823 745.757
519.893 666.061
519.928 627.960
519.963 591.319
520.003 550.585
520.044 511.979
520.084 475.377
520.124 440.998
520.165 408.682
520.205 378.571
520.245 350.548
520.286 324.556
520.308 311.139
520.330 298.356
520.352 286.131
520.374 274.448
520.396 263.292
520.418 252.647
520.440 242.496
520.462 232.823
520.484 223.610
520.506 214.841
520.528 206.498
520.550 198.564
520.572 191.023
520.594 183.856
520.616 177.049
520.638 170.583
520.678 159.550
520.718 149.547
520.759 140.434
520.799 132.172
520.839 124.641
520.880 117.807
520.920 111.567
520.960 105.891
521.001 100.696
521.041 95.9554
521.082 91.6011
521.122 87.6133
521.162 83.9352
521.203 80.5522
521.243 77.4181
521.283 74.5223
521.324 71.8273
521.364 69.3259
521.404 66.9873
521.445 64.8070
521.485 62.7599
521.525 60.8433
521.566 59.0366
521.606 57.3385
521.646 55.7319
521.687 54.2167
521.727 52.7783
521.767 51.4175
521.848 48.8927
521.929 46.6036
521.995 44.8816
522.061 43.2840
522.127 41.7957
522.193 40.4059
522.259 39.1032
522.325 37.8835
522.391 36.7375
522.457 35.6589
522.523 34.6404
522.589 33.6803
522.655 32.7723
522.721 31.9126
522.787 31.0974
522.853 30.3234
522.919 29.5878
522.985 28.8879
523.066 28.0770
523.147 27.3117
523.227 26.5884
523.308 25.9040
523.389 25.2554
523.469 24.6400
523.550 24.0556
523.631 23.4998
523.792 22.4665
523.954 21.5264
524.115 20.6679
524.276 19.8812
524.372 19.4466
524.467 19.0326
524.658 18.2617
524.849 17.5583
525.039 16.9142
525.230 16.3222
525.421 15.7771
525.611 15.2733
525.802 14.8064
525.964 14.4372
526.125 14.0898
526.286 13.7623
526.448 13.4531
526.609 13.1608
526.771 12.8841
526.932 12.6218
527.093 12.3729
527.255 12.1365
527.416 11.9115
527.578 11.6974
527.739 11.4932
527.900 11.2984
528.062 11.1123
528.384 10.7644
528.707 10.4452
529.030 10.1515
529.353 9.88049
529.676 9.62976
529.998 9.39702
530.321 9.18054
530.644 8.97871
530.967 8.79021
531.231 8.64497
531.495 8.50722
531.759 8.37640
532.023 8.25201
532.287 8.13353
532.551 8.02055
532.815 7.91267
533.079 7.80959
533.344 7.71101
533.608 7.61665
534.136 7.43964
534.664 7.27670
535.192 7.12626
535.515 7.03987
535.838 6.95737
536.161 6.87849
536.483 6.80302
537.129 6.66142
537.775 6.53110
538.420 6.41075
539.066 6.29931
539.711 6.19580
540.357 6.09945
541.120 5.99380
541.883 5.89614
542.646 5.80558
543.409 5.72141
544.172 5.64304
544.934 5.56996
545.697 5.50141
546.460 5.43700
547.106 5.38552
547.751 5.33659
548.397 5.29004
549.043 5.24569
549.688 5.20339
550.334 5.16300
550.979 5.12440
551.625 5.08747
552.270 5.05210
552.916 5.01818
553.562 4.98565
554.207 4.95441
555.498 4.89550
556.789 4.84092
558.081 4.79019
559.372 4.74293
560.663 4.69878
561.954 4.65744
563.245 4.61865
564.536 4.58217
565.827 4.54779
567.118 4.51534
568.234 4.48874
569.349 4.46338
571.579 4.41610
573.809 4.37261
576.039 4.33260
578.269 4.29565
580.499 4.26139
582.729 4.22952
584.960 4.19980
587.542 4.16779
590.124 4.13805
592.706 4.11033
595.289 4.08444
597.871 4.06015
600.453 4.03734
603.035 4.01585
605.618 3.99554
609.843 3.96463
614.069 3.93632
618.294 3.91010
622.520 3.88574
626.745 3.86303
630.971 3.84178
635.196 3.82182
639.422 3.80302
644.586 3.78148
649.751 3.76124
654.916 3.74217
660.080 3.72419
665.245 3.70709
670.409 3.69084
680.738 3.66045
690.598 3.63374
700.457 3.60872
710.317 3.58524
720.176 3.56291
730.036 3.54160
739.895 3.52121
749.755 3.50150
759.615 3.48237
770.883 3.46118
782.151 3.44056
804.687 3.40031
827.223 3.36120
849.759 3.32255
868.539 3.29043
887.319 3.25815
906.100 3.22552
924.880 3.19239
943.660 3.15847
962.440 3.12368
981.220 3.08785
1000.00 3.05080
1024.33 3.00043
1036.49 2.97416
1048.66 2.94708
1060.82 2.91909
1072.99 2.89005
1085.15 2.85994
1097.31 2.82859
1106.92 2.80288
1116.52 2.77628
1121.32 2.76265
1126.12 2.74878
1130.92 2.73467
1135.73 2.72037
1137.97 2.71364
1140.21 2.70690
1142.45 2.70016
1144.69 2.69347
1146.93 2.68687
1149.17 2.68049
1150.29 2.67744
1151.41 2.67455
1152.53 2.67189
1153.65 2.66955
1154.37 2.66831
1155.09 2.66737
1155.81 2.66686
1156.53 2.66694
1157.25 2.66792
1157.61 2.66889
1157.97 2.67029
1158.33 2.67226
1158.69 2.67499
1159.05 2.67876
1159.41 2.68400
1159.69 2.68953
1159.97 2.69699
1160.11 2.70176
1160.25 2.70751
1160.39 2.71459
1160.53 2.72351
1160.67 2.73505
1160.81 2.75037
1160.95 2.77120
1161.02 2.78443
1161.09 2.80005
1161.16 2.81854
1161.23 2.84047
1161.30 2.86650
1161.37 2.89737
1161.44 2.93398
1161.51 2.97730
1161.58 3.02845
1161.65 3.08866
1161.72 3.15385
1161.78 3.22919
1161.85 3.31591
1161.91 3.41530
1161.98 3.52869
1162.01 3.59206
1162.04 3.65745
1162.08 3.72912
1162.11 3.80289
1162.14 3.88353
1162.17 3.96631
1162.21 4.05654
1162.24 4.14889
1162.27 4.24927
1162.30 4.35171
1162.34 4.46272
1162.37 4.57566
1162.40 4.69765
1162.43 4.82137
1162.47 4.95459
1162.50 5.08924
1162.53 5.23375
1162.56 5.37931
1162.63 5.69125
1162.69 6.02430
1162.75 6.34943
1162.81 6.69020
1162.87 7.04493
1162.93 7.41156
1163.05 8.17048
1163.17 8.94349
1163.30 9.76417
1163.37 10.1560
1163.43 10.5286
1163.52 11.0034
1163.61 11.4185
1163.67 11.6376
1163.72 11.8275
1163.77 11.9596
1163.81 12.0698
1163.87 12.1734
1163.95 12.2603
1164.00 12.2767
1164.00 12.2765
1164.01 12.2753
1164.02 12.2729
1164.04 12.2651
1164.08 12.2363
1164.16 12.1236
1164.24 11.9356
1164.32 11.6752
1164.40 11.3680
1164.47 11.0145
1164.53 10.7315
1164.58 10.4346
1164.69 9.79013
1164.81 9.05391
1164.98 7.92837
1165.04 7.56176
1165.13 7.02120
1165.22 6.51205
1165.26 6.26608
1165.30 6.02869
1165.35 5.80040
1165.39 5.58646
1165.44 5.37723
1165.48 5.17801
1165.52 4.98892
1165.57 4.81395
1165.61 4.64494
1165.65 4.48596
1165.70 4.33685
1165.74 4.20047
1165.79 4.04749
1165.84 3.90971
1165.90 3.78352
1165.95 3.66833
1166.00 3.56354
1166.05 3.46849
1166.10 3.38254
1166.15 3.30504
1166.20 3.23535
1166.25 3.17285
1166.30 3.11692
1166.35 3.06699
1166.41 3.02250
1166.46 2.98292
1166.51 2.94778
1166.56 2.91661
1166.61 2.88848
1166.66 2.86409
1166.71 2.84251
1166.76 2.82340
1166.87 2.79152
1166.97 2.76646
1167.07 2.74664
1167.17 2.73082
1167.27 2.71804
1167.38 2.70759
1167.49 2.69774
1167.61 2.68961
1167.84 2.67694
1168.08 2.66729
1168.31 2.65961
1168.54 2.65323
1168.78 2.64785
1169.01 2.64320
1169.24 2.63912
1169.71 2.63224
1170.18 2.62661
1170.64 2.62183
1171.11 2.61769
1171.57 2.61401
1172.04 2.61068
1172.51 2.60761
1173.44 2.60206
1174.37 2.59705
1175.31 2.59240
1176.24 2.58801
1177.17 2.58380
1179.04 2.57570
1180.91 2.56786
1182.77 2.56015
1184.64 2.55250
1186.51 2.54487
1189.77 2.53146
1193.04 2.51792
1196.31 2.50418
1199.57 2.49022
1204.47 2.46876
1209.37 2.44668
1214.27 2.42387
1219.17 2.40032
1224.07 2.37593
1228.97 2.35062
1233.87 2.32436
1238.77 2.29708
1243.90 2.26725
1249.03 2.23611
1254.17 2.20350
1259.30 2.16927
1264.43 2.13334
1269.57 2.09547
1274.70 2.05549
1279.83 2.01324
1284.26 1.97465
1288.70 1.93394
1293.13 1.89096
1297.56 1.84547
1302.00 1.79720
1306.43 1.74579
1310.86 1.69109
1315.30 1.63247
1317.86 1.59660
1320.43 1.55922
1323.00 1.52021
1325.56 1.47948
1328.13 1.43688
1330.69 1.39232
1333.26 1.34565
1335.83 1.29672
1338.28 1.24775
1340.73 1.19646
1343.18 1.14270
1345.63 1.08634
1348.08 1.02724
1349.30 0.996626
1350.53 0.965292
1351.75 0.933225
1352.98 0.900426
1354.20 0.866918
1355.43 0.832721
1356.71 0.796025
1357.99 0.758570
1359.28 0.720374
1360.56 0.681490
1361.84 0.641990
1363.12 0.601973
1364.41 0.561571
1365.69 0.520960
1366.80 0.485865
1367.91 0.451007
1369.02 0.416565
1370.12 0.382901
1371.23 0.350333
1372.34 0.319374
1372.90 0.304659
1373.45 0.290571
1374.00 0.277218
1374.56 0.264718
1375.14 0.252603
1375.72 0.241755
1376.31 0.232338
1376.89 0.224565
1377.47 0.218669
1378.06 0.214942
1378.35 0.213984
1378.64 0.213690
1378.93 0.214107
1379.22 0.215284
1379.54 0.217530
1379.71 0.219055
1379.87 0.220847
1380.03 0.222941
1380.19 0.225322
1380.35 0.228013
1380.51 0.231026
1380.70 0.235040
1380.89 0.239547
1381.08 0.244572
1381.27 0.250106
1381.46 0.256233
1381.64 0.262915
1381.83 0.270250
1382.02 0.278190
1382.34 0.293230
1382.67 0.310365
1382.99 0.329769
1383.31 0.351557
1383.63 0.376071
1383.95 0.403473
1384.27 0.434009
1384.59 0.467837
1384.91 0.505463
1385.07 0.525828
1385.23 0.547112
1385.39 0.569627
1385.55 0.593141
1385.71 0.617840
1385.87 0.643777
1386.03 0.671180
1386.19 0.699768
1386.35 0.729959
1386.51 0.761443
1386.68 0.794682
1386.84 0.829332
1387.00 0.865672
1387.16 0.903778
1387.32 0.943990
1387.48 0.985895
1387.64 1.03011
1387.80 1.07619
1387.96 1.12480
1388.12 1.17546
1388.28 1.22891
1388.44 1.28461
1388.60 1.34339
1388.76 1.40465
1388.92 1.46930
1389.08 1.53670
1389.24 1.60785
1389.40 1.68204
1389.56 1.75988
1389.72 1.84156
1389.88 1.92785
1390.04 2.01788
1390.20 2.11301
1390.36 2.21232
1390.53 2.31732
1390.69 2.42697
1390.85 2.54222
1391.01 2.66339
1391.17 2.79164
1391.33 2.92574
1391.49 3.06776
1391.65 3.21637
1391.81 3.37388
1391.97 3.53881
1392.13 3.71265
1392.29 3.89595
1392.45 4.09055
1392.61 4.29468
1392.77 4.51161
1392.93 4.73940
1393.09 4.98171
1393.25 5.23643
1393.41 5.50771
1393.57 5.79320
1393.73 6.09762
1393.89 6.41840
1394.05 6.76092
1394.21 7.12235
1394.38 7.50883
1394.54 7.91729
1394.70 8.35195
1394.86 8.81490
1395.05 9.40458
1395.24 10.0416
1395.43 10.7309
1395.61 11.4736
1395.80 12.2837
1395.99 13.1594
1396.18 14.1179
1396.37 15.1577
1396.53 16.1189
1396.69 17.1503
1396.85 18.2724
1397.01 19.4803
1397.18 20.7990
1397.34 22.2234
1397.50 23.7742
1397.66 25.4662
1397.82 27.3283
1397.98 29.3569
1398.14 31.6002
1398.30 34.0567
1398.38 35.3961
1398.46 36.7880
1398.54 38.2531
1398.62 39.7965
1398.70 41.4237
1398.78 43.1406
1398.86 44.9539
1398.94 46.8707
1399.02 48.9248
1399.10 51.0742
1399.18 53.3529
1399.26 55.7712
1399.34 58.3734
1399.42 61.1079
1399.50 64.0193
1399.58 67.1227
1399.66 70.4774
1399.74 74.0190
1399.82 77.8075
1399.90 81.8650
1399.98 86.2157
1400.06 90.8863
1400.14 95.9061
1400.22 101.307
1400.28 105.555
1400.34 109.967
1400.40 114.709
1400.46 119.639
1400.51 124.945
1400.57 130.464
1400.63 136.304
1400.69 142.486
1400.75 149.145
1400.81 156.081
1400.86 163.425
1400.92 171.203
1400.98 179.584
1401.04 188.312
1401.10 197.551
1401.15 207.328
1401.24 221.934
1401.32 237.514
1401.40 254.314
1401.48 272.402
1401.56 292.096
1401.64 312.970
1401.72 335.310
1401.80 359.159
1401.88 384.873
1401.96 411.835
1402.04 440.348
1402.12 470.392
1402.20 502.327
1402.28 535.294
1402.36 569.584
1402.44 605.074
1402.60 679.491
1402.76 756.529
1402.92 834.134
1403.08 909.860
1403.17 951.250
1403.27 990.616
1403.36 1027.43
1403.45 1061.18
1403.54 1091.38
1403.63 1117.59
1403.73 1139.41
1403.82 1156.36
1403.91 1168.55
1404.00 1175.56
1404.06 1177.40
1404.16 1175.36
1404.26 1167.32
1404.36 1153.32
1404.46 1133.93
1404.56 1109.18
1404.66 1080.05
1404.76 1046.50
1404.86 1009.81
1404.96 970.703
1405.05 929.863
1405.25 844.178
1405.44 756.786
1405.64 671.429
1405.74 629.199
1405.84 588.578
1405.94 549.793
1406.04 513.010
1406.14 478.334
1406.24 445.822
1406.34 415.485
1406.43 387.567
1406.53 361.449
1406.63 337.342
1406.73 315.149
1406.83 294.757
1406.93 276.051
1407.03 258.908
1407.13 243.207
1407.23 228.968
1407.31 218.591
1407.39 209.019
1407.47 200.068
1407.54 191.692
1407.62 183.850
1407.70 176.502
1407.77 169.612
1407.85 163.145
1407.93 156.993
1408.01 151.284
1408.08 145.910
1408.16 140.845
1408.24 136.068
1408.31 131.557
1408.39 127.292
1408.47 123.256
1408.57 118.331
1408.67 113.731
1408.77 109.430
1408.87 105.401
1408.97 101.620
1409.07 98.0679
1409.17 94.7253
1409.27 91.5755
1409.37 88.6034
1409.47 85.7955
1409.57 83.1392
1409.67 80.6235
1409.77 78.2383
1409.87 75.9743
1410.07 71.7968
1410.27 67.9905
1410.47 64.5279
1410.67 61.3673
1410.87 58.4869
1411.07 55.8277
1411.27 53.3786
1411.47 51.1172
1411.66 49.0340
1411.86 47.0910
1412.06 45.2843
1412.26 43.6008
1412.46 42.0366
1412.66 40.5659
1412.86 39.1878
1413.06 37.8944
1413.26 36.6844
1413.46 35.5394
1413.66 34.4599
1413.86 33.4409
1414.06 32.4824
1414.26 31.5705
1414.46 30.7064
1414.66 29.8868
1414.86 29.1122
1415.06 28.3720
1415.26 27.6676
1415.66 26.3600
1416.06 25.1660
1416.46 24.0774
1416.86 23.0768
1417.26 22.1589
1417.66 21.3102
1418.06 20.5275
1418.33 20.0253
1418.60 19.5496
1418.87 19.0953
1419.15 18.6643
1419.69 17.8597
1420.24 17.1270
1420.78 16.4548
1421.32 15.8381
1421.87 15.2685
1422.41 14.7432
1422.81 14.3817
1423.21 14.0404
1423.61 13.7161
1424.01 13.4092
1424.41 13.1168
1424.81 12.8394
1425.21 12.5746
1425.61 12.3228
1426.41 11.8527
1427.21 11.4231
1428.01 11.0292
1428.81 10.6670
1429.60 10.3328
1430.40 10.0236
1431.20 9.73678
1432.00 9.47007
1432.80 9.22149
1433.60 8.98933
1434.40 8.77219
1435.20 8.56878
1436.00 8.37765
1436.80 8.19748
1437.59 8.02743
1438.39 7.86680
1439.19 7.71488
1439.99 7.57099
1440.79 7.43454
1441.59 7.30495
1442.39 7.18174
1443.19 7.06444
1443.99 6.95265
1444.79 6.84599
1446.38 6.64672
1447.98 6.46422
1449.58 6.29646
1451.18 6.14173
1452.78 5.99856
1454.37 5.86568
1455.97 5.74203
1457.57 5.62666
1459.17 5.51875
1460.76 5.41765
1463.38 5.26506
1465.99 5.12697
1468.61 5.00070
1471.22 4.88484
1473.84 4.77823
1476.45 4.67974
1479.07 4.58843
1481.68 4.50354
1484.88 4.40740
1488.08 4.31867
1491.27 4.23645
1494.47 4.16000
1497.66 4.08862
1500.86 4.02179
1504.06 3.95902
1507.25 3.89990
1511.90 3.81965
1516.55 3.74541
1521.20 3.67644
1525.84 3.61202
1530.49 3.55148
1535.14 3.49446
1539.79 3.44055
1544.44 3.38941
1550.83 3.32313
1557.22 3.26074
1563.61 3.20179
1570.01 3.14591
1576.40 3.09253
1582.79 3.04146
1589.18 2.99236
1595.57 2.94495
1605.45 2.87487
1615.33 2.80741
1625.21 2.74233
1635.09 2.67918
1644.97 2.61756
1654.84 2.55716
1664.72 2.49768
1674.60 2.43888
1687.38 2.36343
1700.17 2.28830
1712.95 2.21315
1725.73 2.13763
1738.52 2.06152
1751.30 1.98448
1764.09 1.90631
1776.87 1.82686
1789.65 1.74573
1802.44 1.66294
1815.22 1.57826
1828.00 1.49141
1840.79 1.40251
1853.57 1.31121
1866.35 1.21755
1879.14 1.12165
1891.34 1.02777
1903.54 0.931950
1915.75 0.834427
1927.95 0.735406
1934.05 0.685537
1940.15 0.635529
1946.25 0.585524
1952.35 0.535586
1958.46 0.485998
1964.56 0.436781
1970.66 0.388230
1976.76 0.340554
1982.57 0.296414
1988.38 0.253761
1991.29 0.233060
1994.19 0.212921
1997.10 0.193269
2000.00 0.174356
2002.42 0.159130
2004.84 0.144395
2007.26 0.130292
2009.69 0.116832
2010.90 0.110357
2012.11 0.104069
2013.32 0.0979643
2014.53 0.0920616
2015.74 0.0863590
2016.95 0.0808746
2018.16 0.0756079
2019.37 0.0705769
2021.29 0.0631030
2023.20 0.0562730
2025.12 0.0501288
2027.04 0.0447178
2028.95 0.0400816
2030.87 0.0362700
2031.83 0.0346825
2032.79 0.0333193
2033.75 0.0321943
2034.70 0.0313160
2035.61 0.0307145
2036.07 0.0305001
2036.52 0.0303445
2036.97 0.0302489
2037.43 0.0302140
2037.88 0.0302407
2038.34 0.0303297
2038.66 0.0304332
2038.99 0.0305702
2039.32 0.0307408
2039.65 0.0309455
2039.98 0.0311847
2040.30 0.0314589
2040.96 0.0321126
2041.61 0.0329119
2042.27 0.0338570
2042.93 0.0349529
2043.58 0.0361988
2044.69 0.0386663
2045.80 0.0415976
2046.91 0.0450107
2048.02 0.0489199
2049.13 0.0533508
2050.24 0.0583195
2051.35 0.0638462
2052.46 0.0699458
2053.57 0.0766511
2054.68 0.0839796
2055.79 0.0919545
2056.90 0.100592
2058.01 0.109934
2059.12 0.119989
2060.23 0.130803
2061.34 0.142386
2062.45 0.154787
2063.56 0.168028
2064.67 0.182140
2065.77 0.197145
2066.88 0.213104
2067.99 0.230024
2069.10 0.247974
2070.21 0.266963
2071.52 0.290844
2072.84 0.316308
2074.15 0.343472
2075.46 0.372377
2076.77 0.403183
2078.08 0.435939
2079.39 0.470707
2080.70 0.507529
2081.81 0.540431
2082.92 0.574990
2084.03 0.611274
2085.14 0.649320
2086.25 0.689272
2087.36 0.731135
2088.47 0.775068
2089.58 0.821077
2090.69 0.869336
2091.80 0.919898
2092.91 0.972864
2094.02 1.02829
2095.13 1.08637
2096.24 1.14714
2097.35 1.21081
2098.46 1.27739
2099.57 1.34715
2100.68 1.42016
2101.79 1.49657
2102.90 1.57646
2104.01 1.66014
2105.12 1.74771
2106.23 1.83935
2107.34 1.93517
2108.45 2.03554
2109.56 2.14058
2110.67 2.25053
2111.78 2.36550
2112.89 2.48597
2113.99 2.61198
2115.10 2.74403
2116.21 2.88219
2117.32 3.02701
2118.43 3.17871
2119.54 3.33764
2120.65 3.50401
2121.76 3.67854
2122.87 3.86149
2123.98 4.05330
2125.09 4.25428
2126.20 4.46528
2127.31 4.68666
2128.42 4.91902
2129.53 5.16271
2130.64 5.41885
2131.75 5.68766
2132.86 5.97037
2133.97 6.26725
2135.08 6.57971
2136.19 6.90837
2137.30 7.25423
2138.41 7.61798
2139.52 8.00139
2140.63 8.40499
2141.74 8.83078
2142.85 9.27939
2143.96 9.75313
2145.07 10.2532
2146.18 10.7814
2147.28 11.3390
2148.39 11.9290
2149.50 12.5527
2150.61 13.2135
2151.72 13.9128
2152.63 14.5164
2153.54 15.1498
2154.45 15.8146
2155.35 16.5128
2156.26 17.2464
2157.17 18.0176
2158.08 18.8288
2158.99 19.6825
2159.89 20.5814
2160.80 21.5282
2161.71 22.5254
2162.62 23.5756
2163.53 24.6830
2164.43 25.8538
2165.34 27.0929
2166.25 28.4026
2167.36 30.1101
2168.47 31.9423
2169.58 33.9104
2170.69 36.0251
2171.80 38.3041
2172.91 40.7591
2174.02 43.4118
2175.13 46.2770
2176.24 49.3817
2177.35 52.7482
2178.46 56.4042
2179.57 60.3773
2180.68 64.7101
2181.79 69.4393
2182.90 74.6106
2184.00 80.2706
2185.11 86.4889
2186.22 93.3284
2187.33 100.867
2188.44 109.186
2189.00 113.677
2189.55 118.404
2190.11 123.383
2190.66 128.621
2191.22 134.155
2191.77 139.994
2192.33 146.159
2192.88 152.659
2193.44 159.543
2193.99 166.823
2194.55 174.527
2195.10 182.685
2195.66 191.328
2196.21 200.489
2196.77 210.206
2197.32 220.498
2197.88 231.444
2198.43 243.069
2198.99 255.422
2199.54 268.527
2200.09 282.486
2200.65 297.331
2201.20 313.122
2201.76 329.887
2202.28 346.789
2202.81 364.671
2203.34 383.657
2203.86 403.729
2204.39 425.016
2204.91 447.488
2205.44 471.230
2205.96 496.281
2206.49 522.726
2207.01 550.486
2207.54 579.618
2208.06 610.109
2209.11 675.063
2210.16 744.575
2212.12 881.749
2213.10 950.098
2214.08 1014.77
2214.57 1044.81
2215.06 1072.76
2215.55 1098.19
2216.04 1120.69
2216.53 1139.98
2217.02 1155.72
2217.51 1167.66
2218.00 1175.60
2218.71 1179.91
2219.29 1177.05
2219.87 1168.69
2220.45 1155.13
2221.03 1136.82
2221.61 1114.29
2222.19 1088.11
2222.77 1058.92
2223.34 1027.40
2224.50 959.512
2225.66 888.827
2226.82 818.546
2227.98 751.032
2228.76 707.337
2229.55 665.920
2230.34 626.866
2231.13 590.227
2231.92 555.942
2232.71 524.029
2233.49 494.342
2234.28 466.764
2235.03 442.482
2235.77 419.892
2236.52 398.820
2237.26 379.216
2238.01 360.923
2238.75 343.895
2239.50 328.017
2240.24 313.202
2240.99 299.339
2241.74 286.364
2242.48 274.208
2243.23 262.828
2243.97 252.138
2244.72 242.117
2245.46 232.687
2246.21 223.829
2246.96 215.479
2247.70 207.620
2248.45 200.196
2249.19 193.196
2249.94 186.572
2250.68 180.313
2251.43 174.380
2252.17 168.764
2252.92 163.430
2253.66 158.374
2254.41 153.564
2255.16 148.996
2256.65 140.502
2258.14 132.792
2259.63 125.762
2261.12 119.340
2262.61 113.456
2264.10 108.055
2265.73 102.646
2267.35 97.6918
2268.98 93.1379
2270.61 88.9463
2272.23 85.0745
2273.86 81.4981
2275.49 78.1895
2277.11 75.1107
2278.60 72.4688
2280.09 69.9902
2281.58 67.6620
2283.08 65.4720
2284.57 63.4090
2286.06 61.4631
2287.55 59.6254
2289.04 57.8878
2290.53 56.2428
2292.02 54.6838
2293.51 53.2046
2295.00 51.7997
2296.49 50.4640
2297.99 49.1929
2300.97 46.8285
2303.95 44.6747
2306.93 42.7069
2309.91 40.9034
2312.89 39.2458
2315.88 37.7178
2318.86 36.3058
2321.84 34.9977
2324.82 33.7835
2326.99 32.9535
2329.16 32.1650
2331.33 31.4151
2333.50 30.7015
2335.67 30.0212
2337.83 29.3752
2342.17 28.1663
2346.51 27.0575
2350.85 26.0403
2355.18 25.1041
2359.52 24.2401
2362.50 23.6848
2365.48 23.1569
2368.47 22.6542
2371.45 22.1774
2377.41 21.2891
2383.37 20.4815
2389.34 19.7420
2395.30 19.0648
2401.27 18.4418
2407.23 17.8665
2413.19 17.3350
2419.16 16.8414
2425.12 16.3825
2431.08 15.9553
2437.05 15.5557
2443.01 15.1820
2448.98 14.8316
2454.94 14.5028
2460.90 14.1955
2466.87 13.9034
2472.83 13.6256
2478.79 13.3660
2490.72 12.8842
2502.65 12.4521
2514.58 12.0585
2526.50 11.7021
2538.43 11.3766
2550.36 11.0772
2565.54 10.7321
2580.72 10.4202
2595.90 10.1368
2603.49 10.0047
2611.08 9.87862
2624.09 9.67521
2630.60 9.57926
2637.10 9.48675
2643.61 9.39766
2650.12 9.31172
2656.62 9.22893
2663.13 9.14909
2671.80 9.04717
2676.14 8.99811
2680.48 8.95031
2684.81 8.90372
2689.15 8.85840
2693.49 8.81440
2697.82 8.77173
2703.79 8.71533
2706.77 8.68817
2709.75 8.66176
2712.73 8.63615
2715.72 8.61140
2718.70 8.58759
2721.68 8.56482
2725.48 8.53757
2727.37 8.52475
2729.27 8.51257
2731.17 8.50106
2733.07 8.49033
2734.96 8.48044
2736.86 8.47150
2738.35 8.46524
2739.84 8.45978
2741.33 8.45519
2742.82 8.45157
2744.32 8.44907
2745.81 8.44784
2747.30 8.44808
2748.79 8.45001
2750.08 8.45328
2751.36 8.45824
2752.65 8.46518
2753.94 8.47442
2755.23 8.48637
2756.51 8.50148
2757.80 8.52037
2759.09 8.54383
2759.84 8.55992
2760.58 8.57809
2761.33 8.59866
2762.07 8.62187
2762.82 8.64818
2763.56 8.67793
2764.31 8.71169
2765.05 8.75008
2765.76 8.79177
2766.48 8.83916
2767.19 8.89319
2767.90 8.95491
2768.26 8.98917
2768.61 9.02593
2768.97 9.06543
2769.32 9.10779
2769.68 9.15354
2770.03 9.20291
2770.39 9.25627
2770.75 9.31387
2771.12 9.37965
2771.49 9.45144
2771.86 9.52997
2772.24 9.61585
2772.61 9.71051
2772.98 9.81489
2773.36 9.93034
2773.73 10.0581
2774.10 10.2007
2774.47 10.3602
2774.66 10.4473
2774.85 10.5392
2775.03 10.6369
2775.22 10.7407
2775.41 10.8518
2775.59 10.9697
2775.78 11.0963
2775.96 11.2309
2776.15 11.3760
2776.34 11.5308
2776.52 11.6973
2776.71 11.8766
2776.95 12.1272
2777.18 12.4033
2777.42 12.7103
2777.66 13.0531
2777.78 13.2406
2777.90 13.4379
2778.01 13.6494
2778.13 13.8726
2778.25 14.1127
2778.37 14.3670
2778.49 14.6417
2778.61 14.9340
2778.70 15.1826
2778.79 15.4436
2778.89 15.7211
2778.98 16.0165
2779.07 16.3353
2779.17 16.6726
2779.26 17.0343
2779.35 17.4228
2779.45 17.8459
2779.54 18.2982
2779.63 18.7881
2779.73 19.3199
2779.82 19.8991
2779.91 20.5315
2780.00 21.2240
2780.10 21.9843
2780.18 22.7460
2780.27 23.5793
2780.35 24.4927
2780.44 25.4833
2780.52 26.5850
2780.61 27.7984
2780.69 29.1362
2780.78 30.5944
2780.86 32.2229
2780.95 34.0221
2781.03 36.0102
2781.11 38.1797
2781.20 40.6030
2781.28 43.2779
2781.37 46.2279
2781.45 49.4377
2781.50 51.3705
2781.55 53.4072
2781.59 55.5521
2781.64 57.7607
2781.69 60.1333
2781.73 62.5734
2781.78 65.1915
2781.83 67.8804
2781.87 70.7616
2781.92 73.7166
2781.97 76.8779
2782.01 80.1152
2782.06 83.5729
2782.11 87.1076
2782.20 94.7222
2782.29 103.076
2782.39 112.011
2782.48 121.626
2782.57 131.927
2782.66 142.913
2782.76 154.573
2782.85 166.886
2782.94 179.820
2783.08 199.760
2783.21 220.593
2783.35 242.390
2783.49 264.544
2783.67 295.445
2783.86 325.497
2784.05 353.901
2784.14 366.991
2784.23 379.204
2784.32 390.288
2784.41 400.155
2784.51 408.819
2784.60 416.182
2784.68 421.984
2784.77 426.425
2784.86 429.456
2784.95 431.033
2785.00 431.294
2785.09 430.554
2785.18 428.357
2785.26 424.730
2785.35 419.776
2785.44 413.437
2785.53 405.831
2785.62 397.042
2785.70 387.280
2785.80 375.778
2785.89 363.303
2785.98 349.991
2786.07 335.984
2786.26 306.463
2786.45 275.870
2786.68 236.979
2786.80 218.186
2786.92 200.029
2787.01 186.268
2787.11 173.060
2787.20 160.453
2787.29 148.484
2787.38 137.180
2787.48 126.555
2787.57 116.616
2787.66 107.456
2787.76 98.8652
2787.85 90.9308
2787.94 83.6305
2787.99 80.1740
2788.03 76.9378
2788.08 73.7771
2788.13 70.8227
2788.17 67.9417
2788.22 65.2528
2788.27 62.6346
2788.31 60.1942
2788.36 57.8210
2788.41 55.6118
2788.48 52.1963
2788.56 49.0563
2788.63 46.1732
2788.71 43.5288
2788.79 41.1055
2788.86 38.8863
2788.94 36.8552
2789.01 34.9969
2789.09 33.2969
2789.17 31.7417
2789.24 30.3186
2789.32 29.0160
2789.39 27.8230
2789.47 26.7294
2789.55 25.7261
2789.62 24.8046
2789.72 23.7771
2789.81 22.8480
2789.90 22.0057
2789.99 21.2404
2790.09 20.5433
2790.18 19.9064
2790.27 19.3231
2790.37 18.7872
2790.46 18.2937
2790.55 17.8377
2790.65 17.4155
2790.74 17.0234
2790.83 16.6583
2790.92 16.3177
2791.02 15.9991
2791.11 15.7004
2791.21 15.3936
2791.31 15.1092
2791.42 14.8399
2791.52 14.5891
2791.62 14.3507
2791.72 14.1280
2791.92 13.7183
2792.12 13.3486
2792.33 13.0166
2792.53 12.7141
2792.73 12.4402
2792.92 12.2089
2793.10 11.9955
2793.29 11.7981
2793.48 11.6150
2793.66 11.4448
2793.85 11.2863
2794.03 11.1385
2794.22 11.0009
2794.40 10.8715
2794.59 10.7500
2794.78 10.6359
2794.96 10.5286
2795.15 10.4275
2795.33 10.3321
2795.52 10.2420
2795.71 10.1573
2796.08 10.0001
2796.45 9.85870
2796.82 9.73087
2797.19 9.61521
2797.56 9.50962
2797.94 9.41319
2798.31 9.32485
2798.68 9.24391
2799.00 9.17904
2799.32 9.11848
2799.64 9.06185
2799.96 9.00879
2800.28 8.95900
2800.61 8.91219
2801.25 8.82657
2801.89 8.75024
2802.53 8.68184
2803.17 8.62024
2803.82 8.56452
2804.56 8.50629
2805.30 8.45397
2806.05 8.40660
2806.79 8.36363
2807.53 8.32437
2808.28 8.28844
2809.02 8.25534
2809.76 8.22483
2810.91 8.18197
2812.06 8.14361
2813.21 8.10901
2814.36 8.07759
2815.51 8.04882
2816.66 8.02237
2817.81 7.99792
2818.95 7.97524
2820.44 7.94808
2821.93 7.92309
2823.41 7.89992
2824.90 7.87833
2826.39 7.85809
2827.88 7.83903
2829.36 7.82100
2830.85 7.80388
2833.55 7.77474
2836.26 7.74771
2838.96 7.72238
2841.66 7.69850
2844.37 7.67583
2847.07 7.65418
2849.77 7.63342
2852.48 7.61342
2855.45 7.59219
2858.42 7.57165
2861.40 7.55174
2864.37 7.53239
2870.32 7.49509
2876.27 7.45942
2881.67 7.42822
2887.08 7.39798
2892.49 7.36860
2897.89 7.34001
2903.30 7.31213
2908.70 7.28492
2919.52 7.23228
2931.41 7.17685
2943.31 7.12372
2955.20 7.07268
2967.10 7.02357
2978.99 6.97626
2990.89 6.93052
3002.78 6.88631
3014.68 6.84360
3038.46 6.76209
3062.25 6.68545
3079.56 6.63251
3096.86 6.58173
3131.46 6.48613
3166.06 6.39759
3200.66 6.31529
3248.24 6.21113
3295.82 6.11588
3343.40 6.02829
3390.98 5.94737
3436.40 5.87581
3481.81 5.80866
3572.64 5.68647
3663.48 5.57727
3754.31 5.47825
3849.46 5.38350
3944.62 5.29568
4039.78 5.21312
4134.94 5.13436
4256.04 5.03745
4377.15 4.94131
4463.66 4.87107
4550.17 4.79771
4636.67 4.71846
4723.18 4.63017
4770.76 4.57546
4818.34 4.51467
4865.92 4.44576
4913.49 4.36564
4956.75 4.27898
5000.00 4.17341
5020.86 4.11318
5041.72 4.04500
5062.57 3.96698
5083.43 3.87642
5096.18 3.81319
5108.92 3.74272
5121.67 3.66355
5134.42 3.57386
5146.00 3.48115
5157.59 3.37545
5169.18 3.25362
5180.77 3.11189
5187.14 3.02327
5193.51 2.92574
5199.89 2.81788
5206.26 2.69798
5212.63 2.56394
5219.00 2.41324
5222.19 2.33067
5225.38 2.24275
5228.56 2.14892
5231.75 2.04870
5235.52 1.92125
5239.28 1.78308
5243.05 1.63287
5244.93 1.55297
5246.81 1.46971
5250.00 1.32090
5251.59 1.24272
5253.19 1.16201
5254.78 1.07878
5256.37 0.993236
5257.97 0.905524
5259.56 0.815949
5262.46 0.649907
5263.91 0.566530
5265.35 0.484156
5266.80 0.403951
5267.53 0.365232
5268.25 0.327770
5268.98 0.291843
5269.70 0.257938
5270.42 0.226454
5271.15 0.197923
5271.60 0.181844
5272.05 0.167337
5272.51 0.154594
5272.96 0.143853
5273.41 0.135309
5273.86 0.129266
5274.32 0.125999
5274.54 0.125516
5274.77 0.125857
5275.10 0.127905
5275.42 0.131918
5275.66 0.136145
5275.89 0.141533
5276.13 0.148170
5276.36 0.156131
5276.69 0.169520
5277.02 0.185846
5277.34 0.205363
5277.67 0.228348
5277.99 0.255103
5278.32 0.285962
5278.65 0.321286
5278.97 0.361346
5279.37 0.417783
5279.77 0.482885
5280.17 0.557785
5280.36 0.599255
5280.56 0.643608
5280.76 0.691255
5280.96 0.741893
5281.16 0.795940
5281.36 0.853594
5281.56 0.915066
5281.76 0.980583
5281.96 1.05039
5282.16 1.12473
5282.46 1.24940
5282.77 1.38674
5282.93 1.46054
5283.08 1.53798
5283.23 1.61925
5283.39 1.70452
5283.54 1.79399
5283.70 1.88789
5283.85 1.98642
5284.00 2.08983
5284.16 2.19836
5284.31 2.31229
5284.47 2.43188
5284.62 2.55660
5284.82 2.72905
5285.02 2.91188
5285.22 3.10673
5285.42 3.31447
5285.62 3.53602
5285.81 3.77240
5286.01 4.02471
5286.21 4.29416
5286.41 4.58354
5286.61 4.89141
5286.81 5.22073
5287.01 5.57321
5287.21 5.95074
5287.41 6.35538
5287.61 6.78939
5287.81 7.25528
5288.01 7.75843
5288.20 8.29684
5288.40 8.87633
5288.60 9.50063
5288.80 10.1774
5289.00 10.9045
5289.20 11.6903
5289.40 12.5405
5289.60 13.4664
5289.80 14.4658
5290.00 15.5510
5290.20 16.7311
5290.40 18.0158
5290.59 19.4164
5290.79 20.9452
5290.99 22.6162
5291.19 24.4543
5291.39 26.4585
5291.59 28.6566
5291.79 31.0698
5291.99 33.7212
5292.09 35.1515
5292.19 36.6365
5292.29 38.2097
5292.39 39.8433
5292.49 41.5742
5292.59 43.3717
5292.69 45.2762
5292.79 47.2743
5292.89 49.3704
5292.98 51.5464
5293.08 53.8510
5293.18 56.2426
5293.28 58.7742
5293.38 61.3999
5293.48 64.1775
5293.58 67.0858
5293.78 73.2811
5293.98 80.0494
5294.18 87.4247
5294.38 95.4793
5294.58 104.158
5294.78 113.517
5294.98 123.565
5295.18 134.301
5295.37 145.711
5295.57 157.765
5295.77 170.418
5295.97 183.744
5296.17 197.535
5296.58 226.015
5296.98 254.964
5297.18 269.195
5297.38 282.961
5297.58 296.347
5297.78 308.952
5297.99 320.589
5298.19 331.032
5298.39 340.224
5298.60 347.966
5298.80 354.142
5299.00 358.644
5299.15 360.867
5299.30 362.160
5299.54 362.312
5299.78 360.075
5300.02 355.554
5300.25 348.941
5300.49 340.388
5300.73 330.163
5300.97 318.537
5301.21 305.849
5301.67 279.765
5302.12 252.587
5302.35 238.997
5302.57 225.720
5302.80 212.824
5303.02 200.412
5303.25 188.406
5303.48 177.032
5303.71 166.323
5303.94 156.337
5304.17 146.986
5304.40 138.337
5304.62 130.294
5304.85 122.895
5305.08 116.043
5305.31 109.758
5305.54 103.947
5305.77 98.6221
5306.00 93.6991
5306.22 89.1846
5306.45 85.0223
5306.68 81.1806
5306.87 78.2334
5307.05 75.4834
5307.24 72.9006
5307.43 70.4725
5307.80 66.0339
5308.18 62.0850
5308.55 58.5560
5308.92 55.3887
5309.30 52.5341
5309.67 49.9511
5310.13 47.1136
5310.59 44.5776
5311.04 42.3003
5311.50 40.2458
5311.96 38.3848
5312.41 36.6924
5312.87 35.1479
5313.33 33.7335
5313.83 32.3203
5314.33 31.0278
5314.83 29.8418
5315.32 28.7525
5315.82 27.7450
5316.32 26.8145
5316.82 25.9494
5317.32 25.1465
5318.23 23.8093
5319.15 22.6271
5320.06 21.5741
5320.97 20.6310
5321.89 19.7813
5322.80 19.0139
5323.72 18.3169
5324.63 17.6815
5325.55 17.0995
5326.46 16.5657
5327.37 16.0740
5328.29 15.6198
5330.12 14.8080
5331.95 14.1050
5333.44 13.5966
5334.94 13.1389
5336.43 12.7246
5337.93 12.3477
5339.43 12.0036
5340.92 11.6883
5343.91 11.1314
5345.74 10.8317
5347.57 10.5583
5351.23 10.0775
5354.88 9.66842
5358.54 9.31644
5362.86 8.95908
5367.18 8.65259
5371.51 8.38728
5375.83 8.15479
5379.48 7.97941
5383.14 7.82080
5390.45 7.54520
5397.77 7.31385
5405.08 7.11691
5412.39 6.94717
5419.71 6.79935
5427.02 6.66940
5434.33 6.55426
5447.63 6.37555
5460.93 6.22688
5474.23 6.10147
5487.52 5.99403
5508.80 5.85074
5519.44 5.78947
5530.08 5.73381
5540.71 5.68302
5551.35 5.63644
5561.99 5.59372
5572.63 5.55444
5577.61 5.53714
5582.60 5.52055
5587.59 5.50469
5592.57 5.48959
5597.56 5.47530
5602.55 5.46208
5605.04 5.45595
5607.53 5.45022
5610.03 5.44499
5612.52 5.44038
5615.18 5.43640
5617.17 5.43426
5619.17 5.43311
5621.16 5.43331
5623.16 5.43555
5625.15 5.44092
5626.15 5.44529
5627.15 5.45123
5628.14 5.45924
5629.14 5.47006
5630.14 5.48484
5631.14 5.50542
5631.80 5.52385
5632.47 5.54777
5633.13 5.57989
5633.46 5.60054
5633.80 5.62555
5634.13 5.65680
5634.46 5.69681
5634.79 5.75003
5635.13 5.82261
5635.29 5.86942
5635.46 5.92486
5635.62 5.99118
5635.79 6.07075
5635.96 6.16639
5636.12 6.28142
5636.29 6.41973
5636.45 6.58580
5636.60 6.75884
5636.75 6.95969
5636.89 7.19534
5637.04 7.46714
5637.18 7.78375
5637.33 8.14601
5637.47 8.56433
5637.62 9.03847
5637.76 9.58052
5637.91 10.1884
5637.98 10.5224
5638.06 10.8758
5638.13 11.2492
5638.20 11.6377
5638.27 12.0525
5638.35 12.4888
5638.42 12.9469
5638.49 13.4205
5638.56 13.9229
5638.64 14.4405
5638.71 14.9877
5638.78 15.5495
5638.86 16.1827
5638.94 16.8413
5639.09 18.2323
5639.25 19.7171
5639.41 21.2875
5639.56 22.9327
5639.72 24.6388
5640.03 28.1544
5640.36 31.9304
5640.53 33.7473
5640.69 35.4793
5640.91 37.5725
5641.02 38.5222
5641.13 39.3963
5641.24 40.2214
5641.36 40.9474
5641.47 41.5720
5641.59 42.0781
5641.71 42.4948
5641.89 42.8374
5642.00 42.9000
5642.17 42.7557
5642.26 42.5642
5642.35 42.2944
5642.45 41.9227
5642.55 41.4669
5642.65 40.9244
5642.74 40.3102
5642.93 38.9342
5643.11 37.3372
5643.25 36.0704
5643.38 34.7322
5643.64 31.8662
5644.07 27.0514
5644.28 24.6645
5644.49 22.3590
5644.60 21.2393
5644.71 20.1649
5644.81 19.1288
5644.92 18.1337
5645.02 17.1822
5645.13 16.2760
5645.24 15.4163
5645.34 14.6040
5645.45 13.8391
5645.55 13.1217
5645.66 12.4511
5645.77 11.8265
5645.87 11.2467
5645.98 10.7103
5646.08 10.2155
5646.19 9.76060
5646.31 9.27646
5646.44 8.84093
5646.56 8.45063
5646.68 8.10477
5646.81 7.79437
5646.93 7.51906
5647.06 7.27562
5647.18 7.06258
5647.30 6.87357
5647.43 6.70770
5647.55 6.56241
5647.67 6.43632
5647.80 6.32524
5647.92 6.22903
5648.05 6.14438
5648.17 6.07110
5648.42 5.95023
5648.66 5.85804
5648.91 5.78652
5649.16 5.73081
5649.41 5.68635
5649.65 5.65055
5650.15 5.59625
5650.71 5.55180
5651.28 5.51856
5651.85 5.49242
5652.41 5.47120
5652.98 5.45352
5653.54 5.43859
5654.67 5.41463
5655.80 5.39619
5656.93 5.38149
5658.07 5.36944
5659.20 5.35934
5660.96 5.34633
5662.73 5.33566
5664.50 5.32657
5666.27 5.31865
5668.03 5.31159
5669.80 5.30519
5671.57 5.29929
5673.34 5.29380
5676.87 5.28373
5680.41 5.27457
5683.94 5.26598
5687.47 5.25787
5690.59 5.25103
5693.70 5.24443
5699.92 5.23180
5706.14 5.21978
5712.36 5.20824
5718.58 5.19712
5724.80 5.18636
5737.24 5.16576
5749.12 5.14713
5761.00 5.12932
5772.87 5.11230
5784.75 5.09595
5808.50 5.06511
5832.25 5.03641
5866.19 4.99857
5900.12 4.96389
5934.05 4.93172
5967.99 4.90176
6013.23 4.86469
6058.47 4.83026
6148.96 4.76780
6248.50 4.70637
6298.27 4.67778
6348.04 4.65034
6397.80 4.62392
6447.57 4.59839
6472.46 4.58593
6497.34 4.57368
6522.22 4.56166
6547.11 4.54985
6565.21 4.54144
6583.30 4.53319
6601.40 4.52515
6619.50 4.51736
6630.81 4.51267
6642.12 4.50815
6653.43 4.50385
6664.74 4.49984
6676.05 4.49624
6687.36 4.49321
6698.68 4.49096
6704.33 4.49023
6709.99 4.48992
6715.08 4.49005
6720.17 4.49068
6725.26 4.49194
6730.35 4.49404
6735.44 4.49723
6740.53 4.50187
6745.62 4.50850
6750.71 4.51814
6755.51 4.53120
6757.92 4.53975
6760.32 4.55009
6762.72 4.56267
6765.13 4.57808
6767.53 4.59730
6769.93 4.62157
6772.62 4.65691
6773.96 4.67891
6775.31 4.70466
6776.65 4.73504
6777.99 4.77115
6779.34 4.81457
6780.68 4.86743
6781.46 4.90350
6782.24 4.94446
6783.01 4.99123
6783.79 5.04490
6784.57 5.10706
6785.35 5.17943
6786.12 5.26465
6786.90 5.36575
6787.36 5.43488
6787.82 5.51212
6788.28 5.59926
6788.74 5.69769
6789.20 5.81009
6789.66 5.93883
6790.12 6.08824
6790.58 6.26268
6790.95 6.42734
6791.32 6.61772
6791.69 6.84117
6792.06 7.10743
6792.43 7.43044
6792.62 7.61973
6792.80 7.83030
6792.99 8.06836
6793.18 8.33610
6793.36 8.64209
6793.55 8.98981
6793.74 9.41197
6793.94 9.89950
6794.13 10.4705
6794.23 10.7894
6794.32 11.1343
6794.42 11.5115
6794.52 11.9158
6794.62 12.3534
6794.71 12.8271
6794.81 13.3401
6794.91 13.8953
6795.00 14.4962
6795.10 15.1462
6795.20 15.8566
6795.30 16.6169
6795.39 17.4378
6795.49 18.3237
6795.59 19.2889
6795.69 20.3183
6795.78 21.4258
6795.88 22.6158
6795.98 23.9067
6796.07 25.2767
6796.17 26.7430
6796.27 28.3100
6796.37 29.9999
6796.46 31.7822
6796.56 33.6777
6796.66 35.6899
6796.79 38.6445
6796.92 41.8070
6797.06 45.2307
6797.19 48.8675
6797.32 52.7735
6797.45 56.8886
6797.59 61.2707
6797.72 65.8465
6797.91 72.9958
6798.11 80.5257
6798.30 88.4071
6798.49 96.5586
6798.88 113.309
6799.27 129.776
6799.47 137.578
6799.66 144.844
6799.86 151.505
6800.05 157.356
6800.24 162.306
6800.44 166.248
6800.55 167.972
6800.65 169.344
6800.76 170.352
6800.87 170.987
6801.00 171.264
6801.11 171.077
6801.22 170.521
6801.32 169.601
6801.43 168.324
6801.58 165.895
6801.73 162.811
6801.93 157.917
6802.13 152.125
6802.25 147.916
6802.38 143.444
6802.63 133.730
6802.88 123.302
6803.14 112.521
6803.53 95.7094
6803.72 87.5465
6803.92 79.6663
6804.04 74.7252
6804.17 69.9937
6804.30 65.4118
6804.42 61.0637
6804.55 56.8895
6804.68 52.9613
6804.80 49.2492
6804.93 45.7545
6805.06 42.4515
6805.18 39.3895
6805.31 36.5154
6805.43 33.8688
6805.56 31.4006
6805.69 29.1416
6805.81 27.0629
6805.94 25.1552
6806.07 23.3956
6806.19 21.8018
6806.32 20.3384
6806.45 19.0184
6806.57 17.8109
6806.70 16.7255
6806.82 15.7430
6806.95 14.8547
6807.08 14.0462
6807.20 13.3224
6807.33 12.6643
6807.46 12.0756
6807.58 11.5404
6807.71 11.0613
6807.84 10.6286
6807.96 10.2375
6808.09 9.88093
6808.21 9.56048
6808.34 9.26744
6808.47 9.00319
6808.59 8.76063
6808.72 8.54101
6808.97 8.15569
6809.23 7.82876
6809.48 7.54974
6809.73 7.30920
6809.98 7.10057
6810.21 6.93231
6810.44 6.78171
6810.90 6.52368
6811.36 6.30943
6811.82 6.12929
6812.28 5.97510
6812.74 5.84227
6813.20 5.72655
6813.66 5.62497
6814.26 5.51007
6814.85 5.41150
6815.45 5.32592
6816.05 5.25134
6816.65 5.18569
6817.24 5.12774
6818.44 5.03019
6819.45 4.96265
6820.46 4.90576
6821.47 4.85736
6822.48 4.81580
6823.49 4.77985
6824.50 4.74852
6826.52 4.69683
6828.36 4.65948
6830.20 4.62892
6832.04 4.60351
6833.88 4.58214
6835.71 4.56398
6837.55 4.54839
6841.23 4.52309
6844.35 4.50618
6847.48 4.49234
6850.60 4.48072
6853.73 4.47085
6859.98 4.45496
6866.22 4.44263
6872.11 4.43322
6877.99 4.42532
6883.87 4.41848
6889.75 4.41242
6895.63 4.40698
6901.51 4.40200
6908.87 4.39630
6916.22 4.39104
6923.57 4.38612
6930.92 4.38147
6941.95 4.37487
6952.98 4.36861
6964.00 4.36260
6975.03 4.35679
6997.09 4.34558
7019.14 4.33477
7041.20 4.32417
7063.25 4.31375
7085.31 4.30345
7107.36 4.29322
7129.42 4.28305
7151.47 4.27293
7195.59 4.25272
7239.70 4.23253
7283.81 4.21231
7372.03 4.17164
7460.25 4.13047
7589.64 4.06881
7654.34 4.03728
7719.04 4.00521
7783.73 3.97256
7848.43 3.93929
7913.12 3.90540
7945.47 3.88825
7977.82 3.87098
8001.34 3.85836
8024.87 3.84573
8048.40 3.83313
8071.92 3.82061
8095.45 3.80829
8118.97 3.79635
8130.74 3.79061
8142.50 3.78511
8154.26 3.77994
8166.02 3.77522
8181.46 3.77004
8189.18 3.76809
8196.90 3.76674
8204.62 3.76618
8212.34 3.76670
8220.06 3.76870
8227.78 3.77272
8235.50 3.77987
8243.22 3.79171
8247.08 3.80018
8250.94 3.81101
8254.80 3.82490
8258.66 3.84279
8262.70 3.86760
8266.74 3.90117
8268.77 3.92242
8270.79 3.94758
8272.81 3.97757
8274.83 4.01362
8277.22 4.06636
8279.61 4.13388
8280.81 4.17500
8282.00 4.22229
8283.20 4.27704
8284.39 4.34081
8286.04 4.44816
8286.87 4.51215
8287.70 4.58466
8288.53 4.66730
8289.35 4.76206
8290.18 4.87147
8291.01 4.99877
8292.02 5.18494
8292.52 5.29368
8293.03 5.41474
8293.53 5.55067
8294.04 5.70345
8294.54 5.87647
8295.05 6.07368
8295.49 6.26769
8295.92 6.48716
8296.36 6.73841
8296.80 7.02715
8297.23 7.36387
8297.45 7.55326
8297.67 7.75941
8297.89 7.98568
8298.11 8.23274
8298.32 8.50480
8298.54 8.80571
8298.79 9.19721
8299.05 9.64244
8299.30 10.1520
8299.55 10.7365
8299.68 11.0649
8299.81 11.4162
8299.93 11.7952
8300.06 12.2046
8300.18 12.6511
8300.31 13.1308
8300.44 13.6506
8300.56 14.2143
8300.69 14.8311
8300.82 15.4955
8300.94 16.2231
8301.07 17.0074
8301.20 17.8663
8301.32 18.7921
8301.45 19.8055
8301.57 20.8969
8301.70 22.0904
8301.83 23.3740
8301.95 24.7753
8302.08 26.2794
8302.21 27.9178
8302.33 29.6719
8302.46 31.5617
8302.59 33.5942
8302.75 36.4105
8302.91 39.4854
8303.07 42.8319
8303.23 46.4378
8303.39 50.3574
8303.55 54.5759
8303.71 59.0973
8303.87 63.8912
8304.00 67.9077
8304.12 72.0738
8304.25 76.4506
8304.38 80.9622
8304.63 90.4927
8304.88 100.529
8305.14 111.024
8305.39 121.736
8305.89 143.199
8306.15 153.504
8306.40 163.188
8306.65 172.007
8306.90 179.697
8307.05 183.567
8307.20 186.962
8307.34 189.849
8307.49 192.198
8307.62 193.807
8307.74 194.959
8307.87 195.659
8308.00 195.901
8308.17 195.521
8308.34 194.364
8308.50 192.445
8308.67 189.791
8308.81 186.980
8308.95 183.714
8309.09 179.976
8309.24 175.852
8309.38 171.288
8309.52 166.414
8309.80 155.813
8310.09 144.363
8310.37 132.451
8310.84 112.641
8311.07 102.980
8311.30 93.6439
8311.44 88.1360
8311.58 82.8095
8311.73 77.6807
8311.87 72.7630
8312.01 68.0666
8312.15 63.5990
8312.29 59.3646
8312.44 55.3656
8312.58 51.6016
8312.72 48.0704
8312.86 44.7678
8313.00 41.6882
8313.15 38.8245
8313.29 36.1685
8313.43 33.7113
8313.57 31.4432
8313.71 29.3541
8313.86 27.4337
8314.00 25.6714
8314.14 24.0567
8314.28 22.5794
8314.42 21.2293
8314.57 19.9966
8314.71 18.8795
8314.85 17.8534
8314.99 16.9179
8315.13 16.0653
8315.28 15.2879
8315.42 14.5790
8315.56 13.9322
8315.70 13.3414
8315.84 12.8051
8315.98 12.3106
8316.13 11.8575
8316.27 11.4417
8316.41 11.0594
8316.55 10.7075
8316.69 10.3828
8316.84 10.0826
8316.98 9.80471
8317.26 9.30700
8317.55 8.87500
8317.83 8.49706
8318.11 8.16391
8318.33 7.93187
8318.55 7.72037
8318.99 7.34585
8319.43 7.02550
8319.87 6.74905
8320.31 6.50715
8320.75 6.29479
8321.19 6.10623
8321.62 5.93858
8322.19 5.74678
8322.76 5.57917
8323.33 5.43170
8323.89 5.30139
8324.46 5.18520
8325.03 5.08147
8326.16 4.90405
8327.09 4.78301
8328.02 4.67919
8328.95 4.58938
8329.88 4.51111
8330.81 4.44244
8331.74 4.38182
8333.60 4.28003
8334.84 4.22369
8336.07 4.17466
8337.31 4.13170
8338.55 4.09387
8341.03 4.03042
8343.51 3.97958
8345.78 3.94117
8348.05 3.90883
8350.32 3.88130
8352.59 3.85765
8357.13 3.81912
8361.67 3.78918
8365.80 3.76727
8369.93 3.74897
8374.06 3.73341
8378.19 3.72001
8386.45 3.69793
8394.70 3.68026
8402.14 3.66690
8409.57 3.65529
8417.00 3.64490
8424.43 3.63545
8439.30 3.61856
8454.16 3.60350
8464.89 3.59337
8475.63 3.58371
8497.10 3.56522
8518.57 3.54752
8540.04 3.53026
8561.51 3.51325
8582.98 3.49632
8625.92 3.46250
8678.77 3.42039
8731.62 3.37733
8784.47 3.33306
8837.32 3.28739
8916.59 3.21589
9028.90 3.10751
9141.20 2.98936
9253.51 2.86019
9365.81 2.71778
9464.90 2.57900
9563.99 2.42609
9663.09 2.25734
9712.63 2.16590
9762.18 2.06933
9821.64 1.94599
9881.09 1.81401
9940.55 1.67274
10000.0 1.52140
10033.4 1.43153
10066.8 1.33819
10100.2 1.24141
10133.6 1.14121
10167.0 1.03761
10200.4 0.930617
10233.8 0.820802
10267.2 0.708651
10304.1 0.583002
10341.0 0.457546
10359.5 0.395731
10377.9 0.335112
10396.4 0.276419
10405.6 0.247970
10414.9 0.220265
10423.2 0.196009
10431.6 0.172592
10439.9 0.150127
10444.1 0.139274
10448.3 0.128739
10452.4 0.118486
10456.6 0.108572
10460.8 0.0989923
10465.0 0.0897866
10469.1 0.0809434
10473.3 0.0724874
10477.5 0.0644867
10481.7 0.0569755
10486.3 0.0492241
10490.9 0.0421246
10495.5 0.0356878
10500.1 0.0299852
10504.7 0.0250387
10509.3 0.0209193
10511.7 0.0191775
10514.0 0.0176572
10516.3 0.0163619
10518.6 0.0153073
10520.8 0.0145323
10523.0 0.0139942
10525.2 0.0136918
10527.4 0.0136336
10528.9 0.0137415
10530.4 0.0139754
10532.0 0.0143377
10533.5 0.0148312
10535.1 0.0154589
10536.6 0.0162240
10538.1 0.0171310
10539.7 0.0181773
10542.7 0.0207309
10545.8 0.0238702
10548.9 0.0276405
10552.0 0.0320524
10556.8 0.0404047
10559.2 0.0452523
10561.6 0.0505445
10564.1 0.0563409
10566.5 0.0626363
10568.9 0.0694474
10571.3 0.0767600
10573.7 0.0846526
10576.1 0.0931146
10578.6 0.102165
10581.0 0.111783
10583.4 0.122067
10585.8 0.132956
10588.2 0.144559
10590.6 0.156805
10593.1 0.169819
10595.5 0.183576
10597.9 0.198100
10600.3 0.213354
10602.7 0.229491
10605.1 0.246478
10607.6 0.264344
10610.0 0.283041
10612.4 0.302755
10614.8 0.323442
10617.2 0.345138
10619.6 0.367781
10622.1 0.391596
10624.5 0.416530
10626.9 0.442621
10629.3 0.469795
10631.7 0.498322
10634.2 0.528135
10636.6 0.559280
10639.0 0.591668
10641.4 0.625618
10643.8 0.660900
10646.2 0.697862
10648.6 0.736254
10651.1 0.776452
10653.5 0.818363
10655.9 0.862048
10658.3 0.907383
10660.7 0.954813
10663.1 1.00402
10665.6 1.05548
10668.0 1.10884
10670.4 1.16465
10672.8 1.22275
10677.6 1.34595
10682.5 1.47970
10687.3 1.62429
10692.2 1.78120
10697.0 1.95076
10701.8 2.13476
10706.7 2.33359
10711.5 2.54937
10716.3 2.78263
10721.2 3.03586
10726.0 3.30974
10730.8 3.60727
10735.7 3.92930
10740.5 4.27869
10745.3 4.65796
10750.2 5.07079
10755.0 5.51858
10759.8 6.00663
10764.7 6.53675
10769.5 7.11540
10774.3 7.74494
10779.2 8.43181
10784.0 9.18194
10788.8 10.0037
10793.7 10.9012
10798.5 11.8866
10800.9 12.4144
10803.3 12.9650
10805.8 13.5444
10808.2 14.1517
10810.6 14.7886
10813.0 15.4537
10815.4 16.1544
10817.8 16.8868
10820.3 17.6587
10822.7 18.4661
10825.1 19.3177
10827.5 20.2126
10829.9 21.1534
10832.3 22.1386
10834.8 23.1792
10837.2 24.2741
10839.6 25.4267
10842.0 26.6352
10844.4 27.9132
10846.8 29.2598
10849.3 30.6789
10851.7 32.1687
10854.1 33.7460
10856.5 35.4098
10858.9 37.1652
10861.3 39.0097
10863.8 40.9645
10866.2 43.0281
10868.6 45.2069
10871.0 47.4978
10873.4 49.9267
10875.8 52.4807
10878.3 55.1886
10880.7 58.0356
10883.1 61.0532
10885.5 64.2380
10887.9 67.5983
10890.3 71.1269
10892.8 74.8613
10895.2 78.7783
10897.6 82.9187
10900.0 87.2559
10903.0 92.8802
10905.9 98.8164
10908.9 105.111
10911.8 111.724
10914.8 118.693
10917.7 125.962
10920.7 133.536
10923.6 141.403
10929.5 157.779
10935.4 174.484
10941.4 191.041
10944.3 198.959
10947.3 206.489
10951.2 215.734
10955.1 223.794
10959.1 230.420
10963.0 235.402
10966.9 238.635
10970.9 240.054
10974.1 239.888
10977.3 238.597
10980.5 236.262
10983.7 232.985
10986.9 228.884
10990.1 224.084
10993.3 218.694
10996.5 212.825
11002.9 200.358
11009.3 187.359
11015.7 174.407
11018.9 168.086
11022.1 161.942
11026.4 153.980
11030.7 146.373
11034.9 139.138
11039.2 132.326
11043.5 125.919
11047.8 119.904
11052.1 114.267
11056.4 108.991
11059.7 105.189
11063.0 101.583
11069.5 94.9133
11076.1 88.8725
11082.6 83.4149
11089.2 78.4775
11095.8 74.0030
11102.3 69.9398
11108.9 66.2480
11116.5 62.3692
11124.1 58.8768
11131.7 55.7150
11139.2 52.8517
11146.8 50.2439
11154.4 47.8687
11162.0 45.6937
11169.6 43.7019
11177.2 41.8685
11184.8 40.1791
11192.4 38.6188
11200.0 37.1763
11207.6 35.8363
11215.2 34.5924
11222.8 33.4322
11230.4 32.3510
11238.0 31.3391
11245.6 30.3927
11260.8 28.6701
11276.0 27.1457
11291.1 25.7904
11302.2 24.8956
11309.8 24.3197
11317.4 23.7757
11325.0 23.2603
11332.6 22.7736
11336.4 22.5408
11340.2 22.3155
11344.0 22.0985
11347.8 21.8908
11351.4 21.7032
11353.2 21.6147
11355.0 21.5305
11356.8 21.4513
11358.7 21.3795
11360.5 21.3172
11362.3 21.2687
11363.0 21.2551
11363.9 21.2428
11364.8 21.2385
11365.7 21.2449
11366.6 21.2657
11367.5 21.3080
11368.0 21.3403
11368.4 21.3832
11368.9 21.4416
11369.3 21.5184
11369.8 21.6223
11370.2 21.7646
11370.5 21.8616
11370.7 21.9773
11370.9 22.1154
11371.2 22.2732
11371.4 22.4695
11371.6 22.7044
11371.9 22.9851
11372.1 23.3048
11372.4 23.7004
11372.6 24.1697
11372.8 24.7242
11373.1 25.3473
11373.3 26.1060
11373.5 26.9499
11373.7 27.4398
11373.8 27.9661
11374.0 29.0829
11374.1 29.7252
11374.2 30.4106
11374.4 31.1406
11374.5 31.9166
11374.6 32.7400
11374.7 33.6118
11374.8 34.5332
11375.0 35.4219
11375.1 36.4400
11375.2 37.5093
11375.3 38.6299
11375.4 39.8014
11375.6 41.0234
11375.7 42.2952
11375.9 44.8669
11376.1 46.7546
11376.2 48.5924
11376.5 52.4421
11376.8 56.4755
11377.1 60.6213
11377.5 66.5874
11378.0 72.3185
11378.2 75.2987
11378.5 78.0521
11378.7 80.5253
11378.9 82.5862
11379.1 83.9619
11379.3 85.0535
11379.5 86.0201
11379.6 86.6774
11379.8 87.0749
11380.0 87.2076
11380.2 87.0425
11380.4 86.5832
11380.5 86.0163
11380.7 85.2745
11380.8 84.3640
11381.0 83.2924
11381.2 81.7179
11381.4 79.9200
11381.7 76.9126
11381.9 73.5516
11382.2 69.5229
11382.5 65.4253
11383.1 57.4761
11383.4 53.6507
11383.7 49.9640
11383.9 47.1979
11384.1 44.5682
11384.3 42.0897
11384.5 39.8747
11384.7 38.7754
11384.8 37.7187
11384.9 36.7048
11385.0 35.7338
11385.1 34.8055
11385.2 33.9196
11385.4 32.3442
11385.6 31.2435
11385.7 30.2870
11385.9 29.3442
11386.0 28.5299
11386.2 27.7317
11386.3 27.0460
11386.5 26.3774
11386.7 25.8058
11386.8 25.2510
11387.0 24.7787
11387.1 24.3220
11387.3 23.9345
11387.4 23.5611
11387.6 23.2451
11387.9 22.7009
11388.2 22.2433
11388.5 21.8724
11388.8 21.5711
11389.1 21.3326
11389.4 21.1296
11389.7 20.9615
11390.0 20.8208
11390.3 20.7051
11391.0 20.5130
11391.6 20.3664
11392.2 20.2453
11392.8 20.1448
11393.4 20.0630
11393.9 19.9911
11395.1 19.8649
11396.2 19.7569
11397.3 19.6617
11398.5 19.5757
11399.6 19.4969
11400.7 19.4236
11401.8 19.3551
11404.1 19.2270
11406.4 19.1084
11408.6 18.9967
11410.9 18.8908
11413.1 18.7885
11415.4 18.6896
11419.9 18.5001
11423.2 18.3672
11426.5 18.2385
11433.0 17.9903
11439.6 17.7527
11446.2 17.5248
11457.7 17.1451
11469.1 16.7876
11480.6 16.4501
11492.1 16.1302
11504.4 15.8055
11516.8 15.4982
11541.4 14.9313
11566.0 14.4175
11590.6 13.9513
11626.7 13.3406
11662.9 12.8028
11699.0 12.3256
11735.1 11.8998
11769.6 11.5352
11804.0 11.2032
11838.5 10.9022
11873.0 10.6256
11907.5 10.3716
11941.9 10.1390
12010.9 9.72288
12083.1 9.34864
12155.4 9.02396
12227.6 8.73931
12299.8 8.48789
12362.2 8.29351
12424.6 8.11686
12549.4 7.80710
12674.1 7.54405
12798.9 7.31684
12943.4 7.09045
13087.8 6.89396
13232.3 6.72110
13376.8 6.56727
13665.7 6.30339
13954.6 6.08052
14112.2 5.97118
14197.6 5.91472
14283.0 5.85971
14368.3 5.80607
14411.0 5.77968
14453.7 5.75354
14499.7 5.72565
14522.6 5.71180
14545.6 5.69804
14568.6 5.68434
14591.6 5.67079
14603.1 5.66408
14614.6 5.65744
14626.1 5.65090
14637.5 5.64449
14645.3 5.64026
14653.1 5.63617
14660.9 5.63228
14668.7 5.62869
14676.5 5.62556
14680.4 5.62424
14684.3 5.62316
14688.2 5.62237
14692.1 5.62196
14696.0 5.62213
14699.9 5.62310
14703.2 5.62479
14706.5 5.62760
14709.8 5.63205
14713.1 5.63891
14714.7 5.64366
14716.4 5.64956
14718.0 5.65702
14719.6 5.66655
14721.3 5.67890
14722.9 5.69515
14724.6 5.71699
14726.2 5.74732
14727.2 5.77150
14728.1 5.80213
14729.1 5.84327
14730.1 5.90072
14730.6 5.94005
14731.1 5.99008
14731.6 6.05542
14732.0 6.14078
14732.5 6.25933
14733.0 6.42335
14733.3 6.53045
14733.5 6.65189
14733.8 6.79480
14734.0 6.96283
14734.2 7.16895
14734.5 7.40140
14734.7 7.68501
14735.0 8.00277
14735.2 8.38754
14735.5 8.81499
14735.7 9.30587
14735.9 9.86677
14736.2 10.5326
14736.4 11.2567
14736.7 12.1061
14736.9 13.0183
14737.2 14.0743
14737.4 15.1932
14737.7 16.4169
14737.9 17.7459
14738.1 19.2403
14738.4 20.7767
14738.6 22.4763
14738.9 24.1940
14739.1 26.0606
14739.4 27.9123
14739.8 31.7216
14740.4 36.1593
14740.7 38.2882
14741.0 40.3041
14741.3 42.2303
14741.5 43.8939
14741.8 45.0419
14742.0 46.0326
14742.3 47.0443
14742.5 47.7553
14742.7 48.0200
14742.9 48.1788
14743.0 48.2306
14743.3 48.1073
14743.4 47.8918
14743.6 47.5717
14743.7 47.1195
14743.9 46.5921
14744.1 45.9282
14744.2 45.2107
14744.5 43.6994
14744.8 41.9478
14745.1 40.3451
14745.3 38.6301
14745.8 35.0422
14746.5 29.3991
14746.8 26.6712
14747.2 24.0564
14747.4 22.7705
14747.5 21.5310
14747.7 20.3420
14747.9 19.2683
14748.1 18.1859
14748.2 17.1611
14748.4 16.1949
14748.6 15.3366
14748.8 14.4850
14749.0 13.6916
14749.1 12.9550
14749.3 12.3103
14749.5 11.6796
14749.7 11.1312
14749.8 10.5983
14750.0 10.1377
14750.2 9.62268
14750.4 9.16322
14750.6 8.75489
14750.8 8.40955
14751.0 8.08854
14751.3 7.80610
14751.5 7.55829
14751.7 7.35111
14751.9 7.16050
14752.1 6.99434
14752.3 6.84971
14752.5 6.72953
14752.9 6.52808
14753.3 6.37471
14753.7 6.25491
14754.1 6.16495
14754.6 6.09462
14755.0 6.03878
14755.4 5.99263
14755.8 5.95561
14756.6 5.89801
14757.6 5.84894
14758.5 5.81190
14759.5 5.78218
14760.4 5.75818
14761.3 5.73801
14762.3 5.72117
14764.2 5.69430
14766.1 5.67376
14767.9 5.65764
14769.8 5.64467
14771.7 5.63409
14773.8 5.62417
14776.0 5.61592
14778.1 5.60887
14780.2 5.60275
14784.5 5.59259
14788.7 5.58444
14792.5 5.57831
14796.2 5.57297
14800.0 5.56820
14803.8 5.56390
14811.3 5.55620
14818.9 5.54934
14826.4 5.54306
14834.0 5.53718
14841.5 5.53159
14849.1 5.52622
14865.1 5.51526
14881.2 5.50472
14897.2 5.49443
14913.3 5.48431
14929.3 5.47430
14945.4 5.46435
14977.4 5.44455
15009.5 5.42479
15041.6 5.40502
15105.8 5.36516
15196.4 5.30773
15279.4 5.25332
15362.5 5.19665
15445.5 5.13706
15528.5 5.07370
15611.6 5.00542
15694.6 4.93090
15777.7 4.84837
15860.7 4.75529
15958.8 4.62650
16007.9 4.55199
16057.0 4.46869
16098.5 4.38974
16140.0 4.30129
16181.5 4.20123
16223.1 4.08664
16251.4 3.99814
16279.7 3.89943
16308.0 3.78877
16336.3 3.66308
16357.1 3.55951
16377.8 3.44452
16398.6 3.31599
16419.3 3.17132
16438.2 3.02298
16457.1 2.85563
16466.5 2.76357
16476.0 2.66532
16485.4 2.56015
16494.8 2.44765
16505.2 2.31373
16515.6 2.16864
16526.0 2.01103
16536.4 1.83960
16541.6 1.74830
16546.7 1.65307
16551.9 1.55378
16557.1 1.45035
16562.3 1.34272
16567.5 1.23093
16572.7 1.11513
16577.9 0.995864
16585.9 0.805110
16593.9 0.611142
16597.9 0.515028
16601.9 0.421311
16604.0 0.375887
16606.0 0.332150
16608.0 0.290049
16610.0 0.250445
16611.6 0.220754
16613.2 0.193328
16614.7 0.168316
16616.3 0.146115
16617.9 0.127182
16619.5 0.112053
16620.3 0.106068
16621.1 0.101339
16621.9 0.0978350
16622.7 0.0957407
16623.2 0.0951420
16623.8 0.0952502
16624.3 0.0960819
16624.8 0.0976728
16625.2 0.0993500
16625.6 0.101414
16626.0 0.103989
16626.4 0.106958
16627.1 0.114435
16627.9 0.123846
16628.4 0.131838
16629.0 0.140796
16629.5 0.150912
16630.0 0.162243
16631.1 0.188793
16632.1 0.220966
16633.2 0.259339
16634.3 0.304552
16635.3 0.357322
16636.4 0.418440
16637.5 0.493070
16638.6 0.579173
16639.2 0.626930
16639.7 0.678057
16640.3 0.732745
16640.9 0.791196
16641.4 0.853623
16642.0 0.920256
16642.5 0.991337
16643.1 1.06713
16643.7 1.14791
16644.2 1.23396
16644.8 1.32562
16645.3 1.42320
16646.0 1.54438
16646.6 1.67463
16647.3 1.81461
16647.9 1.96500
16648.6 2.12656
16649.2 2.30011
16649.9 2.48653
16650.5 2.68676
16651.2 2.90185
16651.8 3.13293
16652.5 3.38120
16653.1 3.64799
16653.8 3.93475
16654.4 4.24305
16655.1 4.57458
16655.7 4.92553
16656.4 5.30886
16657.0 5.72149
16657.7 6.16584
16658.3 6.63689
16659.0 7.15220
16659.6 7.70782
16660.3 8.30718
16660.9 8.94368
16661.6 9.64127
16662.2 10.3948
16662.9 11.2093
16663.5 12.0899
16664.2 13.0425
16664.8 14.0735
16665.5 15.1898
16666.1 16.3988
16666.8 17.7086
16667.4 19.1282
16668.1 20.6668
16668.7 22.3079
16669.4 24.1134
16670.0 26.0702
16670.7 28.1901
16671.3 30.4487
16672.0 33.0883
16672.7 35.9116
16673.3 38.9695
16674.0 42.2753
16674.7 45.8955
16675.4 49.7351
16676.1 53.8512
16676.8 58.2469
16677.3 61.7956
16677.8 65.5033
16678.3 69.3640
16678.8 73.2911
16679.9 81.5998
16680.9 90.3039
16681.9 99.2261
16682.9 108.139
16684.0 116.773
16684.5 120.933
16685.0 124.833
16685.8 130.168
16686.5 134.931
16687.3 139.024
16688.0 142.365
16688.6 144.366
16689.1 145.858
16689.7 146.875
16690.3 147.415
16690.8 147.484
16691.4 147.094
16691.9 146.273
16692.5 145.049
16693.1 143.421
16693.6 141.484
16694.8 136.756
16695.9 131.102
16697.0 124.928
16698.1 118.398
16699.3 111.854
16700.0 107.520
16700.8 103.050
16701.6 98.7121
16702.4 94.5317
16703.2 90.5759
16703.9 86.7539
16704.7 83.1223
16705.5 79.6818
16706.3 76.4697
16707.1 73.3986
16707.9 70.5042
16708.7 67.7784
16709.5 65.2442
16710.2 62.8280
16711.0 60.5541
16711.8 58.4138
16712.6 56.4232
16714.2 52.7319
16715.8 49.4669
16717.3 46.5333
16718.9 43.9227
16720.5 41.5624
16722.1 39.4484
16723.6 37.5363
16725.2 35.8012
16726.8 34.2123
16728.3 32.7712
16729.9 31.4438
16731.5 30.2330
16733.1 29.1115
16734.6 28.0833
16736.2 27.1320
16737.8 26.2500
16739.6 25.2852
16741.5 24.3981
16743.4 23.5804
16745.2 22.8248
16747.1 22.1249
16748.9 21.4749
16752.7 20.3048
16755.8 19.4299
16759.0 18.6452
16762.1 17.9381
16765.3 17.3001
16768.4 16.7183
16771.5 16.1890
16774.7 15.7028
16777.8 15.2575
16781.0 14.8458
16784.1 14.4652
16790.4 13.7859
16796.7 13.1957
16803.0 12.6802
16808.5 12.2842
16813.9 11.9282
16819.3 11.6043
16824.8 11.3098
16830.2 11.0403
16835.6 10.7935
16846.5 10.3564
16859.1 9.92718
16871.7 9.56302
16884.3 9.25022
16896.9 8.97868
16911.7 8.70062
16926.6 8.46024
16941.5 8.25063
16956.4 8.06546
16981.5 7.79743
17006.7 7.57414
17031.9 7.38514
17057.1 7.22311
17093.7 7.02492
17112.0 6.93933
17130.3 6.86135
17144.1 6.80732
17157.8 6.75710
17171.5 6.71053
17185.2 6.66773
17195.5 6.63837
17205.8 6.61186
17216.1 6.58907
17221.3 6.57957
17226.4 6.57179
17230.2 6.56753
17233.9 6.56471
17237.6 6.56373
17241.3 6.56528
17245.0 6.57025
17248.8 6.57998
17252.5 6.59665
17256.2 6.62372
17257.9 6.64141
17259.6 6.66364
17261.4 6.69179
17263.1 6.72756
17264.8 6.77415
17266.5 6.83521
17268.2 6.91818
17269.9 7.03352
17270.7 7.10320
17271.5 7.18761
17272.3 7.29181
17273.1 7.42163
17273.9 7.59223
17274.3 7.69924
17274.7 7.82101
17275.1 7.96790
17275.4 8.13755
17275.8 8.33932
17276.2 8.58049
17276.7 8.90256
17276.9 9.09439
17277.1 9.29710
17277.3 9.53220
17277.5 9.78053
17277.7 10.0683
17277.9 10.3717
17278.2 10.7226
17278.4 11.0917
17278.6 11.5172
17278.8 11.9632
17279.0 12.4754
17279.2 13.0099
17279.5 13.6206
17279.7 14.2546
17279.9 15.1469
17280.2 16.1301
17280.5 17.2076
17280.7 18.3818
17281.0 19.6539
17281.3 21.0232
17281.6 22.4875
17281.8 23.9832
17282.2 26.4342
17282.6 28.9725
17283.0 31.6184
17283.4 34.3232
17283.9 37.5784
17284.3 40.6549
17284.7 43.0916
17285.1 45.2948
17285.5 47.1956
17285.7 48.0326
17285.9 48.7320
17286.1 49.4177
17286.3 49.9632
17286.5 50.3621
17286.7 50.6021
17287.0 50.7051
17287.3 50.5137
17287.7 49.9793
17287.9 49.4107
17288.1 48.7231
17288.4 47.8624
17288.6 46.9126
17288.8 45.7987
17289.0 44.5735
17289.3 43.2508
17289.5 41.9075
17289.9 38.9766
17290.4 35.8909
17291.1 31.2347
17291.4 28.9949
17291.7 26.8317
17291.9 25.3822
17292.2 23.9884
17292.4 22.6557
17292.6 21.4419
17292.9 20.2395
17293.1 19.1072
17293.3 18.0460
17293.5 17.0973
17293.8 16.2130
17294.0 15.3918
17294.2 14.6318
17294.4 13.9615
17294.6 13.3146
17294.8 12.7216
17295.1 12.1795
17295.3 11.7067
17295.5 11.2551
17295.7 10.8451
17295.9 10.4735
17296.1 10.1519
17296.4 9.84680
17296.6 9.57139
17296.8 9.32301
17297.0 9.10879
17297.4 8.78757
17297.7 8.52340
17298.1 8.29903
17298.4 8.10793
17298.8 7.94024
17299.1 7.80050
17299.8 7.57488
17300.5 7.40019
17301.2 7.26525
17301.9 7.15669
17302.6 7.06744
17304.0 6.93509
17305.3 6.83659
17306.6 6.75946
17307.9 6.69837
17309.3 6.64817
17310.6 6.60682
17313.2 6.54219
17316.1 6.49124
17318.9 6.45255
17321.7 6.42185
17324.5 6.39686
17327.3 6.37583
17330.1 6.35789
17332.9 6.34225
17335.7 6.32839
17339.1 6.31383
17342.4 6.30083
17349.0 6.27801
17355.6 6.25821
17362.2 6.24051
17368.9 6.22432
17375.5 6.20926
17382.1 6.19506
17388.7 6.18156
17402.6 6.15499
17416.5 6.13016
17430.4 6.10671
17444.3 6.08440
17472.1 6.04253
17499.9 6.00369
17529.1 5.96568
17558.2 5.93004
17616.5 5.86473
17672.1 5.80859
17727.7 5.75740
17783.3 5.71035
17838.9 5.66680
17934.3 5.59907
18029.6 5.53819
18125.0 5.48277
18220.3 5.43179
18347.4 5.36942
18474.5 5.31209
18728.8 5.20844
18961.8 5.12242
19194.9 5.04182
19428.0 4.96453
19661.0 4.88890
20000.0 4.77863
20400.5 4.64125
20600.8 4.56578
20801.0 4.48208
20987.0 4.39170
21079.9 4.33922
21172.9 4.27929
21273.0 4.20236
21323.1 4.15686
21373.1 4.10477
21408.9 4.06224
21444.7 4.01403
21480.4 3.95837
21516.2 3.89312
21535.8 3.85179
21555.5 3.80570
21575.2 3.75376
21594.8 3.69467
21611.8 3.63645
21628.8 3.56997
21645.8 3.49316
21662.8 3.40341
21672.6 3.34381
21682.5 3.27755
21692.3 3.20332
21702.1 3.11954
21712.0 3.02405
21721.8 2.91440
21731.6 2.78686
21736.5 2.71500
21741.5 2.63697
21747.7 2.52699
21754.0 2.40355
21760.2 2.26336
21763.4 2.18603
21766.5 2.10354
21771.4 1.96117
21773.9 1.88371
21776.3 1.80164
21778.8 1.71461
21781.2 1.62226
21783.7 1.52423
21786.2 1.42018
21788.6 1.30981
21791.1 1.19293
21793.5 1.06955
21796.0 0.940542
21798.4 0.805778
21800.9 0.667693
21803.4 0.529930
21804.6 0.463088
21805.8 0.399702
21806.7 0.354360
21807.7 0.313080
21808.6 0.276560
21809.5 0.246323
21810.4 0.224129
21811.4 0.212973
21811.8 0.212399
21812.3 0.215791
21812.7 0.223705
21813.2 0.236777
21813.9 0.266574
21814.5 0.311567
21815.2 0.375065
21815.9 0.461157
21816.2 0.513373
21816.5 0.572997
21816.8 0.636465
21817.2 0.707905
21817.5 0.788131
21817.8 0.878049
21818.1 0.978662
21818.4 1.09108
21818.7 1.21655
21819.0 1.35169
21819.3 1.50698
21819.6 1.67984
21819.9 1.87212
21820.2 2.07863
21820.5 2.31533
21820.9 2.57817
21821.2 2.86987
21821.5 3.18244
21821.8 3.57643
21822.1 4.00344
21822.3 4.24208
21822.5 4.49427
21822.6 4.76072
21822.8 5.02516
21823.0 5.32135
21823.1 5.63398
21823.3 5.96383
21823.5 6.29074
21823.6 6.65637
21823.8 7.01843
21824.0 7.42303
21824.1 7.82332
21824.3 8.24328
21824.4 8.65552
21824.6 9.11573
21824.8 9.56704
21824.9 10.0703
21825.1 10.5634
21825.2 11.1126
21825.4 11.6500
21825.5 12.2479
21825.7 12.8322
21826.0 14.1150
21826.3 15.5032
21826.6 16.9508
21826.9 18.5576
21827.2 20.2800
21827.5 22.1197
21827.8 24.0121
21828.1 26.0829
21828.4 28.1963
21828.8 30.4898
21829.1 32.8104
21829.3 35.1419
21829.6 37.5530
21830.2 42.5771
21831.4 53.0086
21832.1 59.5241
21832.8 65.6300
21833.2 68.5195
21833.5 71.2254
21833.9 73.7157
21834.2 75.9024
21834.6 78.0374
21835.0 79.8276
21835.4 81.2830
21835.8 82.3159
21836.2 82.9601
21836.6 83.2153
21837.0 83.0889
21837.4 82.5946
21837.7 81.7525
21838.1 80.5880
21838.5 79.1309
21838.9 77.4146
21839.3 75.3698
21839.7 73.1207
21840.5 68.2439
21841.4 63.0527
21842.2 57.8208
21843.0 52.6420
21843.8 47.8627
21844.2 45.6297
21844.6 43.5105
21845.0 41.5084
21845.5 39.6241
21845.9 37.8563
21846.3 36.2022
21846.7 34.6577
21847.1 33.2177
21847.5 31.8766
21847.9 30.6285
21848.3 29.4673
21848.7 28.3868
21849.4 26.7567
21850.1 25.3268
21850.8 24.0493
21851.4 22.9044
21852.1 21.8600
21852.8 20.9318
21853.4 20.0907
21854.1 19.3258
21854.9 18.4796
21855.8 17.7192
21856.6 17.0325
21857.4 16.4098
21858.2 15.8426
21859.0 15.3242
21859.9 14.8486
21860.7 14.4109
21861.6 13.9690
21862.5 13.5673
21863.4 13.1925
21864.3 12.8497
21866.0 12.2324
21867.8 11.6960
21869.5 11.2604
21871.1 10.8743
21872.8 10.5277
21874.4 10.2150
21876.1 9.92983
21877.7 9.67186
21879.3 9.43605
21881.0 9.21969
21884.3 8.83544
21887.5 8.50689
21890.8 8.22122
21894.1 7.97209
21896.8 7.78997
21899.5 7.62545
21904.9 7.33773
21910.2 7.09495
21915.6 6.88751
21922.2 6.67144
21928.7 6.48803
21935.3 6.33036
21941.9 6.19334
21949.6 6.05290
21957.4 5.93119
21965.2 5.82481
21972.9 5.73085
21986.0 5.59410
21999.2 5.47976
22012.3 5.38244
22025.4 5.29860
22038.6 5.22539
22051.7 5.16090
22078.0 5.05208
22104.3 4.96331
22130.5 4.88903
22156.8 4.82558
22183.0 4.77046
22221.3 4.70149
22259.5 4.64258
22297.7 4.59098
22335.9 4.54502
22402.7 4.47455
22469.6 4.41300
22603.3 4.30661
22718.0 4.22564
22832.6 4.14953
22947.2 4.07568
23061.8 4.00215
23176.4 3.92754
23281.5 3.85701
23386.6 3.78339
23491.7 3.70553
23596.7 3.62192
23701.8 3.53027
23754.3 3.48043
23806.9 3.42708
23852.2 3.37736
23897.6 3.32338
23943.0 3.26364
23988.4 3.19585
24014.6 3.15132
24040.9 3.10143
24067.2 3.04424
24093.4 2.97667
24112.5 2.91818
24131.6 2.84849
24150.7 2.76313
24160.3 2.71208
24169.8 2.65381
24181.2 2.57262
24192.5 2.47457
24198.2 2.41747
24203.9 2.35382
24209.5 2.28262
24215.2 2.20234
24221.8 2.09587
24225.1 2.03638
24228.3 1.97252
24231.6 1.90357
24234.9 1.82968
24238.2 1.75054
24241.5 1.66629
24246.6 1.52751
24251.6 1.38642
24254.2 1.32079
24255.4 1.29128
24256.7 1.26528
24258.0 1.24411
24259.2 1.22955
24260.5 1.22390
24261.8 1.23017
24262.7 1.24556
24263.7 1.27274
24264.7 1.31479
24265.2 1.34289
24265.7 1.37564
24266.1 1.41508
24266.6 1.46036
24267.1 1.51427
24267.6 1.57559
24268.1 1.64805
24268.6 1.73002
24269.1 1.82648
24269.5 1.93523
24270.1 2.09411
24270.7 2.28283
24271.0 2.39007
24271.3 2.50692
24271.6 2.63425
24271.9 2.76820
24272.2 2.91901
24272.5 3.08339
24272.8 3.26258
24273.1 3.45115
24273.4 3.66354
24273.7 3.89512
24274.0 4.14764
24274.3 4.41340
24274.5 4.62019
24274.7 4.82911
24274.9 5.06178
24275.1 5.29679
24275.3 5.55846
24275.5 5.82268
24275.7 6.11676
24275.9 6.41358
24276.2 6.74379
24276.4 7.07688
24276.6 7.44719
24276.8 7.82047
24277.0 8.23514
24277.2 8.65275
24277.4 9.11622
24277.6 9.58250
24277.8 10.0994
24278.0 10.6454
24278.2 11.2219
24278.4 11.8002
24278.6 12.4395
24278.8 13.0799
24279.0 13.7865
24279.2 14.4931
24279.4 15.2713
24279.6 16.0478
24279.9 16.9012
24280.1 17.7510
24280.3 18.6827
24280.5 19.6082
24280.9 21.6233
24281.1 22.9303
24281.4 24.2407
24281.6 25.6053
24281.8 27.0232
24282.3 30.0783
24282.8 33.2664
24283.3 36.6259
24283.8 40.1275
24284.7 47.4030
24285.5 53.4401
24286.3 59.1843
24286.7 61.8947
24287.1 64.4540
24287.5 66.8312
24287.9 68.9971
24288.4 71.7284
24288.7 72.9004
24289.0 73.8834
24289.4 75.0968
24289.9 75.9403
24290.3 76.4083
24290.7 76.5027
24291.2 76.2324
24291.6 75.6319
24292.0 74.6940
24292.4 73.4564
24292.9 71.9504
24293.3 70.2535
24293.7 68.4142
24294.1 66.4770
24294.9 62.2445
24296.5 53.3689
24297.3 48.9798
24298.1 44.9014
24298.6 42.9591
24299.0 41.1510
24299.4 39.3900
24299.8 37.7635
24300.2 35.9308
24300.7 34.2257
24301.2 32.6438
24301.7 31.2089
24302.2 29.8534
24302.6 28.6017
24303.1 27.4466
24303.6 26.4019
24304.0 25.5551
24304.4 24.7824
24305.2 23.3642
24306.0 22.1180
24306.8 21.0188
24307.6 20.0450
24308.4 19.1784
24309.3 18.4038
24310.1 17.7085
24311.2 16.8158
24312.4 16.0425
24313.6 15.3676
24314.8 14.7796
24316.0 14.2556
24317.1 13.7904
24318.3 13.3755
24319.5 13.0071
24320.5 12.7138
24321.5 12.4461
24323.6 11.9774
24325.7 11.5835
24327.7 11.2511
24329.8 10.9701
24331.8 10.7322
24333.9 10.5314
24336.0 10.3626
24339.5 10.1369
24343.0 9.98100
24346.6 9.88393
24350.1 9.83875
24353.3 9.83896
24356.6 9.87675
24359.8 9.95096
24363.1 10.0613
24366.3 10.2085
24369.5 10.3937
24372.8 10.6192
24376.0 10.8879
24379.3 11.2038
24382.5 11.5718
24385.7 11.9980
24389.0 12.4884
24392.2 13.0551
24395.4 13.7082
24398.7 14.4613
24400.3 14.8806
24401.9 15.3285
24404.1 15.9992
24406.3 16.7414
24408.5 17.5640
24410.8 18.4774
24413.0 19.4942
24415.2 20.6290
24417.4 21.8987
24419.6 23.3154
24421.2 24.4688
24422.8 25.7266
24424.4 27.0999
24426.1 28.6010
24427.7 30.2436
24429.3 32.0425
24430.9 34.0142
24432.5 36.1621
24434.2 38.5623
24435.8 41.1798
24437.4 44.0669
24439.1 47.2075
24440.7 50.6573
24442.3 54.3868
24444.0 58.4222
24445.6 62.7587
24447.7 68.7864
24449.8 75.1641
24454.0 88.3527
24456.1 94.6504
24457.2 97.5488
24458.2 100.225
24459.3 102.628
24460.3 104.711
24461.4 106.430
24462.4 107.746
24463.7 108.769
24465.0 109.104
24466.1 108.855
24467.1 108.147
24468.2 106.997
24469.2 105.431
24470.3 103.464
24471.3 101.175
24472.4 98.5944
24473.4 95.7708
24475.5 89.5631
24477.6 82.9918
24479.7 76.3526
24481.8 69.8936
24483.8 64.0383
24485.8 58.6204
24486.9 56.0538
24487.9 53.6279
24488.9 51.3166
24489.9 49.1186
24490.9 47.0113
24491.9 45.0333
24492.9 43.1593
24493.9 41.3854
24494.9 39.6907
24495.9 38.1043
24496.9 36.6043
24497.9 35.1862
24498.9 33.7805
24500.0 32.4550
24501.0 31.2050
24502.1 30.0367
24503.1 28.9232
24504.2 27.8817
24505.2 26.8882
24506.2 25.9580
24508.3 24.2293
24510.4 22.6872
24512.5 21.3012
24514.6 20.0523
24516.7 18.9190
24518.8 17.8979
24520.9 16.9708
24523.0 16.1271
24525.1 15.3574
24527.2 14.6536
24529.3 14.0086
24531.3 13.4163
24534.4 12.6352
24537.4 11.9428
24540.5 11.3243
24543.5 10.7695
24546.6 10.2677
24549.6 9.81551
24552.6 9.40538
24555.7 9.03238
24559.9 8.57120
24564.1 8.16369
24568.2 7.80010
24572.4 7.47573
24576.6 7.18370
24580.8 6.92098
24585.0 6.68311
24589.2 6.46697
24593.3 6.26944
24597.5 6.08922
24601.7 5.92348
24605.9 5.77135
24614.3 5.50082
24622.6 5.26862
24630.6 5.07582
24638.6 4.90552
24646.6 4.75442
24654.6 4.61969
24662.6 4.49850
24670.5 4.38912
24678.5 4.28963
24686.5 4.19888
24703.3 4.03166
24720.0 3.88944
24736.7 3.76628
24753.4 3.65799
24768.7 3.56998
24783.9 3.48970
24814.3 3.34732
24844.7 3.22310
24875.1 3.11153
24911.6 2.98930
24948.2 2.87569
25021.2 2.66297
25094.2 2.45737
25167.2 2.24942
25234.1 2.05080
25301.1 1.84032
25334.5 1.72961
25368.0 1.61451
25401.5 1.49475
25434.9 1.37030
25477.5 1.20423
25520.1 1.03023
25562.7 0.848580
25605.3 0.661714
25634.2 0.534070
25663.1 0.408604
25677.6 0.347826
25692.0 0.289125
25699.3 0.260815
25706.5 0.233443
25713.7 0.207043
25720.9 0.181841
25729.3 0.154307
25737.7 0.128874
25741.9 0.117037
25746.0 0.105888
25750.2 0.0954475
25754.4 0.0857711
25758.6 0.0768970
25762.8 0.0689308
25766.9 0.0619176
25771.1 0.0559292
25775.3 0.0510327
25779.5 0.0473320
25783.7 0.0448833
25787.9 0.0437534
25792.0 0.0440934
25796.2 0.0460599
25800.4 0.0497566
25804.6 0.0552758
25808.8 0.0627793
25813.0 0.0723786
25817.1 0.0842477
25821.3 0.0985576
25825.5 0.115536
25829.7 0.135302
25833.9 0.158106
25838.1 0.184180
25842.2 0.213851
25846.4 0.247248
25850.6 0.284730
25854.8 0.326616
25856.9 0.349428
25859.0 0.373367
25861.1 0.398586
25863.2 0.425134
25865.3 0.453201
25867.3 0.482572
25869.4 0.513435
25871.5 0.545848
25873.6 0.580039
25875.7 0.615746
25877.8 0.653194
25879.9 0.692453
25882.0 0.733594
25884.1 0.776695
25886.2 0.821833
25888.3 0.869090
25890.4 0.918794
25892.4 0.970563
25894.5 1.02472
25896.6 1.08137
25898.7 1.14060
25900.8 1.20254
25902.9 1.26728
25905.0 1.33495
25907.1 1.40601
25909.2 1.47992
25911.3 1.55714
25913.4 1.63782
25915.4 1.72209
25917.5 1.81012
25919.6 1.90207
25921.7 1.99809
25923.8 2.09887
25925.9 2.20363
25928.0 2.31303
25930.1 2.42727
25932.2 2.54716
25934.3 2.67178
25936.4 2.80192
25938.5 2.93783
25940.6 3.08045
25942.6 3.22872
25944.7 3.38357
25946.8 3.54531
25948.9 3.71425
25951.0 3.89072
25953.1 4.07507
25955.2 4.26767
25957.3 4.46988
25959.4 4.68018
25961.5 4.89994
25963.6 5.12959
25965.7 5.37079
25967.7 5.62173
25969.8 5.88404
25971.9 6.15827
25974.0 6.44640
25976.1 6.74627
25978.2 7.05986
25980.3 7.38784
25982.4 7.73089
25984.5 8.08974
25986.6 8.46516
25988.7 8.85794
25990.8 9.27096
25992.8 9.70114
25994.9 10.1514
25997.0 10.6226
25999.1 11.1182
26001.2 11.6346
26003.3 12.1751
26005.4 12.7411
26007.5 13.3364
26009.6 13.9568
26011.7 14.6063
26013.8 15.2863
26015.9 15.9982
26017.9 16.7434
26020.0 17.5234
26022.1 18.3399
26025.9 19.9227
26029.7 21.6363
26033.5 23.4997
26037.3 25.5131
26041.1 27.6966
26044.9 30.0488
26048.7 32.5935
26052.5 35.3262
26055.6 37.7229
26058.7 40.2512
26061.8 42.9113
26065.0 45.7021
26068.1 48.6195
26071.2 51.6562
26077.4 58.0413
26089.9 71.5213
26096.2 78.1667
26102.4 84.3528
26106.9 88.3974
26111.5 91.9213
26116.0 94.8264
26120.5 97.0359
26124.0 98.2188
26127.4 98.9808
26130.8 99.3312
26134.2 99.2848
26136.9 98.9807
26139.5 98.4583
26144.9 96.8209
26150.3 94.5220
26155.7 91.7183
26161.1 88.5603
26166.5 85.1833
26171.9 81.7025
26177.3 78.2197
26181.8 75.3332
26186.3 72.5446
26190.9 69.8873
26195.4 67.4095
26197.8 66.1880
26200.2 65.0592
26202.6 64.0453
26205.0 63.1922
26206.4 62.7952
26207.8 62.5142
26209.2 62.3932
26210.7 62.5106
26211.7 62.8335
26212.8 63.4537
26213.3 63.9137
26213.8 64.4998
26214.4 65.2362
26214.9 66.1501
26215.7 67.8830
26216.1 68.9519
26216.4 70.1412
26216.8 71.5274
26217.2 73.0950
26217.6 74.8572
26218.0 76.7723
26218.3 78.6589
26218.7 80.7139
26219.3 85.2639
26220.0 90.4668
26220.7 96.2672
26221.5 103.624
26222.2 111.266
26223.0 119.023
26223.4 122.768
26223.8 126.343
26224.2 129.686
26224.6 132.660
26225.0 135.365
26225.3 137.611
26225.8 139.591
26226.2 140.995
26226.6 141.787
26227.0 141.946
26227.5 141.396
26227.9 140.121
26228.4 138.097
26228.8 135.462
26229.3 132.166
26229.7 128.435
26230.2 124.289
26230.6 119.823
26231.1 114.708
26231.6 109.557
26232.6 99.2517
26233.0 94.2780
26233.5 89.5195
26234.0 85.0289
26234.5 80.8436
26234.8 77.9980
26235.2 75.3316
26235.5 72.8458
26235.9 70.5389
26236.2 68.4068
26236.6 66.4435
26236.9 64.6413
26237.3 62.9915
26237.8 60.9196
26238.3 59.1348
26238.7 57.5657
26239.2 56.1867
26239.7 54.9736
26240.2 53.9040
26241.1 52.1171
26242.2 50.5728
26243.2 49.3320
26244.3 48.3045
26245.3 47.4287
26246.3 46.7187
26247.3 46.0868
26249.2 44.9778
26251.1 44.0152
26253.0 43.1545
26255.5 42.1629
26257.9 41.2597
26260.4 40.4236
26262.8 39.6438
26266.7 38.4991
26270.5 37.4391
26274.4 36.4486
26278.2 35.5199
26284.9 34.0305
26291.5 32.6688
26298.2 31.4165
26304.8 30.2617
26315.3 28.6050
26325.8 27.1297
26336.3 25.8052
26346.8 24.6105
26354.5 23.8064
26362.2 23.0585
26369.8 22.3604
26377.5 21.7077
26392.9 20.5218
26408.3 19.4753
26419.5 18.7877
26430.7 18.1555
26441.9 17.5733
26453.1 17.0346
26464.3 16.5336
26475.5 16.0678
26497.8 15.2286
26513.2 14.7134
26528.6 14.2415
26544.0 13.8079
26559.4 13.4083
26574.8 13.0388
26590.2 12.6964
26620.9 12.0819
26639.1 11.7567
26657.3 11.4561
26693.7 10.9178
26730.1 10.4517
26766.4 10.0405
26797.2 9.73142
26828.0 9.45058
26858.8 9.19496
26889.5 8.96206
26951.1 8.55013
27012.6 8.19806
27085.4 7.84241
27158.1 7.53778
27230.9 7.27425
27303.6 7.04088
27365.2 6.86544
27426.7 6.70491
27549.8 6.42289
27672.9 6.18080
27796.0 5.96927
27885.6 5.83071
27991.9 5.67975
28098.2 5.54062
28204.5 5.41150
28310.8 5.29093
28372.4 5.22465
28433.9 5.16079
28495.5 5.09934
28557.0 5.04051
28607.4 4.99464
28657.8 4.95135
28708.1 4.91152
28733.3 4.89336
28758.5 4.87689
28780.9 4.86402
28803.2 4.85335
28827.0 4.84521
28850.8 4.84165
28874.6 4.84456
28898.4 4.85738
28913.8 4.87340
28929.1 4.89817
28944.5 4.93531
28959.9 4.99038
28968.3 5.03096
28976.7 5.08176
28985.1 5.14581
28993.5 5.22724
29001.2 5.32236
29008.9 5.44380
29016.6 5.60129
29020.4 5.69784
29024.3 5.80904
29028.8 5.96425
29033.4 6.15093
29037.9 6.37919
29040.2 6.51219
29042.5 6.66041
29044.4 6.80014
29046.3 6.95343
29048.2 7.12385
29050.2 7.31194
29052.1 7.52244
29054.0 7.75642
29055.9 8.01880
29057.8 8.31424
29059.5 8.60245
29061.2 8.92235
29062.8 9.28076
29064.5 9.68394
29066.2 10.1395
29067.8 10.6565
29069.5 11.2464
29070.3 11.5729
29071.1 11.9231
29072.1 12.3654
29073.1 12.8420
29074.0 13.3617
29075.0 13.9297
29075.9 14.5517
29076.9 15.2344
29077.9 15.9853
29078.8 16.8131
29079.8 17.7375
29080.8 18.7509
29081.7 19.8749
29082.7 21.1238
29083.6 22.5136
29084.6 24.0617
29085.6 25.7871
29086.5 27.7098
29087.0 28.7739
29087.5 29.8738
29088.4 32.2543
29089.4 34.8898
29090.4 37.7938
29091.3 40.9724
29092.3 44.4221
29093.2 48.1259
29094.2 52.0502
29096.2 60.6756
29097.2 65.0225
29098.2 69.1820
29099.2 73.0897
29100.2 76.5142
29100.7 78.0281
29101.2 79.3732
29101.7 80.5334
29102.2 81.4770
29102.6 82.1783
29103.1 82.6931
29103.6 83.0157
29104.0 83.1422
29104.5 83.0617
29105.0 82.7500
29105.5 82.2114
29106.0 81.4533
29106.5 80.4858
29107.0 79.3214
29107.5 77.9749
29108.0 76.4946
29109.0 73.0515
29110.0 69.2106
29111.0 65.0484
29112.0 60.7922
29113.3 54.9112
29114.7 49.3146
29115.4 46.6638
29116.1 44.1314
29116.7 41.7270
29117.4 39.4558
29118.1 37.3198
29118.8 35.3186
29119.5 33.4491
29120.1 31.7317
29120.8 30.1096
29121.5 28.6028
29122.2 27.2044
29122.8 25.9259
29123.5 24.8075
29124.1 23.7806
29124.7 22.8219
29125.3 21.9264
29126.0 21.0766
29126.6 20.2951
29127.2 19.5639
29127.8 18.8793
29128.5 18.2277
29129.1 17.6266
29130.3 16.5323
29131.6 15.5646
29132.8 14.7058
29134.0 13.9409
29135.3 13.2571
29136.5 12.6439
29137.8 12.0919
29139.0 11.5936
29140.2 11.1422
29141.5 10.7323
29142.7 10.3589
29144.1 9.98640
29145.4 9.64817
29146.8 9.34015
29148.1 9.06086
29149.5 8.80317
29150.9 8.56831
29153.6 8.15116
29156.1 7.82159
29158.5 7.53537
29161.0 7.28326
29163.5 7.06176
29166.0 6.86458
29168.5 6.68963
29171.0 6.53302
29173.4 6.39224
29178.4 6.14969
29183.4 5.94944
29188.3 5.78201
29193.3 5.64043
29197.4 5.54010
29201.4 5.45164
29209.6 5.30217
29217.7 5.18125
29225.8 5.08180
29235.8 4.98202
29245.7 4.90021
29255.7 4.83190
29265.6 4.77398
29283.7 4.68813
29301.7 4.61977
29319.8 4.56355
29337.9 4.51597
29361.3 4.46318
29384.8 4.41770
29408.3 4.37749
29431.8 4.34094
29475.2 4.28034
29518.5 4.22567
29561.9 4.17478
29605.2 4.12637
29652.2 4.07578
29699.2 4.02640
29793.1 3.92973
29887.1 3.83400
29981.0 3.73790
30096.7 3.61770
30212.3 3.49428
30371.3 3.31731
30530.3 3.12976
30689.3 2.92923
30848.3 2.71300
31007.3 2.47770
31086.8 2.35220
31166.3 2.22048
31245.8 2.08287
31325.3 1.93814
31404.8 1.78634
31484.3 1.62760
31571.0 1.44546
31657.7 1.25442
31744.4 1.05526
31831.1 0.849693
31968.5 0.520539
32002.8 0.440228
32037.1 0.362170
32054.3 0.324310
32071.5 0.287170
32088.6 0.251309
32105.8 0.216755
32119.3 0.190513
32132.9 0.165354
32146.4 0.141382
32160.0 0.118722
32173.5 0.0974538
32187.1 0.0779165
32193.9 0.0688150
32200.6 0.0602081
32207.4 0.0520962
32214.2 0.0445303
32221.2 0.0372888
32228.2 0.0306918
32235.2 0.0247631
32242.2 0.0195376
32249.2 0.0150366
32252.7 0.0130694
32256.2 0.0113090
32259.7 0.00976135
32263.2 0.00842718
32266.7 0.00730882
32270.2 0.00641234
32271.8 0.00608063
32273.4 0.00579879
32274.9 0.00556516
32276.5 0.00538026
32278.1 0.00524453
32279.7 0.00515846
32281.3 0.00512256
32282.8 0.00513738
32284.4 0.00520410
32286.0 0.00532250
32287.6 0.00549352
32289.2 0.00571786
32290.8 0.00599630
32292.3 0.00632962
32293.9 0.00671856
32295.5 0.00716375
32298.7 0.00822467
32301.8 0.00951552
32305.0 0.0110406
32308.1 0.0128062
32312.2 0.0154459
32316.3 0.0185058
32320.3 0.0220249
32324.4 0.0259974
32332.5 0.0353175
32340.7 0.0465771
32348.8 0.0599252
32356.9 0.0754940
32365.0 0.0934221
32373.2 0.113857
32377.9 0.127020
32382.7 0.141094
32387.4 0.156142
32392.1 0.172197
32396.9 0.189334
32401.6 0.207519
32406.4 0.226826
32411.1 0.247298
32415.9 0.269022
32420.6 0.291953
32425.3 0.316180
32430.1 0.341750
32434.8 0.368772
32439.6 0.397169
32444.3 0.427014
32449.1 0.458426
32453.8 0.491634
32458.5 0.526458
32463.3 0.562968
32468.0 0.601263
32472.8 0.641512
32477.5 0.683616
32482.3 0.727732
32487.0 0.773936
32491.7 0.822412
32496.5 0.873038
32501.2 0.926001
32506.0 0.981388
32510.7 1.03942
32515.5 1.09994
32520.2 1.16318
32524.9 1.22925
32529.9 1.30166
32534.9 1.37743
32539.8 1.45669
32544.8 1.53958
32549.8 1.62625
32554.8 1.71685
32559.7 1.81156
32564.7 1.91034
32569.7 2.01375
32574.6 2.12180
32579.6 2.23468
32584.6 2.35258
32589.5 2.47572
32594.5 2.60432
32599.5 2.73861
32604.4 2.87854
32609.4 3.02493
32614.4 3.17776
32619.3 3.33730
32624.3 3.50385
32629.3 3.67770
32634.3 3.85916
32639.2 4.04857
32644.2 4.24585
32649.2 4.45215
32654.1 4.66746
32659.1 4.89216
32664.1 5.12617
32674.0 5.62621
32683.9 6.17015
32693.9 6.76299
32703.8 7.40842
32713.7 8.11100
32723.7 8.87488
32733.6 9.70689
32743.6 10.6120
32753.5 11.5961
32763.4 12.6647
32773.0 13.7792
32782.5 14.9837
32792.1 16.2858
32801.6 17.6919
32811.1 19.2082
32820.7 20.8408
32830.2 22.5968
32839.8 24.4810
32847.0 26.0013
32854.2 27.5975
32861.5 29.2746
32868.7 31.0396
32876.0 32.8776
32883.2 34.7894
32890.5 36.7737
32897.7 38.8335
32912.2 43.1481
32926.7 47.6737
32955.6 57.0313
32971.7 62.1316
32987.8 66.9168
32995.9 69.1336
33003.9 71.1930
33012.0 73.0791
33020.0 74.7762
33028.1 76.2576
33036.1 77.5229
33044.2 78.5586
33052.2 79.3528
33060.2 79.9239
33068.3 80.2588
33076.3 80.3730
33084.4 80.2821
33093.9 79.9135
33103.5 79.2965
33113.0 78.4617
33122.5 77.4329
33141.6 74.9130
33160.6 71.9291
33179.7 68.7747
33198.8 65.4921
33217.8 62.2244
33236.9 59.0458
33266.8 54.3558
33281.7 52.1703
33296.6 50.0975
33311.6 48.1358
33326.5 46.2868
33341.5 44.5454
33356.4 42.9068
33371.4 41.3655
33386.3 39.9177
33401.3 38.5561
33416.2 37.2771
33446.1 34.9419
33476.0 32.8730
33505.9 31.0338
33535.7 29.3947
33565.6 27.9287
33595.5 26.6135
33617.2 25.7405
33639.0 24.9315
33660.7 24.1805
33682.4 23.4838
33704.2 22.8370
33725.9 22.2384
33747.6 21.6857
33769.4 21.1819
33782.3 20.9074
33795.2 20.6538
33808.1 20.4252
33821.0 20.2281
33830.5 20.1099
33840.0 20.0233
33846.5 19.9887
33852.9 19.9809
33859.4 20.0089
33865.8 20.0871
33869.6 20.1641
33873.3 20.2718
33877.0 20.4191
33880.8 20.6185
33884.3 20.8747
33887.9 21.2165
33891.5 21.6799
33893.2 21.9714
33895.0 22.3146
33896.9 22.7437
33898.8 23.2603
33900.6 23.8877
33902.5 24.6525
33903.4 25.1052
33904.4 25.6052
33905.3 26.1712
33906.2 26.8001
33907.2 27.5161
33908.1 28.3165
33909.0 29.2328
33910.0 30.2618
33910.8 31.3246
33911.7 32.5198
33912.5 33.8642
33913.4 35.3560
33914.2 37.0479
33915.1 38.9390
33915.9 41.0428
33916.8 43.3396
33917.7 46.1691
33918.6 49.2288
33919.6 52.5579
33920.5 56.0391
33923.3 67.0305
33924.1 69.6220
33924.8 71.9876
33925.5 74.1039
33926.2 75.9132
33926.9 77.3635
33927.6 78.3995
33928.3 79.0128
33929.0 79.1841
33929.8 78.8553
33930.5 78.0102
33931.3 76.6767
33932.1 74.8998
33932.8 72.7072
33933.6 70.2242
33934.3 67.4981
33935.1 64.6036
33937.2 56.4229
33938.2 52.4659
33939.2 48.7296
33940.3 45.2805
33941.3 42.1833
33941.8 40.7305
33942.3 39.3881
33942.8 38.1258
33943.3 36.9415
33944.3 34.9529
33945.2 33.1983
33946.2 31.6541
33947.1 30.2967
33948.0 29.1030
33949.0 28.0521
33949.9 27.1248
33950.8 26.3126
33951.8 25.5836
33952.7 24.9345
33953.7 24.3544
33954.6 23.8394
33956.5 22.9475
33958.3 22.2190
33960.7 21.4621
33963.1 20.8523
33965.5 20.3526
33967.9 19.9366
33971.7 19.4094
33975.4 18.9934
33979.2 18.6569
33982.9 18.3784
33987.7 18.0851
33992.5 17.8428
33997.2 17.6369
34002.0 17.4589
34009.5 17.2194
34017.0 17.0162
34024.5 16.8381
34032.0 16.6790
34045.0 16.4355
34058.0 16.2198
34070.9 16.0236
34083.9 15.8417
34098.9 15.6448
34113.9 15.4596
34128.9 15.2841
34143.9 15.1171
34149.4 15.0581
34164.4 14.9010
34179.4 14.7509
34194.4 14.6083
34201.9 14.5404
34209.4 14.4751
34216.2 14.4188
34223.0 14.3663
34229.9 14.3192
34236.7 14.2803
34242.5 14.2580
34245.4 14.2524
34248.3 14.2522
34251.2 14.2592
34254.1 14.2765
34257.0 14.3086
34259.9 14.3633
34261.3 14.4029
34262.8 14.4541
34264.2 14.5205
34265.7 14.6078
34267.1 14.7247
34268.6 14.8856
34270.0 15.1141
34270.8 15.2640
34271.5 15.4470
34272.2 15.6893
34273.0 15.9930
34273.8 16.3750
34274.5 16.8488
34275.3 17.4501
34275.7 17.8095
34276.1 18.1997
34276.5 18.6448
34276.9 19.1253
34277.2 19.6553
34277.6 20.2376
34278.1 21.0343
34278.6 21.9191
34279.0 22.8945
34279.5 23.9614
34280.0 25.1182
34280.4 26.3611
34280.9 27.6833
34281.4 29.0750
34282.3 32.0119
34283.2 34.9995
34284.2 37.9216
34284.7 39.2814
34285.1 40.5128
34285.6 41.6885
34286.1 42.6784
34286.6 43.4850
34287.0 44.0892
34287.5 44.4765
34288.0 44.6377
34288.5 44.5800
34288.9 44.3219
34289.4 43.8692
34289.8 43.2321
34290.2 42.5222
34290.6 41.6894
34291.0 40.7474
34291.4 39.7381
34292.2 37.3892
34293.0 34.8807
34294.1 31.3738
34294.7 29.6855
34295.2 28.0673
34296.0 25.8548
34296.5 24.8249
34296.9 23.8831
34297.3 22.9839
34297.7 22.1717
34298.1 21.4051
34298.5 20.7200
34298.9 20.0795
34299.3 19.5121
34299.7 18.9858
34300.1 18.5228
34300.5 18.0960
34300.9 17.7223
34301.7 17.0796
34302.5 16.5655
34303.3 16.1543
34304.1 15.8239
34305.0 15.5564
34306.4 15.2025
34307.8 14.9433
34309.2 14.7461
34310.6 14.5908
34312.0 14.4649
34313.4 14.3604
34314.8 14.2720
34316.2 14.1960
34318.8 14.0770
34321.5 13.9821
34324.1 13.9035
34326.8 13.8368
34329.4 13.7788
34332.1 13.7274
34337.4 13.6394
34343.3 13.5572
34349.2 13.4858
34355.1 13.4215
34360.9 13.3626
34366.8 13.3075
34372.7 13.2555
34384.5 13.1582
34393.9 13.0852
34403.4 13.0156
34422.2 12.8840
34441.1 12.7615
34460.0 12.6481
34471.7 12.5827
34483.5 12.5230
34495.3 12.4712
34507.1 12.4313
34515.4 12.4143
34523.6 12.4115
34531.9 12.4311
34536.0 12.4537
34540.1 12.4884
34544.8 12.5486
34549.5 12.6397
34554.3 12.7781
34559.0 12.9904
34561.9 13.1818
34564.9 13.4411
34566.4 13.6062
34567.8 13.8005
34569.3 14.0325
34570.8 14.3119
34572.4 14.6909
34574.0 15.1684
34574.8 15.4546
34575.6 15.7799
34576.4 16.1512
34577.2 16.5770
34578.0 17.0480
34578.8 17.5822
34579.6 18.2062
34580.3 18.9183
34581.1 19.7540
34581.9 20.7104
34582.7 21.8176
34583.1 22.4426
34583.4 23.0967
34583.8 23.8554
34584.2 24.6514
34584.7 25.5274
34585.1 26.4434
34585.5 27.4473
34585.9 28.4920
34586.3 29.6311
34586.7 30.8096
34587.1 32.0864
34587.5 33.4317
34588.3 36.2819
34589.1 39.3608
34589.9 42.6186
34591.6 49.5336
34592.4 52.8974
34593.2 55.9943
34593.7 57.6510
34594.2 59.1311
34594.7 60.4480
34595.1 61.5814
34595.6 62.5130
34596.1 63.2281
34596.5 63.7150
34597.0 63.9662
34597.2 63.9972
34597.7 63.9151
34598.2 63.5744
34598.6 62.9834
34599.1 62.1543
34599.6 61.0795
34600.1 59.8221
34600.6 58.3857
34601.1 56.7952
34601.8 54.1969
34602.6 51.4434
34604.0 45.6964
34605.3 40.4321
34606.0 37.9408
34606.7 35.6305
34607.3 33.7288
34607.9 31.9876
34608.4 30.3761
34609.0 28.8935
34609.6 27.5363
34610.2 26.2993
34610.8 25.1755
34611.3 24.1572
34612.0 23.0866
34612.7 22.1494
34613.4 21.3046
34614.0 20.5650
34614.7 19.8972
34615.4 19.3109
34616.1 18.7866
34616.7 18.3165
34617.5 17.8522
34618.2 17.4431
34618.9 17.0713
34619.7 16.7412
34621.1 16.1684
34622.6 15.6974
34624.0 15.3297
34625.3 15.0160
34626.6 14.7420
34628.0 14.5043
34630.7 14.1083
34633.4 13.7939
34637.3 13.4382
34641.2 13.1671
34645.1 12.9528
34649.0 12.7798
34654.4 12.5889
34659.8 12.4372
34665.2 12.3127
34670.6 12.2085
34680.8 12.0475
34691.1 11.9201
34701.4 11.8143
34711.7 11.7235
34729.3 11.5908
34746.9 11.4772
34764.5 11.3760
34782.1 11.2837
34811.5 11.1435
34840.9 11.0157
34899.6 10.7845
34966.2 10.5502
35032.7 10.3376
35165.8 9.95999
35306.8 9.61458
35447.7 9.31111
35588.7 9.04109
35729.6 8.79852
35901.9 8.53302
36074.2 8.29426
36246.4 8.07680
36418.7 7.87634
36700.6 7.57549
36982.5 7.29475
37139.1 7.14186
37295.7 6.98711
37452.3 6.82582
37608.9 6.65226
37691.1 6.55266
37773.4 6.44475
37855.6 6.32545
37937.8 6.19039
38023.9 6.02452
38067.0 5.92875
38110.1 5.82165
38147.3 5.71764
38184.5 5.60042
38221.7 5.46639
38258.8 5.31112
38280.4 5.20868
38301.9 5.09514
38323.4 4.96829
38345.0 4.82537
38364.6 4.67846
38384.1 4.51188
38403.7 4.32115
38423.3 4.10084
38434.1 3.96391
38444.8 3.81391
38455.6 3.64892
38466.4 3.46679
38477.1 3.26444
38482.5 3.15486
38487.9 3.03902
38493.3 2.91619
38498.7 2.78629
38504.0 2.64855
38509.4 2.50238
38514.8 2.34690
38520.2 2.18212
38525.6 2.00690
38531.0 1.82152
38536.3 1.62518
38541.7 1.41894
38547.1 1.20355
38552.5 0.981463
38558.6 0.726697
38561.7 0.602002
38564.7 0.482275
38566.3 0.425351
38567.8 0.371117
38569.3 0.320242
38570.8 0.273516
38572.4 0.231871
38573.9 0.196413
38575.4 0.168458
38576.2 0.157833
38577.0 0.149659
38577.8 0.143662
38578.7 0.141485
38579.5 0.143486
38580.4 0.150067
38581.1 0.158952
38581.7 0.171141
38582.4 0.187289
38583.1 0.207229
38583.8 0.231899
38584.4 0.260934
38585.1 0.295053
38585.8 0.334676
38587.1 0.428180
38587.7 0.483894
38588.3 0.546454
38589.0 0.617561
38589.6 0.695626
38590.3 0.782323
38590.9 0.878347
38591.6 0.986191
38592.2 1.10336
38592.8 1.23232
38593.5 1.37402
38594.1 1.52950
38594.8 1.69987
38595.4 1.88635
38596.0 2.09024
38596.7 2.32752
38597.4 2.58387
38598.1 2.86889
38598.7 3.17626
38599.4 3.51743
38600.1 3.88474
38600.8 4.28552
38601.4 4.72248
38602.1 5.20589
38602.8 5.72462
38603.4 6.28869
38604.1 6.90144
38604.8 7.57672
38605.5 8.29831
38606.1 9.07942
38606.8 9.92379
38607.5 10.8351
38608.1 11.8170
38608.8 12.8730
38609.5 13.9888
38610.1 15.2011
38610.8 16.4760
38611.5 17.8541
38612.1 19.2954
38612.8 20.9153
38613.5 22.6031
38614.2 24.4059
38614.9 26.2687
38615.6 28.2405
38616.3 30.2582
38617.7 34.4794
38619.8 41.1321
38621.8 47.7660
38622.9 50.9248
38623.9 53.8937
38625.0 56.6124
38626.0 59.0266
38627.2 61.3048
38627.7 62.2656
38628.3 63.1017
38628.9 63.8106
38629.5 64.3910
38630.6 65.1625
38631.3 65.3904
38632.0 65.4432
38632.7 65.3306
38633.4 65.0659
38634.1 64.6527
38634.8 64.1152
38636.2 62.6926
38637.6 60.9057
38639.0 58.8594
38641.8 54.3558
38644.4 50.0620
38646.9 46.0074
38648.2 44.1056
38649.5 42.3053
38650.8 40.6094
38652.1 39.0295
38653.4 37.5385
38654.7 36.1448
38656.0 34.8432
38657.3 33.6373
38658.6 32.5024
38659.9 31.4426
38661.2 30.4523
38662.5 29.5331
38665.1 27.8532
38667.7 26.3806
38670.3 25.0786
38672.9 23.9219
38675.5 22.8856
38678.1 21.9599
38680.7 21.1229
38683.3 20.3690
38685.9 19.6818
38688.5 19.0582
38691.1 18.4859
38693.6 17.9630
38696.2 17.4800
38698.8 17.0361
38704.0 16.2427
38709.2 15.5567
38714.4 14.9583
38717.9 14.5923
38721.5 14.2560
38728.6 13.6601
38735.6 13.1474
38742.7 12.7014
38747.9 12.4096
38753.1 12.1436
38763.5 11.6762
38773.8 11.2790
38784.2 10.9377
38794.6 10.6406
38805.0 10.3802
38815.3 10.1496
38825.7 9.94436
38845.5 9.60844
38865.3 9.32934
38885.1 9.09379
38904.9 8.89204
38925.7 8.70923
38946.5 8.54989
38988.0 8.28460
39025.7 8.08938
39063.4 7.92514
39101.2 7.78463
39138.9 7.66224
39187.9 7.52408
39237.0 7.40406
39286.0 7.29819
39335.1 7.20253
39395.5 7.09650
39455.8 7.00018
39576.6 6.82793
39674.7 6.70101
39772.8 6.58066
39870.9 6.46338
39969.0 6.34643
40044.5 6.25543
40082.2 6.20949
40119.9 6.16331
40157.7 6.11715
40195.4 6.07150
40233.1 6.02711
40270.9 5.98589
40293.5 5.96391
40316.1 5.94522
40336.9 5.93253
40357.6 5.92631
40378.4 5.92974
40399.1 5.94809
40411.4 5.96923
40423.7 6.00111
40435.9 6.04800
40448.2 6.11554
40458.6 6.19521
40469.0 6.30377
40479.3 6.45312
40484.5 6.54842
40489.7 6.66117
40494.9 6.79604
40500.1 6.95837
40505.3 7.15518
40510.5 7.39533
40513.1 7.53619
40515.6 7.69260
40518.2 7.86818
40520.8 8.06441
40523.4 8.28622
40526.0 8.53598
40528.6 8.82058
40531.2 9.14381
40533.1 9.40883
40535.0 9.70219
40536.9 10.0279
40538.8 10.3885
40540.7 10.7934
40542.5 11.2449
40544.4 11.7555
40546.3 12.3290
40547.6 12.7694
40548.9 13.2506
40550.2 13.7771
40551.5 14.3497
40552.8 14.9833
40554.1 15.6749
40555.4 16.4430
40556.7 17.2844
40558.0 18.2219
40559.3 19.2601
40560.6 20.4111
40561.9 21.6774
40563.2 23.0923
40564.5 24.6609
40565.8 26.3969
40567.1 28.2978
40568.4 30.5392
40569.8 33.0026
40571.2 35.6870
40572.6 38.5582
40573.9 41.6310
40575.3 44.8393
40578.1 51.3544
40579.2 53.9165
40580.3 56.3347
40581.4 58.5420
40582.5 60.4558
40583.7 62.0481
40584.8 63.2367
40585.9 64.0008
40587.0 64.2995
40587.7 64.2415
40588.5 63.9826
40589.2 63.5272
40589.9 62.8930
40590.6 62.0727
40591.4 61.0866
40592.1 59.9497
40592.8 58.6969
40594.3 55.8263
40595.7 52.6588
40598.6 45.9245
40601.1 40.4257
40602.3 37.8399
40603.5 35.3989
40604.7 33.1167
40605.9 30.9996
40607.1 29.0476
40608.3 27.2561
40609.5 25.6174
40610.7 24.1219
40611.9 22.7590
40613.1 21.5275
40614.4 20.3963
40615.6 19.3737
40616.8 18.4333
40618.0 17.5817
40619.2 16.7966
40620.4 16.0838
40621.6 15.4299
40622.8 14.8291
40624.0 14.2718
40625.2 13.7625
40626.4 13.2922
40627.6 12.8572
40629.8 12.1435
40632.0 11.5191
40634.2 10.9700
40636.3 10.4844
40638.5 10.0531
40640.7 9.66820
40642.9 9.32329
40645.1 9.01294
40647.5 8.70595
40649.9 8.43025
40652.3 8.18158
40654.7 7.95728
40657.1 7.75248
40659.6 7.56561
40664.4 7.23798
40667.9 7.03070
40671.4 6.84606
40674.9 6.67964
40678.4 6.52957
40685.4 6.26771
40692.4 6.04694
40697.2 5.91343
40702.0 5.79212
40711.7 5.57879
40721.3 5.39458
40730.9 5.23164
40747.6 4.98360
40764.2 4.76132
40780.9 4.55182
40797.5 4.34650
40816.8 4.10482
40836.0 3.85080
40855.3 3.57638
40864.9 3.42905
40874.6 3.27348
40886.8 3.06170
40899.1 2.83245
40905.2 2.71027
40911.3 2.58257
40917.5 2.44906
40923.6 2.30942
40933.2 2.07674
40938.1 1.95418
40942.9 1.82767
40947.7 1.69672
40952.5 1.56172
40957.3 1.42294
40962.1 1.28111
40971.8 0.990333
40976.6 0.844455
40981.4 0.701365
40983.8 0.631649
40986.2 0.563980
40988.6 0.499020
40991.0 0.437814
40993.4 0.380825
40995.9 0.329511
40998.3 0.285315
41000.7 0.250091
41002.4 0.231003
41004.2 0.218715
41005.9 0.214168
41007.7 0.218587
41009.4 0.233506
41011.2 0.260399
41012.9 0.301218
41014.7 0.358174
41015.6 0.393707
41016.4 0.433839
41017.3 0.479882
41018.2 0.531207
41019.1 0.589446
41019.9 0.653761
41020.8 0.726156
41021.7 0.805549
41022.9 0.930033
41024.1 1.07124
41025.3 1.23346
41026.5 1.41617
41027.7 1.62481
41028.3 1.73818
41028.9 1.85859
41029.5 1.98861
41030.1 2.12437
41030.7 2.26836
41031.3 2.42101
41031.9 2.58557
41032.5 2.75713
41033.1 2.93882
41033.7 3.13117
41034.3 3.33823
41034.9 3.55382
41035.5 3.78185
41036.1 4.02297
41036.8 4.28222
41037.4 4.55183
41038.0 4.83667
41038.6 5.13750
41039.2 5.45514
41039.8 5.79041
41040.4 6.14418
41041.0 6.51735
41041.5 6.90412
41042.1 7.31144
41042.7 7.74024
41043.3 8.19149
41043.9 8.66614
41044.5 9.16519
41045.1 9.68962
41045.7 10.2309
41046.3 10.8087
41046.8 11.4148
41047.4 12.0503
41048.0 12.7161
41048.6 13.4132
41049.2 14.1424
41049.8 14.9046
41050.4 15.6867
41051.3 16.9957
41052.2 18.3747
41053.1 19.8554
41054.0 21.4060
41055.0 23.0599
41055.9 24.7793
41056.8 26.5990
41057.7 28.4745
41059.4 32.0905
41061.0 35.8616
41064.4 43.6537
41066.0 47.4829
41067.7 51.0931
41069.3 54.3991
41070.2 55.9062
41071.0 57.3010
41072.0 58.8188
41073.0 60.1458
41074.0 61.2714
41075.0 62.1892
41076.0 62.8965
41077.0 63.3942
41078.0 63.6871
41079.0 63.7831
41080.0 63.6946
41081.0 63.4362
41082.0 63.0222
41083.0 62.4679
41084.9 61.0034
41086.9 59.1714
41088.9 57.0917
41090.9 54.8685
41094.8 50.3095
41098.3 46.4456
41101.8 42.8994
41103.6 41.2518
41105.3 39.7064
41107.0 38.2520
41108.8 36.8858
41110.5 35.5969
41112.3 34.3956
41114.0 33.2695
41115.8 32.2138
41119.2 30.2896
41122.7 28.5983
41125.3 27.4890
41127.8 26.4766
41130.3 25.5434
41132.9 24.6878
41135.4 23.8953
41137.9 23.1654
41140.5 22.4863
41143.0 21.8583
41146.5 21.0630
41150.0 20.3424
41153.5 19.6836
41156.9 19.0826
41160.4 18.5296
41163.9 18.0220
41170.9 17.1187
41177.9 16.3413
41184.8 15.6661
41191.8 15.0746
41198.8 14.5529
41205.1 14.1297
41211.4 13.7474
41217.8 13.4003
41224.1 13.0846
41236.8 12.5301
41249.5 12.0604
41263.4 11.6201
41277.3 11.2432
41291.3 10.9170
41305.2 10.6320
41325.5 10.2760
41345.8 9.97592
41366.1 9.71806
41386.3 9.49473
41414.2 9.23202
41442.1 9.00976
41470.0 8.81911
41497.8 8.65361
41538.4 8.44817
41579.0 8.27564
41619.5 8.12785
41660.1 7.99987
41715.8 7.84920
41771.6 7.72134
41827.3 7.61110
41883.1 7.51490
41979.4 7.37437
42075.7 7.25806
42172.0 7.15982
42268.4 7.07539
42308.9 7.04338
42420.4 6.96440
42532.0 6.89681
42643.5 6.83922
42755.0 6.79128
42815.8 6.76945
42871.6 6.75244
42927.3 6.73870
42983.1 6.72880
43038.9 6.72370
43084.5 6.72406
43130.1 6.72970
43175.7 6.74220
43221.4 6.76397
43249.2 6.78349
43277.1 6.80914
43305.0 6.84258
43332.9 6.88614
43359.5 6.94018
43386.1 7.01049
43412.7 7.10311
43439.3 7.22666
43453.3 7.30839
43467.2 7.40535
43481.2 7.52125
43495.1 7.66098
43509.0 7.83148
43523.0 8.04199
43536.9 8.30563
43543.9 8.46301
43550.8 8.64141
43561.0 8.94660
43566.1 9.12362
43571.1 9.31988
43576.2 9.53811
43581.3 9.78209
43586.3 10.0563
43591.4 10.3656
43594.9 10.6021
43598.4 10.8596
43601.9 11.1423
43605.3 11.4517
43608.8 11.7934
43612.3 12.1696
43615.8 12.5874
43619.3 13.0505
43622.8 13.5685
43626.3 14.1469
43629.7 14.7989
43633.2 15.5328
43636.7 16.3676
43640.2 17.3159
43641.9 17.8400
43643.7 18.4014
43645.4 19.0037
43647.2 19.6508
43648.9 20.3513
43650.6 21.1023
43652.4 21.9179
43654.1 22.7950
43655.9 23.7506
43657.6 24.7814
43659.4 25.9012
43661.1 27.1196
43662.9 28.4553
43664.6 29.9052
43666.3 31.4899
43668.1 33.2244
43669.8 35.1367
43671.6 37.2230
43673.3 39.5134
43675.0 42.0290
43676.8 44.8087
43678.5 47.8615
43680.3 51.2101
43682.0 54.8751
43683.8 58.8730
43685.5 63.2138
43687.3 67.8967
43689.0 72.9067
43691.2 79.5190
43693.4 86.4277
43697.7 100.411
43699.9 106.935
43700.9 109.903
43702.0 112.622
43703.1 115.047
43704.2 117.132
43705.3 118.838
43706.3 120.132
43707.7 121.121
43709.0 121.414
43710.1 121.127
43711.2 120.380
43712.3 119.188
43713.3 117.573
43714.4 115.549
43715.5 113.189
43716.6 110.520
43717.7 107.588
43719.8 101.093
43722.0 94.1372
43726.3 80.0236
43728.0 74.9070
43729.6 70.0584
43731.2 65.4568
43732.9 61.1794
43734.5 57.1814
43736.1 53.5091
43737.8 50.1074
43739.4 47.0034
43741.0 44.2584
43742.5 41.7521
43744.1 39.4355
43745.7 37.3217
43747.2 35.3675
43748.8 33.5829
43750.3 31.9412
43751.9 30.4295
43754.0 28.5545
43756.2 26.8736
43758.3 25.3632
43760.4 24.0027
43762.6 22.7741
43764.7 21.6616
43766.8 20.6518
43768.9 19.7330
43770.5 19.1081
43772.1 18.5272
43775.2 17.4725
43778.3 16.5399
43781.4 15.7169
43784.6 14.9829
43787.7 14.3300
43790.8 13.7449
43793.9 13.2187
43797.1 12.7426
43800.2 12.3130
43803.3 11.9218
43806.4 11.5667
43809.6 11.2416
43812.7 10.9449
43815.8 10.6718
43818.9 10.4215
43824.3 10.0336
43829.7 9.69448
43835.1 9.39579
43840.5 9.13174
43845.9 8.89641
43851.3 8.68608
43856.7 8.49722
43862.1 8.32716
43868.4 8.14980
43874.6 7.99069
43887.1 7.71713
43899.6 7.48936
43912.1 7.29560
43925.7 7.11184
43933.1 7.02109
43940.5 6.93496
43947.9 6.85176
43955.3 6.77044
43962.7 6.68975
43970.0 6.60897
43973.7 6.56826
43977.4 6.52767
43981.1 6.48752
43984.8 6.44880
43988.2 6.41614
43991.6 6.39011
43993.3 6.38171
43995.0 6.37853
43996.8 6.38332
43998.5 6.40077
43999.9 6.43104
44001.3 6.48477
44002.7 6.57728
44003.4 6.64576
44004.1 6.73513
44004.8 6.85166
44005.6 7.00332
44006.3 7.20014
44006.6 7.32104
44007.0 7.45450
44007.3 7.61013
44007.7 7.78136
44008.0 7.98033
44008.4 8.19838
44008.8 8.45064
44009.1 8.72580
44009.5 9.04252
44009.8 9.38613
44010.1 9.73359
44010.5 10.1152
44010.8 10.5331
44011.1 10.9897
44011.4 11.4870
44011.7 12.0271
44012.1 12.6118
44012.4 13.2428
44012.7 13.9216
44013.0 14.6493
44013.3 15.4269
44013.7 16.2546
44014.0 17.1325
44014.3 18.0601
44014.6 19.0364
44014.9 20.0272
44015.3 21.2993
44015.7 22.5944
44016.4 25.3669
44017.2 28.2845
44017.9 31.2285
44018.7 34.3016
44019.5 37.1910
44019.9 38.5616
44020.2 39.8494
44020.6 41.0395
44021.0 42.1179
44021.4 43.0032
44021.7 43.7535
44022.1 44.3878
44022.4 44.9000
44023.0 45.4610
44023.1 45.5350
44023.5 45.6665
44023.9 45.6445
44024.2 45.4757
44024.6 45.1635
44024.9 44.7678
44025.3 44.2664
44025.6 43.6648
44025.9 42.9916
44026.3 41.9850
44026.8 40.8535
44027.2 39.6142
44027.6 38.2853
44028.5 35.1505
44029.4 31.8629
44030.3 28.8730
44031.1 26.0062
44031.5 24.6454
44032.0 23.3437
44032.4 22.1069
44032.8 20.9392
44033.2 20.0209
44033.5 19.1774
44033.8 18.3593
44034.2 17.6130
44034.5 16.8939
44034.9 16.2420
44035.2 15.6345
44035.6 15.0699
44035.9 14.5315
44036.2 14.0479
44036.6 13.5886
44036.9 13.1775
44037.3 12.7882
44037.6 12.4406
44038.0 12.1210
44038.3 11.8273
44038.8 11.4091
44039.4 11.0499
44039.9 10.7294
44040.4 10.4533
44041.0 10.2058
44041.5 9.99139
44042.1 9.79771
44042.6 9.62848
44043.7 9.33813
44044.7 9.10120
44045.8 8.90406
44046.9 8.73710
44048.7 8.50179
44050.5 8.31452
44052.4 8.15972
44054.2 8.03051
44056.0 7.91972
44057.9 7.82450
44061.5 7.66734
44064.9 7.55212
44068.3 7.45710
44071.6 7.37696
44075.0 7.30830
44081.7 7.19622
44088.4 7.10838
44095.2 7.03686
44101.9 6.97713
44108.6 6.92615
44115.3 6.88206
44128.8 6.80884
44142.2 6.74994
44153.3 6.70928
44164.3 6.67388
44186.3 6.61434
44208.3 6.56577
44230.3 6.52507
44262.1 6.47617
44293.9 6.43569
44325.7 6.40142
44357.5 6.37156
44411.3 6.32875
44465.1 6.29288
44518.9 6.26192
44572.7 6.23461
44651.0 6.19962
44729.2 6.16873
44807.5 6.14077
44885.8 6.11502
44993.4 6.08230
45101.0 6.05187
45208.6 6.02314
45316.2 5.99571
45541.2 5.94138
45766.2 5.88964
45991.2 5.83939
46216.2 5.78979
46529.3 5.72047
46842.3 5.64890
47057.6 5.59700
47272.8 5.54155
47488.0 5.48077
47703.2 5.41185
47830.4 5.36515
47957.6 5.31270
48084.8 5.25149
48212.0 5.17780
48348.9 5.07668
48417.4 5.01318
48485.9 4.93699
48532.3 4.87544
48578.8 4.80336
48625.3 4.71728
48671.7 4.61245
48698.7 4.54006
48725.6 4.45670
48752.5 4.35943
48779.4 4.24440
48796.5 4.15947
48813.6 4.06343
48830.7 3.95346
48847.8 3.82643
48861.3 3.71195
48874.7 3.58162
48888.2 3.43197
48901.6 3.25845
48913.3 3.08475
48919.1 2.98802
48924.9 2.88373
48930.7 2.77103
48936.5 2.64900
48942.3 2.51660
48948.1 2.37268
48951.5 2.28309
48954.8 2.18909
48958.2 2.09012
48961.6 1.98590
48964.9 1.87580
48968.3 1.76022
48971.7 1.63862
48975.0 1.51084
48978.7 1.36421
48982.4 1.21049
48986.0 1.05045
48989.7 0.885746
48993.4 0.719369
48997.0 0.556544
48998.9 0.478847
49000.7 0.406228
49002.5 0.340394
49004.4 0.284167
49006.2 0.241082
49007.1 0.226102
49008.0 0.216562
49009.0 0.213129
49009.9 0.216963
49010.8 0.229245
49011.7 0.251044
49012.5 0.281008
49013.4 0.321838
49014.2 0.375116
49015.1 0.442651
49015.9 0.526512
49016.7 0.629063
49017.6 0.753001
49018.4 0.901399
49019.3 1.08003
49020.1 1.28870
49021.0 1.53380
49021.8 1.82035
49022.2 1.98089
49022.6 2.15395
49023.1 2.34030
49023.5 2.54079
49023.9 2.75628
49024.3 2.98767
49024.7 3.23591
49025.2 3.50196
49025.5 3.75189
49025.9 4.00975
49026.3 4.29056
49026.6 4.57982
49027.0 4.89431
49027.3 5.21774
49027.7 5.55905
49028.1 5.91891
49028.4 6.30879
49028.8 6.70829
49029.2 7.12831
49029.5 7.56945
49029.9 8.04548
49030.2 8.53120
49030.6 9.03968
49031.0 9.57136
49031.4 10.2533
49031.8 10.9542
49032.3 11.6898
49032.7 12.4601
49033.1 13.2652
49033.6 14.1049
49034.0 14.9786
49034.4 15.8859
49034.9 17.0487
49035.5 18.2584
49036.0 19.5122
49036.5 20.8063
49037.6 23.4969
49038.7 26.2871
49040.2 30.5401
49041.8 34.6834
49042.6 36.6541
49043.4 38.4874
49044.2 40.1823
49045.0 41.7150
49045.5 42.6420
49046.1 43.4817
49046.6 44.2297
49047.1 44.8828
49047.7 45.4386
49048.2 45.8958
49048.7 46.2541
49049.2 46.5143
49049.9 46.6942
49050.5 46.7502
49051.1 46.6892
49051.7 46.5195
49052.3 46.2427
49052.9 45.8759
49054.1 44.8862
49055.3 43.6228
49056.5 42.1589
49058.9 38.9097
49061.3 35.5809
49063.7 32.4485
49064.9 30.9916
49066.1 29.6344
49067.3 28.3564
49068.5 27.1781
49069.7 26.0765
49070.9 25.0572
49072.1 24.1149
49073.3 23.2508
49074.5 22.4447
49075.7 21.7045
49076.9 21.0127
49078.1 20.3759
49079.3 19.7791
49080.5 19.2237
49082.8 18.2266
49085.2 17.3543
49087.6 16.5864
49089.8 15.9629
49092.0 15.4045
49094.2 14.8975
49096.3 14.4395
49098.5 14.0203
49100.7 13.6388
49102.9 13.2871
49105.0 12.9650
49107.4 12.6374
49109.8 12.3377
49114.6 11.8063
49119.4 11.3489
49124.2 10.9531
49130.7 10.4905
49137.2 10.1002
49143.7 9.76563
49150.3 9.47640
49159.8 9.11636
49169.4 8.81630
49179.0 8.56262
49188.5 8.34569
49202.5 8.08069
49216.4 7.86249
49230.3 7.67930
49244.2 7.52385
49263.4 7.34539
49282.5 7.19863
49301.6 7.07641
49320.8 6.97395
49348.6 6.85213
49376.4 6.75590
49407.8 6.67225
49439.1 6.61028
49470.4 6.56724
49501.7 6.54200
49538.2 6.53525
49574.8 6.55538
49611.3 6.60792
49647.9 6.70240
49667.0 6.77435
49686.1 6.86618
49705.3 6.98282
49724.4 7.13099
49743.5 7.32025
49753.1 7.43423
49762.7 7.56389
49772.3 7.71183
49781.8 7.88126
49791.4 8.07606
49801.0 8.30108
49813.1 8.64069
49819.2 8.83692
49825.3 9.05391
49831.4 9.29525
49837.5 9.56435
49843.6 9.86501
49849.7 10.2014
49854.5 10.4955
49859.2 10.8180
49864.0 11.1740
49868.8 11.5663
49873.6 12.0014
49878.4 12.4833
49883.2 13.0206
49888.0 13.6188
49892.7 14.2895
49897.5 15.0402
49902.3 15.8864
49907.1 16.8388
49911.9 17.9177
49914.3 18.5084
49916.7 19.1374
49919.1 19.8104
49921.5 20.5245
49923.8 21.2856
49926.2 22.0969
49928.6 22.9504
49931.0 23.8591
49933.3 24.8263
49935.7 25.8506
49938.0 26.9437
49940.4 28.1040
49942.7 29.3337
49945.1 30.6291
49947.5 32.0021
49949.8 33.4476
49954.5 36.5420
49959.2 39.8821
49963.9 43.3902
49971.0 48.6508
49974.5 51.1296
49978.0 53.3731
49981.5 55.2900
49983.2 56.0938
49985.0 56.7737
49986.8 57.3275
49988.5 57.7409
49990.3 58.0113
49992.0 58.1349
49994.3 58.0724
49996.6 57.7606
49998.9 57.2090
50001.1 56.4328
50003.4 55.4525
50005.7 54.2922
50008.0 52.9788
50010.3 51.5405
50014.8 48.4015
50019.4 45.0837
50023.9 41.7552
50028.5 38.5383
50032.0 36.2169
50035.4 34.0359
50038.9 31.9935
50042.4 30.1048
50045.8 28.3569
50049.3 26.7546
50052.8 25.2808
50056.2 23.9351
50059.5 22.7515
50062.9 21.6650
50066.2 20.6675
50069.5 19.7513
50072.8 18.9094
50076.1 18.1350
50079.5 17.4222
50082.8 16.7653
50086.1 16.1594
50089.4 15.5998
50092.7 15.0824
50096.1 14.6037
50099.4 14.1601
50102.7 13.7488
50106.0 13.3671
50109.3 13.0136
50114.2 12.5420
50119.0 12.1189
50125.6 11.6055
50132.3 11.1649
50138.9 10.7924
50145.5 10.4887
50149.2 10.3550
50152.8 10.2480
50156.4 10.1739
50160.0 10.1439
50163.3 10.1726
50165.0 10.2160
50166.7 10.2867
50168.3 10.3940
50170.0 10.5530
50170.8 10.6590
50171.6 10.7879
50172.5 10.9452
50173.3 11.1352
50174.1 11.3745
50175.0 11.6663
50175.8 12.0268
50176.6 12.4722
50177.0 12.7361
50177.4 13.0222
50177.9 13.3473
50178.3 13.6989
50178.7 14.0976
50179.1 14.5275
50179.5 15.0130
50179.9 15.5344
50180.5 16.3433
50181.1 17.2573
50181.6 18.2841
50182.2 19.4089
50182.8 20.6765
50183.3 22.0447
50183.9 23.5624
50184.5 25.1727
50184.9 26.4542
50185.3 27.7617
50186.1 30.5573
50187.0 33.5021
50187.8 36.4828
50188.6 39.4792
50189.4 42.3477
50190.3 44.9741
50190.7 46.1468
50191.1 47.2193
50191.6 48.4372
50192.1 49.4428
50192.7 50.2158
50193.2 50.7326
50193.6 50.9641
50194.0 51.0372
50194.1 51.0327
50194.4 50.9766
50194.6 50.8566
50195.1 50.4380
50195.6 49.7839
50196.1 48.9066
50196.7 47.7294
50197.2 46.3638
50197.8 44.8176
50198.3 43.1207
50199.2 40.2200
50200.0 37.1836
50201.2 32.8865
50201.8 30.8010
50202.3 28.7818
50202.9 26.9157
50203.4 25.1779
50204.0 23.5165
50204.6 21.9981
50205.1 20.5714
50205.7 19.2884
50206.2 18.1209
50206.8 17.0653
50207.2 16.3146
50207.6 15.6414
50208.0 15.0244
50208.5 14.4602
50208.9 13.9339
50209.3 13.4661
50209.7 13.0408
50210.1 12.6544
50210.6 12.2957
50211.0 11.9782
50211.4 11.6901
50211.8 11.4287
50212.7 10.9707
50213.5 10.5962
50214.3 10.3185
50215.0 10.0805
50215.7 9.87497
50216.5 9.69624
50218.0 9.40106
50219.4 9.16855
50220.9 8.97763
50222.4 8.81827
50223.9 8.68257
50225.3 8.56583
50228.1 8.38337
50230.8 8.23480
50233.6 8.11024
50236.3 8.00372
50239.1 7.91022
50241.8 7.82746
50247.3 7.68483
50252.0 7.58183
50256.6 7.49103
50261.3 7.40936
50265.9 7.33533
50275.2 7.20448
50284.5 7.09133
50292.9 7.00025
50301.4 6.91813
50318.3 6.77467
50335.1 6.65309
50352.0 6.54830
50370.6 6.44829
50389.2 6.36110
50407.8 6.28431
50426.4 6.21609
50456.8 6.11946
50487.2 6.03731
50517.6 5.96637
50548.0 5.90434
50585.1 5.83797
50622.3 5.77979
50659.5 5.72798
50696.6 5.68120
50760.8 5.60938
50825.0 5.54559
50889.2 5.48715
50953.4 5.43204
51020.9 5.37582
51088.5 5.31985
51156.1 5.26244
51223.6 5.20192
51281.1 5.14639
51338.5 5.08536
51395.9 5.01678
51453.4 4.93720
51490.5 4.87778
51527.7 4.81005
51564.8 4.73150
51602.0 4.63857
51642.5 4.51475
51662.8 4.44087
51683.1 4.35665
51701.7 4.26815
51720.2 4.16628
51738.8 4.04750
51757.4 3.90699
51770.9 3.78733
51784.4 3.64925
51797.9 3.48821
51804.7 3.39689
51811.5 3.29729
51820.7 3.14429
51830.0 2.96937
51834.7 2.87211
51839.3 2.76769
51844.0 2.65482
51848.6 2.53311
51853.3 2.40099
51857.9 2.25793
51862.6 2.10210
51867.2 1.93295
51869.5 1.84250
51871.8 1.74858
51874.2 1.65074
51876.5 1.54892
51878.8 1.44266
51881.1 1.33298
51883.5 1.21968
51885.8 1.10321
51890.8 0.841874
51893.4 0.711445
51895.9 0.586615
51898.5 0.472596
51899.7 0.422696
51901.0 0.379978
51902.3 0.345868
51903.5 0.323528
51904.8 0.315946
51906.0 0.327414
51907.1 0.355525
51908.2 0.404566
51908.7 0.441901
51909.3 0.487772
51909.9 0.543161
51910.5 0.609159
51911.1 0.686970
51911.6 0.777925
51912.2 0.883492
51912.8 1.00303
51913.6 1.21406
51914.5 1.46658
51914.9 1.61491
51915.3 1.77348
51915.8 1.94654
51916.2 2.13510
51916.6 2.34530
51917.0 2.56849
51917.4 2.81048
51917.9 3.07243
51918.3 3.36256
51918.7 3.66862
51919.1 3.99833
51919.6 4.35293
51920.1 4.89548
51920.7 5.48233
51921.3 6.12532
51921.9 6.82728
51922.5 7.59077
51923.0 8.41796
51923.6 9.31049
51924.2 10.2694
51924.7 11.1497
51925.2 12.0604
51925.7 13.0178
51926.2 14.0207
51926.7 15.0676
51927.2 16.1561
51927.6 17.2834
51928.1 18.4461
51928.8 20.1356
51929.5 21.8489
51930.9 25.3588
51932.2 28.8646
51933.6 32.2132
51934.2 33.6224
51934.8 34.9339
51935.4 36.1788
51936.0 37.3053
51936.9 38.8071
51937.8 40.0366
51938.7 40.9763
51939.6 41.6182
51940.2 41.8552
51940.7 41.9935
51941.2 42.0359
51941.8 41.9878
51942.8 41.6333
51943.9 40.9791
51944.9 40.0629
51946.0 38.9546
51947.0 37.6986
51948.1 36.3436
51950.2 33.4106
51952.4 30.5442
51953.5 29.1893
51954.6 27.9044
51955.6 26.6962
51956.7 25.5672
51957.8 24.5079
51958.9 23.5353
51960.0 22.6354
51961.1 21.8038
51962.1 21.0286
51963.2 20.3190
51964.3 19.6626
51965.4 19.0548
51966.5 18.4862
51967.6 17.9633
51969.7 17.0236
51971.9 16.2053
51974.0 15.4879
51976.0 14.9074
51978.0 14.3868
51979.9 13.9177
51981.9 13.4950
51983.9 13.1088
51985.8 12.7563
51987.8 12.4334
51989.8 12.1382
51991.9 11.8381
51994.1 11.5640
51998.4 11.0774
52002.8 10.6602
52007.1 10.2995
52012.2 9.93001
52017.3 9.61189
52022.4 9.33425
52027.5 9.09067
52036.2 8.73875
52044.9 8.44713
52053.5 8.20138
52062.2 7.99149
52070.8 7.80994
52079.5 7.65169
52088.1 7.51238
52096.8 7.38893
52114.1 7.17918
52131.4 7.00769
52148.7 6.86489
52166.0 6.74403
52183.3 6.64033
52200.6 6.55029
52235.2 6.40146
52266.7 6.29304
52298.2 6.20279
52329.6 6.12645
52361.1 6.06087
52395.7 5.99842
52430.3 5.94406
52499.6 5.85353
52568.8 5.78053
52638.0 5.71975
52707.3 5.66791
52776.5 5.62281
52896.1 5.55661
53015.7 5.50085
53135.2 5.45244
53254.8 5.40932
53481.4 5.33815
53708.0 5.27589
54161.1 5.16700
54765.3 5.03832
55168.2 4.95685
55571.0 4.87621
55973.8 4.79491
56376.6 4.71178
56653.5 4.65310
56930.4 4.59301
57068.9 4.56249
57207.4 4.53174
57345.8 4.50096
57484.3 4.47047
57559.8 4.45424
57635.3 4.43849
57710.9 4.42363
57786.4 4.41002
57852.5 4.39995
57885.5 4.39584
57918.5 4.39261
57951.6 4.39051
57984.6 4.38986
58017.7 4.39125
58050.7 4.39525
58085.3 4.40374
58119.9 4.41863
58137.3 4.42952
58154.6 4.44357
58171.9 4.46172
58189.2 4.48516
58206.5 4.51594
58223.8 4.55708
58241.1 4.61301
58258.4 4.69114
58269.4 4.75789
58280.4 4.84348
58291.5 4.95631
58297.0 5.02673
58302.5 5.10912
58309.9 5.24598
58313.7 5.32797
58317.4 5.42094
58321.2 5.52753
58324.9 5.65022
58328.6 5.79250
58332.4 5.95848
58336.7 6.18918
58338.9 6.32372
58341.0 6.47273
58343.2 6.63997
58345.4 6.82676
58347.5 7.03731
58349.7 7.27585
58351.3 7.47107
58352.8 7.68512
58354.4 7.92366
58356.0 8.18713
58357.6 8.48307
58359.1 8.81274
58360.7 9.18391
58362.3 9.60392
58363.4 9.92892
58364.4 10.2819
58365.5 10.6698
58366.6 11.0974
58367.7 11.5746
58368.8 12.0993
58369.8 12.6831
58370.9 13.3348
58372.0 14.0717
58373.1 14.8924
58374.2 15.8170
58375.3 16.8612
58375.8 17.4336
58376.3 18.0427
58376.9 18.6910
58377.4 19.3812
58378.0 20.1159
58378.5 20.8978
58379.0 21.7299
58379.6 22.6149
58380.3 23.9186
58381.1 25.3337
58381.8 26.8663
58382.5 28.4985
58383.3 30.2789
58384.0 32.1880
58384.7 34.2258
58385.5 36.3593
58386.6 39.7270
58387.6 43.3160
58388.7 47.0742
58389.8 50.9295
58391.4 56.7935
58392.3 59.6229
58393.1 62.2659
58393.9 64.7291
58394.7 66.8973
58395.6 68.7489
58396.4 70.2370
58397.0 71.1438
58397.7 71.7660
58398.4 72.1112
58399.0 72.1626
58399.9 71.7886
58400.7 70.9207
58401.6 69.5831
58402.4 67.8360
58403.3 65.6861
58404.2 63.2086
58405.0 60.4660
58405.9 57.5591
58407.7 51.0796
58409.4 44.5499
58410.3 41.3854
58411.2 38.3881
58412.1 35.5505
58413.0 32.8917
58414.0 30.2368
58414.9 27.8079
58415.4 26.6776
58415.9 25.6023
58416.4 24.5809
58416.9 23.6118
58417.3 22.6935
58417.8 21.8240
58418.3 21.0016
58418.8 20.2241
58419.3 19.4895
58419.7 18.7957
58420.2 18.1406
58420.7 17.5223
58421.7 16.3877
58422.6 15.3764
58423.6 14.4742
58424.5 13.6682
58425.5 12.9467
58426.5 12.2996
58427.4 11.7176
58428.4 11.1982
58429.4 10.6813
58430.5 10.2171
58431.5 9.79893
58432.6 9.42441
58433.6 9.08153
58434.6 8.77270
58435.7 8.48837
58436.7 8.23091
58437.7 8.01229
58438.7 7.81010
58440.6 7.44880
58442.5 7.13636
58444.4 6.86574
58446.3 6.62746
58448.2 6.41872
58450.2 6.23302
58452.1 6.06880
58454.9 5.85981
58457.6 5.68121
58460.4 5.52741
58463.2 5.39404
58466.0 5.27761
58468.8 5.17537
58474.4 5.00537
58478.6 4.90118
58482.7 4.81302
58486.9 4.73746
58491.1 4.67252
58499.5 4.56695
58507.8 4.48574
58515.5 4.42636
58523.2 4.37784
58530.9 4.33770
58538.5 4.30408
58553.9 4.25122
58569.2 4.21178
58585.2 4.18019
58601.3 4.15504
58617.3 4.13455
58633.4 4.11742
58649.4 4.10271
58665.4 4.08983
58697.5 4.06793
58721.2 4.05386
58744.9 4.04102
58768.6 4.02905
58792.3 4.01769
58839.8 3.99617
58887.2 3.97535
58934.6 3.95485
58982.0 3.93435
59029.4 3.91364
59076.8 3.89259
59138.2 3.86465
59199.5 3.83586
59322.3 3.77505
59445.0 3.70925
59567.7 3.63742
59612.3 3.60955
59735.0 3.52735
59857.7 3.43561
59980.5 3.33212
60103.2 3.21372
60209.2 3.09580
60315.1 2.95980
60368.1 2.88341
60421.1 2.79999
60474.1 2.70898
60527.1 2.60862
60588.5 2.47878
60619.1 2.40753
60649.8 2.33138
60680.5 2.24999
60711.2 2.16258
60741.9 2.06855
60772.5 1.96727
60808.8 1.83676
60826.9 1.76712
60845.1 1.69371
60863.2 1.61663
60881.3 1.53567
60899.5 1.45064
60917.6 1.36138
60932.9 1.28236
60948.3 1.20011
60963.6 1.11461
60978.9 1.02591
60994.3 0.934153
61009.6 0.839650
61040.3 0.644818
61062.6 0.502270
61073.8 0.432808
61084.9 0.366141
61090.5 0.334301
61096.1 0.303885
61101.7 0.275180
61107.2 0.248566
61112.8 0.224355
61118.4 0.203073
61124.0 0.185277
61129.5 0.171636
61135.1 0.162854
61140.7 0.159828
61145.2 0.162283
61149.8 0.169776
61154.3 0.183059
61158.8 0.203037
61163.4 0.230689
61167.9 0.267073
61172.4 0.313398
61174.7 0.340784
61177.0 0.371072
61180.8 0.430049
61184.6 0.499271
61188.5 0.580359
61190.4 0.625729
61192.3 0.674306
61194.2 0.726806
61196.1 0.783201
61198.1 0.843723
61200.0 0.908269
61201.9 0.977773
61203.8 1.05219
61205.7 1.13180
61207.6 1.21646
61210.3 1.34206
61212.9 1.47886
61215.5 1.62888
61218.1 1.79204
61220.7 1.97077
61223.3 2.16495
61225.9 2.37746
61228.6 2.60810
61230.5 2.79074
61232.4 2.98510
61234.3 3.19188
61236.2 3.41062
61238.1 3.64438
61240.1 3.89153
61242.0 4.15552
61243.9 4.43447
61246.6 4.85513
61249.2 5.31233
61251.9 5.80877
61254.6 6.34510
61257.3 6.92815
61260.0 7.55890
61262.6 8.24037
61265.3 8.97276
61267.9 9.74306
61270.5 10.5664
61273.1 11.4512
61275.7 12.3925
61278.3 13.3987
61280.9 14.4626
61283.5 15.5877
61286.1 16.7723
61288.5 17.9017
61290.9 19.0752
61295.6 21.5321
61300.3 24.1094
61305.1 26.7343
61309.8 29.3398
61314.5 31.8248
61319.3 34.1013
61321.6 35.1356
61324.0 36.0817
61326.4 36.9393
61328.7 37.6973
61331.1 38.3506
61333.5 38.8936
61335.8 39.3296
61338.2 39.6564
61340.6 39.8758
61342.9 39.9914
61345.8 40.0016
61348.6 39.8829
61351.4 39.6470
61354.2 39.3063
61357.0 38.8738
61359.8 38.3629
61365.4 37.1594
61371.0 35.7932
61376.7 34.3379
61387.9 31.3726
61397.0 29.0928
61406.0 26.9914
61415.1 25.0930
61419.6 24.2194
61424.1 23.3971
61433.2 21.8902
61442.2 20.5540
61451.3 19.3686
61460.3 18.3153
61468.1 17.4991
61475.9 16.7590
61483.8 16.0851
61491.6 15.4709
61499.4 14.9086
61507.2 14.3933
61515.0 13.9198
61522.8 13.4842
61531.9 13.0208
61540.9 12.5970
61550.0 12.2081
61559.0 11.8502
61568.1 11.5201
61577.1 11.2147
61595.2 10.6686
61608.4 10.3172
61621.6 9.99918
61634.7 9.71035
61647.9 9.44678
61661.1 9.20434
61674.2 8.98160
61700.5 8.58616
61718.7 8.34692
61736.8 8.13031
61754.9 7.93322
61773.0 7.75319
61809.2 7.43623
61845.4 7.16631
61876.6 6.96474
61907.9 6.78486
61939.2 6.62474
61970.4 6.48153
62032.9 6.23576
62095.5 6.03318
62167.9 5.84098
62240.3 5.68466
62312.7 5.55784
62385.1 5.45702
62477.2 5.36444
62523.3 5.33358
62569.4 5.31423
62641.8 5.31237
62678.0 5.32814
62714.2 5.35875
62742.2 5.39545
62770.1 5.44690
62798.1 5.51742
62826.1 5.61439
62844.2 5.69609
62862.3 5.79761
62880.4 5.92513
62898.5 6.08772
62910.0 6.21540
62921.5 6.36734
62933.0 6.55084
62944.5 6.77522
62953.6 6.98901
62962.6 7.24558
62967.2 7.39389
62971.7 7.55773
62976.2 7.74026
62980.7 7.94365
62984.2 8.11797
62987.7 8.30914
62991.2 8.51945
62994.7 8.75093
62998.2 9.00818
63001.7 9.29456
63005.2 9.61498
63008.7 9.97425
63011.0 10.2326
63013.3 10.5117
63015.5 10.8154
63017.8 11.1466
63020.0 11.5106
63022.3 11.9083
63024.6 12.3462
63026.8 12.8298
63029.1 13.3685
63031.4 13.9656
63033.6 14.6329
63035.9 15.3819
63038.1 16.2303
63040.4 17.1876
63041.5 17.7146
63042.7 18.2777
63043.8 18.8801
63044.9 19.5255
63046.2 20.2878
63047.4 21.1055
63048.6 21.9984
63049.9 22.9589
63051.1 24.0107
63052.3 25.1450
63053.6 26.3791
63054.8 27.7227
63055.9 29.0747
63057.1 30.5245
63058.2 32.0919
63059.3 33.7846
63060.5 35.6100
63061.6 37.5742
63062.7 39.6817
63063.8 41.9345
63065.0 44.4185
63066.2 47.0502
63067.4 49.8174
63068.5 52.7005
63073.2 64.7036
63074.4 67.7404
63075.7 70.5721
63076.9 73.1133
63078.2 75.2633
63079.4 76.9779
63080.6 78.1685
63081.9 78.7810
63083.1 78.7831
63084.0 78.3948
63084.7 77.8843
63085.4 77.1909
63086.0 76.3205
63086.7 75.2973
63088.1 72.7752
63089.4 69.7168
63090.8 66.2311
63092.1 62.4361
63094.8 54.3860
63097.3 46.8914
63098.6 43.3447
63099.9 39.9804
63101.1 36.8022
63102.4 33.8760
63103.7 31.1821
63104.9 28.7187
63105.6 27.5535
63106.2 26.4444
63106.8 25.3897
63107.5 24.4030
63108.1 23.4510
63108.7 22.5476
63109.4 21.6909
63110.0 20.8911
63110.7 20.1207
63111.3 19.3907
63112.6 18.0536
63113.8 16.8521
63115.1 15.7719
63116.4 14.7927
63117.7 13.9178
63118.9 13.1226
63120.2 12.4099
63121.5 11.7601
63122.8 11.1758
63124.0 10.6411
63125.3 10.1585
63126.4 9.77519
63127.5 9.42094
63128.6 9.09312
63129.7 8.78937
63130.8 8.50754
63131.9 8.24575
63133.0 8.00226
63134.1 7.77553
63136.3 7.36691
63138.5 7.01031
63140.7 6.69785
63142.9 6.42307
63145.5 6.14466
63148.0 5.90278
63150.6 5.69177
63153.1 5.50702
63155.7 5.34469
63158.2 5.20160
63160.8 5.07511
63163.3 4.96299
63166.8 4.82983
63170.3 4.71636
63173.7 4.61876
63177.2 4.53502
63180.7 4.46249
63184.2 4.39987
63191.1 4.29811
63197.1 4.23013
63203.2 4.17675
63209.2 4.13473
63215.2 4.10186
63227.3 4.05667
63239.3 4.03062
63254.1 4.01581
63268.0 4.01352
63281.9 4.01871
63309.7 4.04330
63337.5 4.07915
63365.3 4.12218
63402.4 4.18832
63439.5 4.26420
63480.3 4.36092
63521.0 4.47524
63561.8 4.61262
63602.6 4.78044
63623.0 4.87885
63643.4 4.98892
63663.8 5.11258
63684.2 5.25212
63704.5 5.41018
63724.9 5.59014
63745.3 5.79598
63765.7 6.03261
63778.7 6.20208
63791.7 6.38828
63804.6 6.59338
63817.6 6.81861
63830.6 7.06974
63843.6 7.34885
63856.5 7.66036
63869.5 8.00868
63879.7 8.31239
63889.9 8.64556
63900.1 9.01268
63910.3 9.41750
63920.5 9.86599
63930.7 10.3634
63940.9 10.9177
63951.1 11.5364
63959.4 12.0987
63967.8 12.7169
63976.1 13.3992
63984.4 14.1544
63992.8 14.9928
64001.1 15.9261
64009.5 16.9725
64013.6 17.5473
64017.8 18.1639
64022.7 18.9543
64025.1 19.3958
64027.5 19.8920
64030.0 20.4950
64031.2 20.8617
64032.4 21.2880
64033.6 21.7995
64034.8 22.4074
64036.1 23.1410
64037.3 24.0029
64038.0 24.6161
64038.8 25.2749
64040.3 26.7380
64043.3 30.0068
64044.7 31.4621
64046.1 32.7258
64046.8 33.2478
64047.5 33.6847
64048.1 34.0238
64048.8 34.2664
64049.0 34.3166
64049.7 34.4372
64050.5 34.4459
64051.2 34.3527
64051.9 34.1668
64053.1 33.6651
64054.3 32.9947
64057.6 30.9415
64058.9 30.2311
64060.3 29.6685
64061.6 29.2731
64062.9 29.0444
64064.0 28.9689
64065.0 28.9758
64067.1 29.1866
64069.2 29.5850
64071.3 30.1016
64075.5 31.3338
64079.7 32.7199
64083.9 34.2268
64088.1 35.8432
64092.3 37.5686
64096.5 39.4001
64100.3 41.1536
64104.1 42.9956
64107.9 44.9362
64111.6 46.9645
64119.2 51.2969
64126.8 55.9551
64141.9 65.8980
64149.5 70.8782
64157.0 75.5542
64160.8 77.6730
64164.5 79.6036
64168.3 81.3187
64172.0 82.7738
64175.8 83.9445
64179.5 84.7975
64183.3 85.3169
64187.0 85.4874
64191.1 85.2749
64195.1 84.6549
64199.2 83.6451
64203.2 82.2738
64207.3 80.5777
64211.4 78.5997
64215.4 76.3864
64219.5 73.9918
64227.6 68.8160
64235.7 63.4311
64243.8 58.0834
64251.9 52.9616
64257.6 49.5608
64263.4 46.3565
64269.1 43.3577
64274.8 40.5723
64280.5 37.9873
64286.2 35.6035
64291.9 33.4020
64297.6 31.3787
64302.9 29.6492
64308.1 28.0517
64313.4 26.5704
64318.7 25.2017
64324.0 23.9317
64329.2 22.7570
64334.5 21.6675
64339.8 20.6563
64344.3 19.8399
64348.9 19.0758
64353.4 18.3566
64358.0 17.6811
64362.6 17.0429
64367.1 16.4424
64371.7 15.8759
64376.2 15.3413
64385.3 14.3581
64394.4 13.4784
64403.5 12.6886
64412.6 11.9782
64423.2 11.2399
64433.7 10.5810
64444.3 9.99085
64454.8 9.46072
64465.4 8.98195
64475.9 8.54894
64486.5 8.15530
64497.0 7.79703
64508.5 7.44096
64520.0 7.11749
64531.5 6.82216
64543.0 6.55217
64554.5 6.30419
64566.0 6.07631
64577.5 5.86686
64589.0 5.67242
64610.1 5.35067
64631.2 5.06824
64652.3 4.81836
64673.4 4.59579
64694.5 4.39600
64715.6 4.21577
64736.7 4.05209
64757.8 3.90255
64778.9 3.76518
64800.0 3.63838
64821.1 3.52070
64842.2 3.41099
64884.3 3.21140
64926.5 3.03320
64963.0 2.89269
64999.4 2.76229
65035.8 2.63942
65072.3 2.52296
65145.1 2.30376
65218.0 2.09657
65325.4 1.80123
65432.7 1.50619
65520.9 1.25742
65565.0 1.12980
65609.1 0.999899
65697.4 0.734546
65741.5 0.601090
65785.6 0.470050
65801.9 0.423062
65818.2 0.377290
65834.5 0.333112
65850.8 0.290983
65867.1 0.251453
65875.2 0.232800
65883.4 0.215017
65891.5 0.198326
65899.7 0.182801
65907.8 0.168551
65915.9 0.155736
65927.5 0.140348
65939.0 0.128642
65944.7 0.124340
65950.5 0.121195
65956.2 0.119287
65962.0 0.118714
65972.0 0.121242
65977.1 0.124358
65982.1 0.128809
65987.1 0.134707
65992.2 0.142125
65997.2 0.151180
66002.2 0.161983
66007.3 0.174682
66012.3 0.189356
66017.3 0.206201
66022.4 0.225298
66027.4 0.246872
66032.4 0.270978
66037.5 0.297813
66042.5 0.327615
66047.8 0.362400
66053.1 0.400958
66058.3 0.443600
66063.6 0.490614
66068.9 0.542429
66074.1 0.599204
66079.4 0.661418
66084.7 0.729485
66090.0 0.804003
66095.2 0.885174
66100.5 0.973835
66105.8 1.07022
66111.1 1.17531
66116.3 1.28937
66121.6 1.41331
66126.9 1.54791
66132.2 1.69430
66137.4 1.85283
66142.7 2.02475
66148.0 2.21112
66153.2 2.41346
66158.5 2.63226
66163.8 2.86919
66169.1 3.12568
66174.3 3.40379
66179.6 3.70409
66184.9 4.02947
66190.2 4.38053
66195.4 4.76057
66200.7 5.17019
66206.0 5.61223
66211.2 6.08893
66216.5 6.60561
66221.8 7.16095
66227.1 7.75828
66232.4 8.39993
66237.7 9.08952
66243.0 9.82657
66248.3 10.6142
66253.6 11.4541
66257.9 12.1848
66262.3 12.9506
66266.6 13.7553
66271.0 14.5945
66275.3 15.4706
66279.7 16.3778
66288.3 18.2871
66297.0 20.3026
66305.7 22.3921
66323.1 26.6069
66330.8 28.4005
66338.6 30.0779
66346.3 31.5988
66354.0 32.9188
66358.8 33.6289
66363.7 34.2425
66368.5 34.7554
66373.3 35.1654
66378.2 35.4719
66383.0 35.6764
66387.8 35.7818
66392.6 35.7926
66398.4 35.6902
66404.1 35.4730
66409.9 35.1533
66415.6 34.7448
66427.1 33.7083
66438.5 32.4599
66461.5 29.6966
66484.4 26.9088
66501.4 24.9878
66518.4 23.2447
66526.9 22.4466
66535.4 21.6989
66543.9 21.0024
66552.4 20.3578
66564.3 19.5439
66576.2 18.8369
66588.1 18.2479
66594.1 18.0028
66600.0 17.7945
66610.2 17.5370
66615.3 17.4641
66620.4 17.4364
66626.8 17.4779
66633.2 17.6246
66636.4 17.7472
66639.5 17.9095
66642.7 18.1181
66645.9 18.3801
66648.3 18.6130
66650.6 18.8851
66652.9 19.2020
66655.3 19.5688
66657.6 19.9963
66659.9 20.4928
66662.3 21.0695
66664.6 21.7371
66666.5 22.3687
66668.4 23.0815
66670.4 23.8912
66672.3 24.8123
66674.2 25.8679
66676.1 27.0671
66678.0 28.4378
66679.9 30.0061
66681.1 31.0767
66682.3 32.2393
66683.4 33.5014
66684.6 34.8703
66685.8 36.3534
66686.9 37.9575
66688.1 39.6888
66689.3 41.5358
66690.5 43.7108
66691.8 46.0464
66693.1 48.5397
66694.3 51.1820
66695.6 53.9588
66696.9 56.8476
66699.4 62.8079
66702.6 70.1460
66704.1 73.5359
66705.7 76.5453
66707.3 79.0868
66708.1 80.1380
66708.9 81.0156
66709.7 81.7315
66710.4 82.2590
66711.2 82.6052
66712.0 82.7571
66712.9 82.7040
66713.7 82.4250
66714.6 81.9181
66715.4 81.2026
66716.3 80.2725
66717.1 79.1625
66718.0 77.8786
66718.8 76.4377
66720.5 73.1398
66722.2 69.4643
66725.7 61.5134
66728.5 54.9652
66729.9 51.8483
66731.3 48.9033
66732.7 46.1089
66734.1 43.4983
66735.5 41.0754
66736.9 38.8534
66738.3 36.8085
66739.7 34.9316
66741.1 33.2121
66742.5 31.6492
66743.9 30.2086
66745.3 28.8996
66746.7 27.6921
66748.1 26.5933
66749.5 25.5776
66750.9 24.6510
66752.3 23.7920
66753.7 23.0059
66755.1 22.2748
66756.5 21.6033
66757.9 20.9767
66759.2 20.3991
66762.0 19.3578
66764.8 18.4508
66767.6 17.6556
66770.4 16.9539
66773.2 16.3309
66776.0 15.7746
66778.8 15.2754
66781.6 14.8249
66784.4 14.4165
66787.1 14.0446
66789.9 13.7045
66792.7 13.3921
66798.3 12.8378
66803.9 12.3604
66808.7 11.9977
66813.5 11.6727
66818.3 11.3790
66823.2 11.1118
66832.8 10.6421
66842.4 10.2406
66853.6 9.83890
66864.8 9.48988
66875.9 9.18130
66887.1 8.90477
66906.4 8.48594
66925.6 8.12294
66944.9 7.80245
66964.2 7.51542
66990.6 7.16497
67017.0 6.85338
67043.3 6.57325
67069.7 6.31783
67092.0 6.11829
67114.4 5.93178
67159.0 5.59177
67203.6 5.28777
67248.3 5.01263
67288.9 4.78360
67329.4 4.57047
67370.0 4.37072
67410.6 4.18287
67451.2 4.00549
67491.8 3.83692
67573.0 3.52132
67637.9 3.28630
67702.8 3.06372
67792.1 2.77429
67881.4 2.50096
67970.7 2.24185
68060.0 1.99731
68116.8 1.85056
68173.6 1.71217
68230.4 1.58524
68258.8 1.52727
68287.2 1.47394
68323.8 1.41377
68342.0 1.38801
68360.3 1.36573
68378.6 1.34746
68396.8 1.33386
68415.1 1.32573
68433.3 1.32405
68446.5 1.32752
68459.7 1.33546
68472.9 1.34820
68486.1 1.36718
68499.3 1.39304
68512.5 1.42681
68525.7 1.46979
68538.9 1.52357
68550.0 1.57899
68561.2 1.64489
68572.4 1.72304
68577.9 1.76733
68583.5 1.81550
68589.1 1.86786
68594.7 1.92479
68600.3 1.98669
68605.8 2.05402
68611.4 2.12728
68617.0 2.20703
68622.6 2.29388
68628.2 2.38848
68634.2 2.50134
68640.3 2.62550
68646.4 2.76263
68652.5 2.91405
68658.6 3.08191
68664.7 3.26767
68670.8 3.47436
68676.8 3.70409
68682.4 3.93875
68688.0 4.19844
68693.6 4.48702
68699.2 4.80856
68702.0 4.98315
68704.8 5.16783
68707.5 5.36334
68710.3 5.57048
68713.1 5.79013
68715.9 6.02322
68718.7 6.27081
68721.5 6.53402
68726.1 7.00226
68730.6 7.52083
68732.9 7.80281
68735.2 8.09919
68737.5 8.41223
68739.8 8.74309
68742.0 9.09456
68744.3 9.46495
68746.6 9.85723
68748.9 10.2731
68751.2 10.7163
68753.5 11.1851
68755.7 11.6834
68758.0 12.2137
68760.8 12.9095
68763.6 13.6618
68766.4 14.4760
68769.2 15.3579
68772.0 16.3144
68774.8 17.3527
68777.5 18.4809
68780.3 19.7075
68783.1 21.0421
68785.9 22.4946
68788.7 24.0756
68791.5 25.7961
68794.3 27.6671
68797.1 29.6995
68799.9 31.9029
68802.7 34.2855
68804.6 36.0601
68806.5 37.9157
68808.5 39.8606
68810.4 41.8923
68814.3 46.2089
68818.2 50.7798
68826.0 60.2393
68829.9 64.7502
68831.8 66.8372
68833.7 68.7700
68836.8 71.4293
68838.3 72.5442
68839.9 73.4874
68841.4 74.2587
68842.9 74.8377
68844.5 75.2225
68846.0 75.4079
68848.0 75.3465
68850.0 74.9442
68852.0 74.2121
68854.0 73.1753
68856.0 71.8489
68858.0 70.2768
68860.0 68.4778
68862.0 66.5062
68866.0 62.1444
68870.0 57.4947
68874.0 52.7844
68877.9 48.1941
68880.9 44.9735
68883.8 41.9166
68886.7 39.0420
68889.7 36.3672
68892.6 33.8748
68895.5 31.5701
68898.4 29.4453
68901.4 27.4965
68904.1 25.7994
68906.9 24.2331
68909.6 22.7878
68912.4 21.4542
68915.2 20.2230
68917.9 19.0859
68920.7 18.0348
68923.4 17.0626
68925.6 16.3588
68927.7 15.6984
68929.8 15.0755
68932.0 14.4875
68934.1 13.9294
68936.2 13.4043
68938.4 12.9074
68940.5 12.4368
68944.8 11.5660
68949.0 10.7839
68953.3 10.0782
68957.6 9.43971
68960.3 9.05830
68963.1 8.69996
68965.8 8.36298
68968.6 8.04577
68971.4 7.74692
68974.1 7.46510
68976.9 7.19912
68979.6 6.94789
68985.2 6.48570
68990.7 6.07146
68996.2 5.69916
69001.7 5.36430
69007.2 5.06134
69012.7 4.78720
69018.3 4.53870
69023.8 4.31349
69029.3 4.10838
69034.8 3.92179
69040.3 3.75206
69045.8 3.59795
69051.4 3.45725
69056.9 3.32877
69062.4 3.21155
69067.9 3.10482
69073.4 3.00781
69079.0 2.91979
69084.5 2.84010
69090.0 2.76830
69095.5 2.70361
69101.0 2.64571
69106.6 2.59418
69112.1 2.54875
69117.6 2.50892
69123.1 2.47449
69128.6 2.44520
69134.1 2.42085
69140.2 2.39959
69146.2 2.38369
69152.2 2.37294
69158.2 2.36714
69169.3 2.36887
69180.3 2.38595
69191.3 2.41775
69202.4 2.46377
69213.4 2.52380
69224.4 2.59762
69235.5 2.68514
69246.5 2.78629
69257.6 2.90135
69268.6 3.03030
69279.6 3.17361
69290.7 3.33133
69301.7 3.50410
69312.7 3.69204
69323.8 3.89595
69334.8 4.11595
69342.9 4.28929
69351.1 4.47183
69359.2 4.66445
69367.4 4.86761
69383.7 5.30395
69400.0 5.78141
69416.2 6.30411
69432.5 6.87464
69448.8 7.49482
69465.1 8.16649
69474.2 8.56490
69483.3 8.98046
69501.5 9.86382
69519.6 10.8198
69537.8 11.8488
69556.0 12.9528
69574.2 14.1302
69592.3 15.3806
69610.5 16.7027
69636.9 18.7380
69663.4 20.8837
69716.3 25.3829
69742.7 27.6498
69769.1 29.8590
69795.6 31.9555
69822.0 33.8856
69845.1 35.4015
69868.3 36.7264
69891.4 37.8454
69914.5 38.7495
69937.7 39.4381
69960.8 39.9147
69983.9 40.1886
70007.1 40.2741
70041.0 40.0994
70074.8 39.6348
70108.7 38.9497
70142.6 38.1003
70210.4 36.1213
70278.1 34.0310
70319.6 32.7904
70361.0 31.6186
70404.5 30.4891
70447.9 29.4895
70491.4 28.6509
70513.2 28.3056
70534.9 28.0176
70559.8 27.7774
70584.6 27.6520
70607.4 27.6660
70630.2 27.8413
70641.6 28.0058
70652.9 28.2329
70664.3 28.5340
70675.7 28.9223
70689.2 29.5165
70702.6 30.2899
70709.4 30.7592
70716.1 31.2917
70722.8 31.8945
70729.6 32.5760
70735.3 33.2214
70740.9 33.9341
70746.6 34.7229
70752.3 35.5912
70758.0 36.5484
70763.7 37.5970
70769.4 38.7435
70775.1 39.9917
70783.0 41.8994
70790.9 43.9935
70798.8 46.2487
70806.8 48.6087
70822.6 53.2590
70830.5 55.2778
70834.5 56.1371
70838.4 56.8667
70842.1 57.4130
70845.7 57.8249
70849.4 58.0943
70853.0 58.2165
70858.0 58.1450
70863.0 57.8094
70868.0 57.2366
70873.0 56.4672
70882.9 54.5599
70887.9 53.5641
70892.9 52.6646
70898.2 51.9654
70900.9 51.7831
70903.5 51.7680
70906.4 52.0193
70907.9 52.2838
70909.4 52.6612
70910.8 53.1783
70912.3 53.8581
70913.8 54.7295
70915.2 55.8164
70916.9 57.3213
70918.5 59.1717
70920.1 61.4146
70921.7 64.0751
70923.3 67.1754
70924.9 70.6442
70926.5 74.4218
70928.1 78.3796
70930.2 83.3433
70931.2 85.6741
70932.2 87.8311
70933.2 89.7520
70934.2 91.3775
70935.2 92.6537
70936.2 93.5355
70937.1 93.9582
70938.0 94.0347
70939.0 93.6966
70940.0 92.9187
70941.0 91.7186
70942.0 90.1281
70943.0 88.1687
70944.0 85.9306
70945.0 83.4525
70946.0 80.7939
70949.8 70.1865
70951.7 65.0470
70953.5 60.3413
70954.5 58.0752
70955.5 55.9775
70956.4 54.0260
70957.4 52.2186
70958.4 50.5343
70959.4 49.0004
70960.3 47.5909
70961.3 46.2969
70962.3 45.0974
70963.3 44.0077
70965.2 42.0842
70967.1 40.4489
70969.1 39.0469
70970.8 37.9331
70972.6 36.9487
70974.4 36.0717
70976.1 35.2884
70979.7 33.9273
70983.2 32.7893
70987.1 31.7227
70991.0 30.8046
70994.9 30.0008
70998.8 29.2892
71005.8 28.1699
71012.9 27.2232
71020.0 26.4053
71027.0 25.6885
71035.5 24.9320
71044.0 24.2668
71052.5 23.6758
71061.0 23.1459
71076.5 22.3000
71092.1 21.5828
71107.6 20.9648
71123.1 20.4252
71141.5 19.8665
71159.9 19.3766
71178.3 18.9423
71196.7 18.5522
71227.8 17.9719
71258.8 17.4703
71289.9 17.0284
71321.0 16.6335
71369.1 16.0945
71417.2 15.6228
71465.2 15.2014
71513.3 14.8208
71575.5 14.3766
71637.7 13.9765
71699.9 13.6124
71762.0 13.2786
71886.4 12.6844
72010.8 12.1679
72135.2 11.7121
72259.6 11.3060
72440.5 10.7875
72564.9 10.4725
72689.3 10.1866
72813.7 9.92737
72938.1 9.69460
73022.9 9.55199
73107.7 9.42413
73192.5 9.31339
73277.3 9.22573
73367.8 9.16835
73407.3 9.16018
73446.9 9.16615
73486.5 9.19170
73526.1 9.24397
73552.9 9.30046
73579.8 9.38028
73606.6 9.49190
73633.5 9.64781
73649.0 9.76678
73664.6 9.91391
73680.1 10.0979
73695.7 10.3312
73707.0 10.5424
73718.3 10.7997
73729.6 11.1175
73735.3 11.3055
73740.9 11.5175
73748.7 11.8568
73756.5 12.2640
73760.4 12.4995
73764.2 12.7605
73768.1 13.0507
73772.0 13.3740
73778.0 13.9549
73781.0 14.2884
73784.0 14.6563
73787.0 15.0651
73790.0 15.5183
73793.0 16.0243
73796.0 16.5921
73799.9 17.4376
73801.9 17.9161
73803.8 18.4339
73805.8 19.0015
73807.7 19.6187
73809.6 20.2950
73811.6 21.0379
73813.5 21.8605
73815.5 22.7644
73817.4 23.7708
73819.4 24.8824
73821.3 26.1261
73823.3 27.5060
73825.2 29.0558
73827.1 30.7802
73829.1 32.7192
73831.0 34.8751
73833.0 37.2779
73834.9 39.9441
73836.9 42.8824
73838.8 46.0889
73840.7 49.5413
73842.7 53.1930
73846.2 60.0766
73848.0 63.4353
73849.7 66.5869
73851.5 69.3947
73853.2 71.7179
73854.1 72.6557
73855.0 73.4239
73855.9 74.0096
73856.8 74.4017
73857.8 74.6061
73858.9 74.4963
73860.0 74.0693
73860.8 73.5351
73861.6 72.8342
73862.4 71.9672
73863.3 70.9425
73864.9 68.4446
73866.5 65.4691
73868.1 62.0944
73869.8 58.4826
73873.0 50.9277
73874.7 47.1417
73876.3 43.5207
73877.9 40.0780
73879.6 36.8927
73881.2 33.9463
73882.1 32.5809
73882.9 31.2810
73883.7 30.0457
73884.5 28.8736
73885.3 27.7632
73886.2 26.7124
73887.0 25.6603
73887.9 24.6810
73888.8 23.7488
73889.6 22.8824
73890.5 22.0584
73891.3 21.2930
73892.2 20.5655
73893.1 19.8898
73894.8 18.6506
73896.5 17.5556
73898.3 16.5867
73900.0 15.7278
73901.7 14.9610
73903.5 14.2826
73905.2 13.6775
73906.9 13.1365
73908.7 12.6517
73910.4 12.2164
73912.1 11.8245
73913.8 11.4711
73916.5 10.9892
73919.2 10.5765
73921.9 10.2189
73924.5 9.90999
73927.2 9.63996
73929.9 9.40485
73932.6 9.19792
73935.2 9.01661
73938.7 8.81250
73942.2 8.63887
73945.6 8.49017
73949.1 8.36242
73956.0 8.15733
73962.9 8.00399
73968.6 7.90739
73974.3 7.83122
73985.6 7.72382
73996.9 7.65929
74008.2 7.62430
74013.3 7.61584
74029.7 7.61081
74046.0 7.63138
74062.4 7.67078
74078.7 7.72492
74098.9 7.80939
74119.0 7.91290
74146.7 8.08827
74174.4 8.30795
74202.1 8.58282
74215.9 8.74572
74229.8 8.92866
74243.6 9.13490
74257.5 9.36785
74271.3 9.63175
74285.2 9.93139
74299.0 10.2732
74312.9 10.6641
74326.7 11.1132
74340.6 11.6307
74350.6 12.0577
74360.7 12.5340
74370.8 13.0663
74380.8 13.6626
74390.9 14.3306
74401.0 15.0831
74411.0 15.9354
74421.1 16.9013
74428.0 17.6412
74435.0 18.4487
74441.9 19.3338
74448.8 20.3021
74455.7 21.3658
74462.7 22.5320
74469.6 23.8132
74476.5 25.2216
74483.6 26.8148
74490.7 28.5684
74497.8 30.5027
74504.9 32.6276
74512.0 34.9637
74519.1 37.5171
74526.2 40.2988
74533.3 43.3105
74538.0 45.4245
74542.7 47.6285
74552.1 52.2732
74570.8 62.0241
74580.2 66.7202
74584.8 68.8913
74589.5 70.8893
74594.2 72.6711
74598.9 74.1962
74603.6 75.4278
74608.2 76.3361
74614.0 76.9785
74619.8 77.0779
74624.5 76.7592
74629.1 76.0977
74633.8 75.1156
74638.5 73.8430
74643.2 72.3118
74647.9 70.5677
74657.2 66.5915
74676.0 57.7416
74685.3 53.3259
74694.7 49.1159
74701.3 46.2939
74708.0 43.6365
74714.7 41.1428
74721.3 38.8212
74728.0 36.6604
74734.6 34.6597
74741.3 32.8047
74747.9 31.0913
74754.3 29.5688
74760.7 28.1585
74767.0 26.8494
74773.4 25.6336
74779.8 24.5035
74786.2 23.4519
74792.5 22.4725
74798.9 21.5595
74804.7 20.7819
74810.5 20.0526
74822.1 18.7147
74833.7 17.5203
74845.2 16.4516
74856.8 15.4889
74868.4 14.6189
74880.0 13.8273
74891.6 13.1046
74904.3 12.3768
74917.1 11.7106
74929.8 11.0961
74942.6 10.5269
74955.3 9.99549
74968.1 9.49736
74980.8 9.02691
74993.5 8.58077
75006.3 8.15464
75019.0 7.74605
75044.5 6.96951
75070.0 6.23317
75095.5 5.52438
75123.3 4.77354
75151.1 4.04887
75169.6 3.59022
75178.9 3.37358
75188.2 3.16929
75197.5 2.98129
75202.1 2.89514
75206.7 2.81581
75211.4 2.74401
75216.0 2.68122
75220.6 2.62861
75225.3 2.58777
75229.9 2.56047
75234.5 2.54890
75238.0 2.55197
75241.5 2.56650
75245.0 2.59385
75248.4 2.63541
75251.9 2.69304
75255.4 2.76818
75258.9 2.86325
75262.3 2.97988
75265.5 3.10843
75268.7 3.25952
75271.9 3.43542
75273.5 3.53312
75275.1 3.63791
75276.7 3.75086
75278.3 3.87092
75279.9 3.99995
75281.5 4.13673
75283.1 4.28337
75284.7 4.43844
75286.2 4.60326
75287.8 4.77825
75289.4 4.96145
75291.0 5.15417
75292.5 5.35798
75294.1 5.57334
75295.7 5.80219
75297.2 6.04211
75298.8 6.29497
75300.3 6.56127
75301.9 6.84333
75303.5 7.13804
75305.0 7.44764
75306.6 7.77262
75308.2 8.11567
75309.7 8.47290
75312.8 9.23805
75315.9 10.0624
75319.0 10.9581
75322.1 11.9275
75325.1 12.9684
75328.2 14.0883
75331.3 15.2794
75334.4 16.5474
75337.4 17.8805
75341.6 19.8057
75345.8 21.8247
75354.2 26.0527
75362.6 30.2911
75366.8 32.3142
75371.0 34.2111
75375.5 36.0624
75380.0 37.6898
75384.4 39.0722
75388.9 40.1870
75393.4 41.0343
75397.9 41.6164
75402.3 41.9513
75406.8 42.0594
75410.1 42.0103
75413.4 41.8649
75419.9 41.3307
75426.5 40.5442
75433.0 39.5849
75446.1 37.3870
75459.3 35.0970
75474.5 32.5633
75482.1 31.3874
75489.8 30.2824
75497.4 29.2463
75505.0 28.2804
75512.6 27.3801
75520.2 26.5418
75530.0 25.5568
75539.7 24.6578
75549.4 23.8346
75559.1 23.0819
75568.8 22.3916
75578.5 21.7557
75588.2 21.1682
75597.9 20.6251
75613.1 19.8505
75628.4 19.1598
75643.6 18.5408
75658.9 17.9833
75674.1 17.4787
75689.4 17.0201
75704.6 16.6016
75719.9 16.2185
75749.0 15.5721
75778.1 15.0119
75807.2 14.5248
75836.3 14.0962
75865.4 13.7164
75894.5 13.3780
75923.7 13.0740
75952.8 12.7992
76008.2 12.3435
76063.7 11.9585
76119.1 11.6295
76174.6 11.3453
76235.6 11.0754
76296.6 10.8434
76357.6 10.6443
76418.6 10.4760
76454.6 10.3910
76490.6 10.3172
76526.7 10.2566
76562.7 10.2116
76590.5 10.1904
76618.2 10.1844
76645.9 10.1991
76673.6 10.2435
76688.9 10.2864
76704.1 10.3473
76719.4 10.4326
76734.6 10.5517
76745.0 10.6597
76755.4 10.7968
76765.8 10.9732
76776.2 11.2037
76783.9 11.4201
76791.5 11.6902
76799.1 12.0327
76802.9 12.2391
76806.7 12.4747
76811.6 12.8264
76816.4 13.2489
76821.3 13.7628
76823.7 14.0628
76826.1 14.3954
76829.9 15.0011
76831.9 15.3474
76833.8 15.7252
76835.7 16.1426
76837.6 16.5998
76839.5 17.1068
76841.4 17.6640
76843.3 18.2838
76845.2 18.9705
76847.1 19.7316
76849.0 20.5704
76850.9 21.5038
76852.8 22.5293
76854.7 23.6640
76856.6 24.9002
76858.7 26.3842
76860.8 27.9921
76862.9 29.7076
76865.0 31.4929
76869.2 35.1264
76871.2 36.8340
76873.3 38.3549
76875.2 39.4945
76877.0 40.3662
76878.0 40.6860
76878.9 40.9216
76879.8 41.0693
76880.8 41.1264
76882.0 41.0591
76883.0 40.8833
76884.0 40.6008
76885.0 40.2153
76886.0 39.7375
76887.0 39.1643
76888.1 38.5081
76890.1 36.9909
76892.1 35.2489
76894.1 33.3799
76898.1 29.5213
76900.1 27.6878
76902.1 25.9583
76904.0 24.3470
76906.0 22.8670
76908.0 21.5221
76910.0 20.3102
76911.9 19.2245
76913.9 18.2558
76916.0 17.3483
76918.0 16.5504
76920.1 15.8452
76922.2 15.2216
76924.3 14.6666
76926.3 14.1766
76928.4 13.7407
76930.5 13.3520
76932.5 13.0045
76934.6 12.6930
76936.7 12.4130
76938.8 12.1606
76942.9 11.7260
76947.0 11.3676
76950.4 11.1194
76953.8 10.9046
76957.2 10.7175
76960.6 10.5536
76967.4 10.2816
76974.1 10.0673
76983.2 9.84541
76992.2 9.67593
77001.3 9.54364
77010.3 9.43835
77026.9 9.29269
77043.4 9.18801
77060.0 9.10941
77076.6 9.04814
77092.4 9.00092
77108.2 8.96125
77139.8 8.89779
77171.5 8.84819
77203.1 8.80741
77231.7 8.77584
77260.3 8.74820
77317.6 8.70164
77374.8 8.66499
77432.0 8.63738
77456.1 8.62851
77522.4 8.61316
77588.7 8.61275
77655.0 8.63045
77721.2 8.67104
77787.5 8.74154
77853.8 8.85208
77920.1 9.01769
77953.2 9.12813
77986.3 9.26165
78025.5 9.45707
78064.6 9.70142
78103.8 10.0123
78123.4 10.1983
78143.0 10.4087
78159.5 10.6086
78176.1 10.8314
78192.7 11.0800
78209.2 11.3582
78225.8 11.6700
78242.4 12.0204
78259.0 12.4149
78275.5 12.8598
78292.1 13.3635
78308.7 13.9346
78325.2 14.5834
78341.8 15.3220
78358.4 16.1640
78374.9 17.1249
78383.2 17.6554
78391.5 18.2215
78399.8 18.8259
78408.1 19.4710
78416.6 20.1814
78425.1 20.9397
78433.7 21.7479
78442.2 22.6071
78450.8 23.5190
78459.3 24.4855
78467.8 25.5056
78476.4 26.5783
78493.5 28.8742
78510.5 31.2948
78527.6 33.7767
78544.7 36.1869
78559.8 38.1175
78567.3 38.9697
78574.9 39.7237
78582.4 40.3662
78589.9 40.8826
78597.5 41.2623
78605.0 41.4974
78615.1 41.5807
78623.2 41.4549
78631.4 41.1623
78639.6 40.7138
78647.7 40.1250
78655.9 39.4120
78664.1 38.5957
78680.4 36.7275
78713.0 32.5659
78729.4 30.4863
78745.7 28.5084
78757.1 27.2108
78768.5 25.9898
78779.8 24.8392
78791.2 23.7643
78802.6 22.7662
78814.0 21.8409
78825.3 20.9826
78836.7 20.1888
78854.4 19.0710
78872.2 18.0790
78889.9 17.1977
78907.6 16.4147
78925.3 15.7171
78943.0 15.0946
78960.8 14.5373
78978.5 14.0370
78998.0 13.5438
79017.5 13.1031
79037.0 12.7075
79056.5 12.3516
79076.0 12.0302
79095.5 11.7392
79114.9 11.4751
79134.4 11.2346
79162.8 10.9217
79191.1 10.6471
79219.5 10.4051
79247.9 10.1919
79283.3 9.96109
79318.7 9.76636
79354.2 9.60594
79389.6 9.48073
79410.9 9.42492
79432.2 9.38614
79451.7 9.36876
79471.2 9.37342
79490.7 9.40717
79510.1 9.48115
79520.8 9.54441
79531.4 9.62932
79542.1 9.74205
79552.7 9.89049
79562.4 10.0680
79572.2 10.2981
79581.9 10.5992
79586.8 10.7841
79591.7 10.9976
79598.3 11.3457
79601.6 11.5488
79605.0 11.7751
79608.3 12.0290
79611.6 12.3130
79614.9 12.6328
79618.3 12.9940
79620.7 13.2899
79623.1 13.6152
79625.6 13.9735
79628.0 14.3675
79630.4 14.8054
79632.9 15.2893
79635.3 15.8299
79637.7 16.4308
79640.2 17.1058
79642.6 17.8635
79645.1 18.7165
79647.5 19.6751
79649.9 20.7643
79652.4 22.0000
79654.8 23.4045
79656.0 24.1779
79657.2 24.9961
79658.4 25.8389
79659.6 26.7358
79660.8 27.6899
79661.9 28.6955
79663.1 29.7729
79664.3 30.9169
79665.4 32.1299
79666.6 33.4031
79667.8 34.7601
79668.9 36.1913
79671.3 39.2623
79673.6 42.6142
79675.9 46.2101
79680.4 53.4642
79682.6 57.0803
79684.8 60.4911
79687.0 63.5668
79688.1 64.9215
79689.2 66.1173
79690.3 67.1581
79691.4 68.0160
79692.5 68.6776
79693.6 69.1291
79695.0 69.3963
79696.1 69.3721
79697.2 69.1311
79698.3 68.6781
79699.4 68.0214
79700.6 67.1726
79701.7 66.1461
79702.8 64.9586
79703.9 63.6412
79706.1 60.6351
79708.3 57.2998
79712.7 50.2610
79714.7 47.2196
79716.6 44.2905
79718.6 41.5134
79720.5 38.9128
79722.4 36.5016
79724.4 34.2829
79726.3 32.2530
79728.3 30.4124
79730.2 28.7060
79732.2 27.1678
79734.2 25.7681
79736.1 24.5074
79738.1 23.3597
79740.0 22.3244
79742.0 21.3843
79744.0 20.5294
79745.9 19.7468
79747.9 19.0364
79749.9 18.3838
79751.8 17.7892
79753.8 17.2408
79755.8 16.7392
79757.7 16.2771
79759.7 15.8507
79762.9 15.2185
79766.1 14.6616
79769.3 14.1672
79772.5 13.7262
79775.7 13.3300
79779.0 12.9750
79782.2 12.6547
79785.4 12.3646
79789.3 12.0453
79793.2 11.7601
79797.2 11.5043
79801.1 11.2739
79809.0 10.8763
79816.8 10.5470
79826.1 10.2246
79835.4 9.95815
79844.6 9.73492
79853.9 9.54521
79869.6 9.28194
79885.3 9.07275
79901.1 8.90248
79916.8 8.76106
79938.2 8.60218
79959.6 8.47227
79981.0 8.36312
80002.4 8.26954
80033.9 8.15331
80065.3 8.05546
80096.7 7.97096
80128.1 7.89656
80179.5 7.79101
80230.9 7.69989
80282.3 7.61934
80333.7 7.54691
80425.1 7.43332
80516.5 7.33490
80579.4 7.27492
80642.2 7.22144
80705.0 7.17579
80767.8 7.14122
80790.7 7.13252
80822.1 7.12542
80853.5 7.12598
80884.9 7.13744
80916.4 7.16515
80936.3 7.19517
80956.3 7.23864
80976.3 7.30136
80996.3 7.39140
81011.3 7.48435
81026.3 7.60799
81041.3 7.77456
81048.8 7.87932
81056.3 8.00225
81064.2 8.15546
81072.0 8.33976
81079.9 8.56315
81087.7 8.83644
81091.6 8.99643
81095.6 9.17487
81099.5 9.37453
81103.4 9.59867
81107.4 9.85123
81111.3 10.1369
81115.2 10.4613
81119.1 10.8304
81122.2 11.1532
81125.2 11.5116
81128.2 11.9134
81131.3 12.3623
81134.3 12.8691
81137.3 13.4394
81140.4 14.0880
81143.4 14.8236
81145.4 15.3569
81147.3 15.9362
81149.3 16.5695
81151.3 17.2628
81153.2 18.0271
81155.2 18.8623
81157.2 19.7805
81159.1 20.7910
81161.1 21.9101
81163.0 23.1374
81165.0 24.4902
81167.0 25.9807
81168.9 27.6297
81170.9 29.4323
81172.9 31.4067
81174.8 33.5603
81177.2 36.4587
81179.6 39.6129
81182.0 43.0235
81184.4 46.6115
81189.2 54.0265
81191.6 57.5860
81194.0 60.8433
81196.3 63.4602
81197.4 64.5724
81198.5 65.5336
81199.6 66.3306
81200.8 66.9525
81201.9 67.3908
81203.0 67.6398
81204.5 67.6724
81205.7 67.4459
81206.9 67.0027
81208.2 66.3450
81209.4 65.4962
81210.6 64.4583
81211.8 63.2664
81214.2 60.4646
81216.7 57.2603
81219.1 53.8214
81223.9 46.8300
81226.3 43.5199
81228.7 40.4128
81231.1 37.5186
81233.5 34.8769
81235.9 32.4668
81238.3 30.2997
81240.7 28.3503
81243.1 26.6009
81245.6 24.9830
81248.0 23.5378
81250.5 22.2459
81253.0 21.0938
81255.4 20.0561
81257.9 19.1234
81260.4 18.2833
81262.8 17.5275
81265.3 16.8405
81267.8 16.2170
81270.2 15.6497
81272.7 15.1325
81275.2 14.6596
81277.6 14.2263
81280.1 13.8285
81282.6 13.4639
81286.4 12.9526
81290.2 12.5007
81294.0 12.0971
81297.8 11.7369
81301.7 11.4123
81305.5 11.1204
81309.3 10.8555
81313.1 10.6155
81318.0 10.3359
81323.0 10.0869
81327.9 9.86411
81332.8 9.66432
81342.7 9.32004
81352.6 9.03591
81362.5 8.79782
81372.3 8.59636
81382.2 8.42394
81392.1 8.27513
81411.8 8.03114
81431.6 7.84003
81451.3 7.68669
81471.1 7.56095
81492.6 7.44713
81514.2 7.35176
81535.7 7.27046
81557.3 7.20024
81596.8 7.09223
81636.2 7.00407
81675.7 6.92977
81715.2 6.86554
81772.7 6.78497
81830.1 6.71530
81887.6 6.65314
81945.0 6.59653
82038.4 6.51293
82131.7 6.43648
82225.1 6.36492
82318.4 6.29649
82490.8 6.17578
82663.1 6.05906
82792.4 5.97274
82921.7 5.88668
83050.9 5.80066
83180.2 5.71448
83309.4 5.62831
83438.7 5.54259
83568.0 5.45847
83697.2 5.37794
83855.2 5.29029
83934.2 5.25457
84013.2 5.22785
84041.9 5.22118
84110.1 5.21417
84178.3 5.22367
84246.6 5.25725
84280.7 5.28611
84314.8 5.32605
84354.3 5.38919
84393.8 5.47540
84433.3 5.59177
84453.0 5.66418
84472.8 5.74801
84492.5 5.84521
84512.3 5.95796
84532.0 6.08895
84551.7 6.24137
84571.5 6.41935
84591.2 6.62778
84611.0 6.87274
84630.7 7.16079
84640.6 7.32407
84650.5 7.50261
84660.4 7.69792
84670.2 7.91135
84680.1 8.14542
84690.0 8.40206
84699.9 8.68423
84709.7 8.99506
84719.6 9.33852
84729.5 9.71807
84739.4 10.1393
84749.2 10.6069
84759.1 11.1283
84769.0 11.7099
84778.8 12.3611
84788.7 13.0920
84798.6 13.9156
84808.5 14.8441
84813.4 15.3535
84818.3 15.8957
84823.3 16.4732
84828.2 17.0874
84833.2 17.7436
84838.1 18.4437
84843.0 19.1909
84848.0 19.9870
84852.9 20.8390
84857.8 21.7474
84862.8 22.7197
84867.7 23.7564
84872.8 24.9031
84877.9 26.1300
84883.0 27.4419
84888.1 28.8431
84893.2 30.3376
84898.3 31.9283
84903.4 33.6176
84908.5 35.4074
84913.6 37.2977
84918.7 39.2865
84928.9 43.5297
84949.3 52.5908
84955.0 55.0952
84960.7 57.4798
84966.4 59.6835
84972.2 61.6380
84977.9 63.2789
84983.6 64.5398
84989.3 65.3749
84995.0 65.7513
84999.7 65.7089
85004.3 65.3568
85008.9 64.7071
85013.6 63.7791
85018.2 62.5965
85022.9 61.1956
85027.5 59.6083
85032.1 57.8702
85041.4 54.0772
85050.7 50.0892
85060.0 46.1032
85069.3 42.2559
85078.7 38.5913
85083.4 36.8708
85088.1 35.2319
85092.9 33.6682
85097.6 32.1855
85102.3 30.7765
85107.0 29.4456
85111.7 28.1845
85116.4 26.9934
85121.2 25.8691
85125.9 24.8104
85130.6 23.8095
85135.3 22.8672
85140.0 21.9763
85144.7 21.1374
85149.8 20.2950
85154.8 19.5039
85159.8 18.7591
85164.8 18.0575
85169.8 17.3949
85174.8 16.7711
85179.8 16.1823
85184.8 15.6260
85194.9 14.6015
85204.9 13.6837
85214.9 12.8572
85224.9 12.1117
85235.0 11.4358
85245.0 10.8221
85255.0 10.2620
85265.0 9.75006
85275.1 9.27978
85285.1 8.84727
85295.1 8.44786
85305.1 8.07793
85319.7 7.58551
85334.3 7.14089
85348.9 6.73771
85363.5 6.36915
85378.0 6.02948
85392.6 5.71570
85407.2 5.42438
85421.8 5.15262
85441.8 4.80630
85461.9 4.48685
85481.9 4.18984
85502.0 3.91167
85522.0 3.64936
85542.1 3.40048
85562.1 3.16305
85582.2 2.93543
85604.0 2.69688
85625.9 2.46729
85647.8 2.24584
85669.7 2.03217
85687.0 1.86850
85704.3 1.71003
85721.6 1.55725
85738.9 1.41105
85756.2 1.27237
85764.9 1.20635
85773.6 1.14288
85782.2 1.08199
85790.9 1.02401
85799.5 0.969598
85808.2 0.919159
85816.4 0.875226
85824.6 0.835602
85832.8 0.800711
85841.0 0.771093
85849.2 0.747355
85857.4 0.730176
85865.6 0.720314
85869.7 0.718390
85873.8 0.718622
85880.2 0.723553
85886.6 0.734452
85892.9 0.751796
85899.3 0.776208
85905.7 0.808455
85912.1 0.849260
85918.5 0.899329
85924.8 0.959457
85929.9 1.01442
85934.9 1.07649
85939.9 1.14627
85944.9 1.22430
85949.9 1.31130
85954.9 1.40754
85959.9 1.51381
85964.9 1.63079
85970.0 1.75944
85975.0 1.90001
85980.0 2.05353
85985.0 2.22084
85990.0 2.40280
85995.0 2.60033
86000.0 2.81438
86005.0 3.04595
86008.2 3.20050
86011.3 3.36208
86014.4 3.53146
86017.6 3.70889
86020.7 3.89523
86023.8 4.08954
86027.0 4.29265
86030.1 4.50481
86033.2 4.72704
86036.4 4.95819
86042.6 5.45045
86048.9 5.98440
86055.1 6.56201
86058.6 6.90366
86062.1 7.25971
86069.1 8.01596
86076.1 8.83232
86083.0 9.70833
86090.0 10.6465
86097.0 11.6446
86104.0 12.7009
86111.0 13.8105
86117.9 14.9698
86124.9 16.1692
86138.9 18.6550
86152.8 21.1847
86166.8 23.6523
86173.8 24.8296
86180.7 25.9504
86187.7 27.0024
86194.7 27.9737
86201.7 28.8583
86208.7 29.6481
86215.6 30.3393
86222.6 30.9297
86230.9 31.5018
86239.1 31.9444
86247.4 32.2681
86255.6 32.4838
86272.1 32.6827
86280.3 32.7272
86288.6 32.7920
86294.6 32.8899
86300.6 33.0725
86306.7 33.3961
86309.7 33.6359
86312.7 33.9471
86316.2 34.4229
86319.7 35.0610
86323.2 35.9153
86324.9 36.4440
86326.6 37.0558
86328.4 37.7680
86330.1 38.5876
86331.9 39.5412
86333.6 40.6371
86335.4 41.9083
86337.1 43.3621
86338.9 45.0365
86340.6 46.9318
86342.0 48.6850
86343.5 50.5967
86344.9 52.6786
86346.3 54.9245
86347.8 57.3376
86349.2 59.8617
86352.1 65.1506
86355.1 70.6596
86356.5 73.2223
86358.0 75.5579
86359.5 77.6004
86361.0 79.2502
86362.5 80.4619
86364.0 81.1917
86365.0 81.3981
86366.6 81.2444
86368.2 80.5031
86369.9 79.2181
86371.5 77.4686
86373.1 75.3163
86374.7 72.8796
86377.9 67.4687
86380.8 62.5690
86383.6 57.9089
86385.0 55.7225
86386.4 53.6582
86387.9 51.7237
86389.3 49.9336
86390.7 48.2496
86392.1 46.6935
86393.6 45.2589
86395.0 43.9468
86396.4 42.7303
86397.8 41.6182
86400.7 39.6414
86402.2 38.6860
86403.8 37.8085
86406.9 36.2599
86410.0 34.9345
86413.1 33.7886
86416.0 32.8637
86418.8 32.0434
86421.7 31.3051
86424.6 30.6406
86430.3 29.4817
86436.0 28.5033
86442.7 27.5152
86449.5 26.6671
86456.2 25.9225
86462.9 25.2599
86474.4 24.2771
86485.8 23.4272
86497.2 22.6758
86508.6 22.0008
86526.2 21.0744
86543.9 20.2589
86561.5 19.5293
86579.2 18.8706
86602.0 18.1047
86624.8 17.4199
86647.6 16.8028
86670.5 16.2435
86692.3 15.7567
86714.0 15.3077
86735.8 14.8933
86757.6 14.5093
86801.2 13.8202
86844.8 13.2187
86878.0 12.8088
86911.2 12.4348
86944.4 12.0920
86977.6 11.7765
87021.2 11.3990
87064.7 11.0585
87108.3 10.7521
87151.9 10.4792
87174.7 10.3510
87197.6 10.2347
87220.4 10.1327
87243.2 10.0494
87259.8 10.0044
87276.4 9.97746
87289.9 9.97344
87303.4 9.99135
87316.9 10.0402
87330.4 10.1332
87339.7 10.2344
87349.1 10.3777
87358.4 10.5791
87363.1 10.7090
87367.7 10.8633
87373.4 11.0942
87379.1 11.3834
87384.9 11.7489
87387.7 11.9673
87390.6 12.2148
87393.3 12.4838
87396.0 12.7878
87398.7 13.1355
87401.5 13.5315
87404.2 13.9879
87406.9 14.5126
87409.6 15.1207
87412.3 15.8293
87413.8 16.2489
87415.2 16.7056
87416.6 17.2033
87418.1 17.7425
87419.5 18.3357
87420.9 18.9800
87422.3 19.6905
87423.8 20.4637
87425.2 21.3179
87426.6 22.2554
87428.0 23.2845
87429.5 24.4055
87430.9 25.6428
87432.3 26.9872
87433.7 28.4654
87435.2 30.0631
87436.6 31.8453
87438.1 33.7706
87439.5 35.8366
87441.0 38.0203
87442.5 40.3379
87443.9 42.7533
87446.8 47.7350
87450.1 53.2831
87451.8 55.8288
87453.4 58.0928
87455.1 60.0167
87456.7 61.5082
87457.5 62.0747
87458.4 62.5051
87459.2 62.8025
87460.0 62.9641
87461.1 62.9650
87462.0 62.7827
87462.9 62.4435
87463.8 61.9450
87464.7 61.3053
87465.6 60.5193
87466.5 59.6148
87468.3 57.4735
87470.0 54.9611
87471.8 52.2143
87475.4 46.3733
87477.8 42.4030
87480.3 38.6681
87481.5 36.9006
87482.7 35.2342
87484.0 33.6582
87485.2 32.1741
87486.2 30.9703
87487.3 29.8439
87488.3 28.7814
87489.3 27.7805
87490.4 26.8300
87491.4 25.9453
87492.5 25.1140
87493.5 24.3331
87495.6 22.9048
87497.7 21.6508
87499.8 20.5427
87501.8 19.5615
87503.9 18.6863
87506.0 17.9074
87508.1 17.2118
87510.2 16.5916
87512.3 16.0313
87514.4 15.5283
87516.5 15.0710
87518.5 14.6580
87521.0 14.2151
87523.5 13.8188
87525.9 13.4613
87528.4 13.1377
87530.9 12.8424
87533.3 12.5744
87538.2 12.1043
87542.4 11.7630
87546.6 11.4642
87550.7 11.2009
87554.9 10.9673
87563.3 10.5718
87571.6 10.2504
87577.3 10.0634
87583.0 9.89745
87594.3 9.61653
87605.7 9.38685
87617.1 9.19523
87629.2 9.02333
87641.3 8.87818
87658.0 8.71423
87674.7 8.58615
87691.4 8.49249
87708.0 8.43688
87714.1 8.42771
87726.2 8.43099
87738.4 8.46993
87750.5 8.55648
87756.6 8.62331
87762.6 8.70997
87771.0 8.86913
87779.3 9.08744
87783.5 9.22460
87787.6 9.38446
87791.8 9.57075
87796.0 9.78800
87800.1 10.0417
87804.3 10.3384
87808.5 10.6861
87812.7 11.0949
87816.8 11.5767
87818.9 11.8502
87821.0 12.1464
87823.1 12.4706
87825.2 12.8225
87827.2 13.2066
87829.3 13.6262
87831.4 14.0875
87833.5 14.5929
87835.6 15.1471
87837.7 15.7525
87839.8 16.4207
87841.8 17.1517
87843.9 17.9598
87846.0 18.8449
87848.1 19.8240
87850.2 20.8969
87852.3 22.0775
87854.3 23.3759
87856.4 24.8092
87858.5 26.3737
87860.6 28.0849
87862.7 29.9505
87864.0 31.2368
87865.3 32.5797
87868.0 35.4739
87870.7 38.6220
87873.4 41.9940
87876.0 45.5374
87878.7 49.1736
87881.4 52.7981
87884.0 56.2707
87886.8 59.5659
87888.1 61.0464
87889.5 62.3945
87890.9 63.6006
87892.3 64.6319
87893.6 65.4845
87895.0 66.1481
87896.8 66.7304
87898.7 66.9521
87900.2 66.8717
87901.7 66.5646
87903.1 66.0423
87904.6 65.3256
87906.1 64.4227
87907.6 63.3582
87910.6 60.8419
87913.6 57.9372
87916.5 54.8309
87922.5 48.5143
87925.2 45.7037
87928.0 43.0520
87930.8 40.5644
87933.5 38.2694
87936.3 36.1513
87939.1 34.2194
87941.8 32.4560
87944.6 30.8491
87947.4 29.3707
87950.2 28.0257
87953.0 26.8011
87955.7 25.6889
87958.5 24.6699
87961.3 23.7383
87964.1 22.8851
87966.9 22.1049
87969.7 21.3849
87972.5 20.7217
87975.3 20.1096
87978.0 19.5454
87983.6 18.5355
87989.2 17.6621
87994.2 16.9656
87999.3 16.3477
88004.4 15.7964
88009.5 15.3022
88014.5 14.8571
88019.6 14.4547
88024.7 14.0893
88029.7 13.7570
88035.3 13.4231
88040.9 13.1198
88052.0 12.5878
88063.2 12.1373
88074.3 11.7510
88089.5 11.3049
88104.7 10.9315
88119.9 10.6132
88135.1 10.3378
88157.4 9.99437
88179.7 9.70567
88202.0 9.45821
88224.3 9.24257
88254.7 8.98747
88285.1 8.76705
88315.5 8.57217
88345.9 8.39725
88390.5 8.16817
88435.1 7.96364
88479.7 7.77710
88524.3 7.60406
88593.2 7.35566
88662.2 7.12307
88731.1 6.89986
88800.0 6.68175
88881.1 6.42667
88962.2 6.16856
89043.2 5.90265
89124.3 5.62457
89213.5 5.29846
89302.7 4.94418
89347.3 4.75407
89391.9 4.55341
89436.5 4.34108
89481.1 4.11592
89537.8 3.80743
89594.6 3.47253
89623.0 3.29356
89651.4 3.10657
89679.7 2.91125
89708.1 2.70749
89732.4 2.52593
89756.8 2.33834
89781.1 2.14492
89805.4 1.94658
89854.1 1.54020
89878.4 1.33665
89902.7 1.13823
89914.9 1.04250
89927.0 0.950367
89939.2 0.863349
89945.3 0.822153
89951.4 0.782760
89957.4 0.745400
89963.5 0.710328
89969.6 0.677990
89972.6 0.663561
89975.7 0.652469
89978.7 0.651189
89980.2 0.658981
89981.8 0.677120
89983.3 0.711101
89984.8 0.768269
89986.3 0.857793
89987.1 0.917962
89987.8 0.990260
89988.6 1.07609
89989.4 1.17679
89990.1 1.29362
89990.9 1.42766
89991.6 1.57978
89992.4 1.75054
89993.2 1.94022
89993.9 2.14866
89994.7 2.37534
89995.4 2.61925
89996.2 2.87898
89997.0 3.15269
89998.5 3.73272
90000.0 4.33780
90000.0 8.10571
105000 8.07433
120000 8.04727
135000 8.02349
150000 8.00228
175000 7.94482
200000 7.89539
250000 7.76488
300000 7.61528
345666 7.41798
391332 7.24941
445666 7.07689
500000 6.92767
550000 6.72729
600000 6.54945
650000 6.39001
700000 6.24587
750000 6.08423
800000 5.93683
892602 5.67449
894452 5.66937
896301 5.66434
898151 5.65940
900000 5.65455
912500 5.61818
925000 5.58323
937500 5.54963
950000 5.51732
962500 5.48625
975000 5.45637
987500 5.42762
1.00000E+06 5.39995
1.03125E+06 5.31954
1.06250E+06 5.24430
1.09375E+06 5.17380
1.12500E+06 5.10764
1.18750E+06 4.98698
1.25000E+06 4.87992
1.31250E+06 4.77303
1.37500E+06 4.67527
1.43750E+06 4.58552
1.50000E+06 4.50285
1.62500E+06 4.35897
1.75000E+06 4.23319
1.85605E+06 4.14314
1.86023E+06 4.13986
1.86440E+06 4.13659
1.87275E+06 4.13011
1.88945E+06 4.11732
1.90614E+06 4.10477
1.92284E+06 4.09245
1.92766E+06 4.08888
1.93249E+06 4.08534
1.94213E+06 4.07836
1.96142E+06 4.06478
1.98071E+06 4.05169
2.00000E+06 4.03908
2.00694E+06 4.03444
2.01388E+06 4.02986
2.02083E+06 4.02533
2.02777E+06 4.02085
2.03471E+06 4.01642
2.04165E+06 4.01204
2.04859E+06 4.00771
2.05554E+06 4.00343
2.06248E+06 3.99919
2.06942E+06 3.99500
2.07636E+06 3.99086
2.08330E+06 3.98677
2.09025E+06 3.98272
2.09719E+06 3.97871
2.10413E+06 3.97476
2.11107E+06 3.97084
2.11108E+06 3.97083
2.11901E+06 3.96624
2.12695E+06 3.96170
2.13489E+06 3.95721
2.14283E+06 3.95277
2.15076E+06 3.94838
2.15870E+06 3.94404
2.16664E+06 3.93975
2.17458E+06 3.93551
2.18251E+06 3.93132
2.19045E+06 3.92718
2.19839E+06 3.92308
2.20633E+06 3.91903
2.21427E+06 3.91503
2.22220E+06 3.91107
2.23014E+06 3.90715
2.23808E+06 3.90328
2.24602E+06 3.89946
2.25396E+06 3.89568
2.26190E+06 3.89194
2.26983E+06 3.88824
2.27777E+06 3.88458
2.28571E+06 3.88097
2.29365E+06 3.87740
2.30159E+06 3.87386
2.30952E+06 3.87037
2.31746E+06 3.86692
2.32540E+06 3.86350
2.33334E+06 3.86013
2.34128E+06 3.85679
2.34921E+06 3.85349
2.35715E+06 3.85023
2.36509E+06 3.84700
2.36509E+06 3.84700
2.37423E+06 3.84350
2.38337E+06 3.84002
2.39251E+06 3.83659
2.40165E+06 3.83318
2.41079E+06 3.82980
2.41993E+06 3.82646
2.42907E+06 3.82314
2.43821E+06 3.81985
2.44735E+06 3.81660
2.45649E+06 3.81337
2.46563E+06 3.81017
2.47477E+06 3.80700
2.48391E+06 3.80386
2.49305E+06 3.80075
2.50219E+06 3.79767
2.51133E+06 3.79461
2.52047E+06 3.79158
2.52961E+06 3.78858
2.53875E+06 3.78560
2.54789E+06 3.78265
2.55703E+06 3.77972
2.56617E+06 3.77683
2.57531E+06 3.77395
2.58445E+06 3.77111
2.59359E+06 3.76828
2.60273E+06 3.76548
2.61187E+06 3.76271
2.62101E+06 3.75996
2.63015E+06 3.75723
2.63929E+06 3.75453
2.64843E+06 3.75185
2.65757E+06 3.74920
2.66756E+06 3.74662
2.67756E+06 3.74407
2.68755E+06 3.74154
2.69755E+06 3.73904
2.70754E+06 3.73657
2.71753E+06 3.73411
2.72753E+06 3.73169
2.73752E+06 3.72928
2.74435E+06 3.72773
2.75118E+06 3.72618
2.75801E+06 3.72465
2.76484E+06 3.72313
2.77167E+06 3.72163
2.77850E+06 3.72013
2.78533E+06 3.71865
2.79216E+06 3.71717
2.79217E+06 3.71717
2.80026E+06 3.71548
2.80836E+06 3.71381
2.81435E+06 3.71267
2.82034E+06 3.71154
2.82633E+06 3.71041
2.83232E+06 3.70930
2.83830E+06 3.70819
2.84429E+06 3.70709
2.85028E+06 3.70600
2.85627E+06 3.70492
2.86226E+06 3.70385
2.86825E+06 3.70278
2.87424E+06 3.70172
2.88023E+06 3.70068
2.88621E+06 3.69964
2.89220E+06 3.69860
2.89819E+06 3.69758
2.90418E+06 3.69656
2.91017E+06 3.69555
2.91616E+06 3.69455
2.92215E+06 3.69356
2.92814E+06 3.69257
2.93412E+06 3.69159
2.94011E+06 3.69062
2.94610E+06 3.68966
2.95209E+06 3.68870
2.95808E+06 3.68775
2.96407E+06 3.68681
2.97006E+06 3.68588
2.97605E+06 3.68495
2.98203E+06 3.68403
2.98802E+06 3.68312
2.99401E+06 3.68221
3.00000E+06 3.68132
3.01058E+06 3.67998
3.02116E+06 3.67865
3.03174E+06 3.67733
3.04232E+06 3.67603
3.05290E+06 3.67473
3.06348E+06 3.67345
3.07406E+06 3.67218
3.08464E+06 3.67092
3.09584E+06 3.66993
3.10703E+06 3.66895
3.11823E+06 3.66798
3.12942E+06 3.66702
3.14062E+06 3.66606
3.15181E+06 3.66511
3.16301E+06 3.66417
3.17421E+06 3.66323
3.18540E+06 3.66230
3.19660E+06 3.66138
3.20779E+06 3.66046
3.21899E+06 3.65955
3.23018E+06 3.65865
3.24138E+06 3.65775
3.25258E+06 3.65686
3.26377E+06 3.65598
3.27073E+06 3.65567
3.27769E+06 3.65535
3.28464E+06 3.65504
3.29160E+06 3.65473
3.29856E+06 3.65443
3.30552E+06 3.65412
3.31247E+06 3.65381
3.31943E+06 3.65351
3.32639E+06 3.65320
3.33335E+06 3.65290
3.34030E+06 3.65260
3.34726E+06 3.65230
3.35422E+06 3.65200
3.36118E+06 3.65170
3.36813E+06 3.65141
3.37509E+06 3.65111
3.38407E+06 3.65100
3.39305E+06 3.65088
3.40204E+06 3.65077
3.41102E+06 3.65065
3.42000E+06 3.65054
3.42898E+06 3.65043
3.43796E+06 3.65032
3.44695E+06 3.65020
3.45593E+06 3.65009
3.46491E+06 3.64998
3.47389E+06 3.64987
3.48287E+06 3.64976
3.49186E+06 3.64965
3.50084E+06 3.64955
3.50982E+06 3.64944
3.51880E+06 3.64933
3.53056E+06 3.64950
3.54233E+06 3.64967
3.55409E+06 3.64984
3.56586E+06 3.65002
3.57762E+06 3.65019
3.58938E+06 3.65035
3.60115E+06 3.65052
3.61291E+06 3.65069
3.62303E+06 3.65103
3.63315E+06 3.65136
3.64327E+06 3.65170
3.65340E+06 3.65203
3.66352E+06 3.65237
3.67364E+06 3.65270
3.68376E+06 3.65303
3.69388E+06 3.65336
3.70286E+06 3.65380
3.71184E+06 3.65423
3.72082E+06 3.65467
3.72981E+06 3.65510
3.73879E+06 3.65553
3.74777E+06 3.65596
3.75675E+06 3.65639
3.76573E+06 3.65682
3.77509E+06 3.65741
3.78445E+06 3.65800
3.79381E+06 3.65858
3.80318E+06 3.65916
3.81254E+06 3.65975
3.82190E+06 3.66033
3.83126E+06 3.66091
3.84062E+06 3.66149
3.84666E+06 3.66200
3.85269E+06 3.66251
3.85873E+06 3.66302
3.86477E+06 3.66353
3.87080E+06 3.66404
3.87684E+06 3.66455
3.88287E+06 3.66506
3.88891E+06 3.66557
3.89495E+06 3.66608
3.90098E+06 3.66658
3.90702E+06 3.66709
3.91306E+06 3.66760
3.91909E+06 3.66810
3.92513E+06 3.66860
3.93116E+06 3.66911
3.93720E+06 3.66961
3.94505E+06 3.67026
3.95290E+06 3.67091
3.96075E+06 3.67156
3.96860E+06 3.67221
3.97645E+06 3.67286
3.98430E+06 3.67350
3.99215E+06 3.67415
4.00000E+06 3.67479
4.00781E+06 3.67622
4.01563E+06 3.67765
4.02344E+06 3.67907
4.03125E+06 3.68050
4.03906E+06 3.68192
4.04688E+06 3.68334
4.05469E+06 3.68476
4.06250E+06 3.68617
4.07031E+06 3.68759
4.07813E+06 3.68900
4.08594E+06 3.69041
4.09375E+06 3.69182
4.10156E+06 3.69322
4.10938E+06 3.69463
4.11719E+06 3.69603
4.12500E+06 3.69743
4.13281E+06 3.69883
4.14063E+06 3.70023
4.14844E+06 3.70162
4.15625E+06 3.70301
4.16406E+06 3.70440
4.17188E+06 3.70579
4.17969E+06 3.70718
4.18750E+06 3.70857
4.19531E+06 3.70995
4.20313E+06 3.71133
4.21094E+06 3.71271
4.21875E+06 3.71409
4.22656E+06 3.71547
4.23438E+06 3.71684
4.24219E+06 3.71822
4.25000E+06 3.71959
4.25781E+06 3.72096
4.26563E+06 3.72233
4.27344E+06 3.72369
4.28125E+06 3.72506
4.28906E+06 3.72642
4.29688E+06 3.72778
4.30469E+06 3.72914
4.31250E+06 3.73050
4.32031E+06 3.73185
4.32813E+06 3.73321
4.33594E+06 3.73456
4.34375E+06 3.73591
4.35156E+06 3.73726
4.35938E+06 3.73860
4.36719E+06 3.73995
4.37500E+06 3.74129
4.38281E+06 3.74264
4.39063E+06 3.74398
4.39844E+06 3.74531
4.40625E+06 3.74665
4.41406E+06 3.74799
4.42188E+06 3.74932
4.42969E+06 3.75065
4.43750E+06 3.75198
4.44531E+06 3.75331
4.45313E+06 3.75464
4.46094E+06 3.75596
4.46875E+06 3.75729
4.47656E+06 3.75861
4.48438E+06 3.75993
4.49219E+06 3.76125
4.50000E+06 3.76256
4.50781E+06 3.76388
4.51563E+06 3.76519
4.52344E+06 3.76651
4.53125E+06 3.76782
4.53906E+06 3.76913
4.54688E+06 3.77043
4.55469E+06 3.77174
4.56250E+06 3.77304
4.57031E+06 3.77435
4.57813E+06 3.77565
4.58594E+06 3.77695
4.59375E+06 3.77824
4.60156E+06 3.77954
4.60938E+06 3.78084
4.61719E+06 3.78213
4.62500E+06 3.78342
4.63281E+06 3.78471
4.64063E+06 3.78600
4.64844E+06 3.78729
4.65625E+06 3.78857
4.66406E+06 3.78986
4.67188E+06 3.79114
4.67969E+06 3.79242
4.68750E+06 3.79370
4.69531E+06 3.79498
4.70313E+06 3.79626
4.71094E+06 3.79753
4.71875E+06 3.79880
4.72656E+06 3.80008
4.73438E+06 3.80135
4.74219E+06 3.80262
4.75000E+06 3.80388
4.75781E+06 3.80515
4.76563E+06 3.80641
4.77344E+06 3.80768
4.78125E+06 3.80894
4.78906E+06 3.81020
4.79688E+06 3.81146
4.80469E+06 3.81272
4.81250E+06 3.81397
4.82031E+06 3.81523
4.82813E+06 3.81648
4.83594E+06 3.81773
4.84375E+06 3.81898
4.85156E+06 3.82023
4.85938E+06 3.82148
4.86719E+06 3.82272
4.87500E+06 3.82397
4.88281E+06 3.82521
4.89063E+06 3.82645
4.89844E+06 3.82769
4.90625E+06 3.82893
4.91406E+06 3.83017
4.92188E+06 3.83140
4.92969E+06 3.83264
4.93750E+06 3.83387
4.94531E+06 3.83510
4.95313E+06 3.83633
4.96094E+06 3.83756
4.96875E+06 3.83879
4.97656E+06 3.84002
4.98438E+06 3.84124
4.99219E+06 3.84247
5.00000E+06 3.84369
5.00391E+06 3.84476
5.00781E+06 3.84583
5.01172E+06 3.84690
5.01563E+06 3.84796
5.01953E+06 3.84903
5.02344E+06 3.85010
5.02734E+06 3.85116
5.03125E+06 3.85223
5.03516E+06 3.85329
5.03906E+06 3.85436
5.04297E+06 3.85542
5.04688E+06 3.85649
5.05078E+06 3.85755
5.05469E+06 3.85861
5.05859E+06 3.85968
5.06250E+06 3.86074
5.06641E+06 3.86180
5.07031E+06 3.86286
5.07422E+06 3.86392
5.07813E+06 3.86498
5.08203E+06 3.86604
5.08594E+06 3.86710
5.08984E+06 3.86816
5.09375E+06 3.86922
5.09766E+06 3.87028
5.10156E+06 3.87134
5.10547E+06 3.87239
5.10938E+06 3.87345
5.11328E+06 3.87451
5.11719E+06 3.87556
5.12109E+06 3.87662
5.12500E+06 3.87767
5.12891E+06 3.87873
5.13281E+06 3.87978
5.13672E+06 3.88084
5.14063E+06 3.88189
5.14453E+06 3.88294
5.14844E+06 3.88400
5.15234E+06 3.88505
5.15625E+06 3.88610
5.16016E+06 3.88715
5.16406E+06 3.88820
5.16797E+06 3.88925
5.17188E+06 3.89030
5.17578E+06 3.89135
5.17969E+06 3.89240
5.18359E+06 3.89345
5.18750E+06 3.89450
5.19141E+06 3.89555
5.19531E+06 3.89659
5.19922E+06 3.89764
5.20313E+06 3.89869
5.20703E+06 3.89973
5.21094E+06 3.90078
5.21484E+06 3.90182
5.21875E+06 3.90287
5.22266E+06 3.90391
5.22656E+06 3.90496
5.23047E+06 3.90600
5.23438E+06 3.90704
5.23828E+06 3.90809
5.24219E+06 3.90913
5.24609E+06 3.91017
5.25000E+06 3.91121
5.25391E+06 3.91225
5.25781E+06 3.91329
5.26172E+06 3.91433
5.26563E+06 3.91537
5.26953E+06 3.91641
5.27344E+06 3.91745
5.27734E+06 3.91849
5.28125E+06 3.91953
5.28516E+06 3.92057
5.28906E+06 3.92160
5.29297E+06 3.92264
5.29688E+06 3.92368
5.30078E+06 3.92471
5.30469E+06 3.92575
5.30859E+06 3.92678
5.31250E+06 3.92782
5.31641E+06 3.92885
5.32031E+06 3.92989
5.32422E+06 3.93092
5.32813E+06 3.93195
5.33203E+06 3.93298
5.33594E+06 3.93402
5.33984E+06 3.93505
5.34375E+06 3.93608
5.34766E+06 3.93711
5.35156E+06 3.93814
5.35547E+06 3.93917
5.35938E+06 3.94020
5.36328E+06 3.94123
5.36719E+06 3.94226
5.37109E+06 3.94329
5.37500E+06 3.94432
5.37891E+06 3.94535
5.38281E+06 3.94637
5.38672E+06 3.94740
5.39063E+06 3.94843
5.39453E+06 3.94945
5.39844E+06 3.95048
5.40234E+06 3.95150
5.40625E+06 3.95253
5.41016E+06 3.95355
5.41406E+06 3.95458
5.41797E+06 3.95560
5.42188E+06 3.95662
5.42578E+06 3.95765
5.42969E+06 3.95867
5.43359E+06 3.95969
5.43750E+06 3.96071
5.44141E+06 3.96173
5.44531E+06 3.96276
5.44922E+06 3.96378
5.45313E+06 3.96480
5.45703E+06 3.96582
5.46094E+06 3.96684
5.46484E+06 3.96785
5.46875E+06 3.96887
5.47266E+06 3.96989
5.47656E+06 3.97091
5.48047E+06 3.97193
5.48438E+06 3.97294
5.48828E+06 3.97396
5.49219E+06 3.97498
5.49609E+06 3.97599
5.50000E+06 3.97701
5.50391E+06 3.97802
5.50781E+06 3.97904
5.51172E+06 3.98005
5.51563E+06 3.98106
5.51953E+06 3.98208
5.52344E+06 3.98309
5.52734E+06 3.98410
5.53125E+06 3.98512
5.53516E+06 3.98613
5.53906E+06 3.98714
5.54297E+06 3.98815
5.54688E+06 3.98916
5.55078E+06 3.99017
5.55469E+06 3.99118
5.55859E+06 3.99219
5.56250E+06 3.99320
5.56641E+06 3.99421
5.57031E+06 3.99522
5.57422E+06 3.99623
5.57813E+06 3.99723
5.58203E+06 3.99824
5.58594E+06 3.99925
5.58984E+06 4.00025
5.59375E+06 4.00126
5.59766E+06 4.00227
5.60156E+06 4.00327
5.60547E+06 4.00428
5.60938E+06 4.00528
5.61328E+06 4.00629
5.61719E+06 4.00729
5.62109E+06 4.00829
5.62500E+06 4.00929
5.62891E+06 4.01030
5.63281E+06 4.01130
5.63672E+06 4.01230
5.64063E+06 4.01330
5.64453E+06 4.01431
5.64844E+06 4.01531
5.65234E+06 4.01631
5.65625E+06 4.01731
5.66016E+06 4.01831
5.66406E+06 4.01931
5.66797E+06 4.02030
5.67188E+06 4.02130
5.67578E+06 4.02230
5.67969E+06 4.02330
5.68359E+06 4.02430
5.68750E+06 4.02529
5.69141E+06 4.02629
5.69531E+06 4.02729
5.69922E+06 4.02828
5.70313E+06 4.02928
5.70703E+06 4.03027
5.71094E+06 4.03127
5.71484E+06 4.03226
5.71875E+06 4.03326
5.72266E+06 4.03425
5.72656E+06 4.03524
5.73047E+06 4.03624
5.73438E+06 4.03723
5.73828E+06 4.03822
5.74219E+06 4.03921
5.74609E+06 4.04021
5.75000E+06 4.04120
5.75391E+06 4.04219
5.75781E+06 4.04318
5.76172E+06 4.04417
5.76563E+06 4.04516
5.76953E+06 4.04615
5.77344E+06 4.04714
5.77734E+06 4.04812
5.78125E+06 4.04911
5.78516E+06 4.05010
5.78906E+06 4.05109
5.79297E+06 4.05208
5.79688E+06 4.05306
5.80078E+06 4.05405
5.80469E+06 4.05503
5.80859E+06 4.05602
5.81250E+06 4.05701
5.81641E+06 4.05799
5.82031E+06 4.05898
5.82422E+06 4.05996
5.82813E+06 4.06094
5.83203E+06 4.06193
5.83594E+06 4.06291
5.83984E+06 4.06389
5.84375E+06 4.06488
5.84766E+06 4.06586
5.85156E+06 4.06684
5.85547E+06 4.06782
5.85938E+06 4.06880
5.86328E+06 4.06978
5.86719E+06 4.07076
5.87109E+06 4.07174
5.87500E+06 4.07272
5.87891E+06 4.07370
5.88281E+06 4.07468
5.88672E+06 4.07566
5.89063E+06 4.07664
5.89453E+06 4.07762
5.89844E+06 4.07859
5.90234E+06 4.07957
5.90625E+06 4.08055
5.91016E+06 4.08153
5.91406E+06 4.08250
5.91797E+06 4.08348
5.92188E+06 4.08445
5.92578E+06 4.08543
5.92969E+06 4.08640
5.93359E+06 4.08738
5.93750E+06 4.08835
5.94141E+06 4.08932
5.94531E+06 4.09030
5.94922E+06 4.09127
5.95313E+06 4.09224
5.95703E+06 4.09322
5.96094E+06 4.09419
5.96484E+06 4.09516
5.96875E+06 4.09613
5.97266E+06 4.09710
5.97656E+06 4.09807
5.98047E+06 4.09904
5.98438E+06 4.10001
5.98828E+06 4.10098
5.99219E+06 4.10195
5.99609E+06 4.10292
6.00000E+06 4.10389
6.01502E+06 4.10778
6.03005E+06 4.11167
6.04507E+06 4.11555
6.06009E+06 4.11943
6.07512E+06 4.12330
6.09014E+06 4.12717
6.10516E+06 4.13103
6.12019E+06 4.13488
6.13521E+06 4.13874
6.15023E+06 4.14258
6.16526E+06 4.14642
6.18028E+06 4.15026
6.19530E+06 4.15409
6.21032E+06 4.15792
6.22535E+06 4.16174
6.24037E+06 4.16556
6.25539E+06 4.16937
6.27042E+06 4.17317
6.28544E+06 4.17698
6.30046E+06 4.18077
6.31549E+06 4.18456
6.33051E+06 4.18835
6.34553E+06 4.19214
6.36056E+06 4.19591
6.37558E+06 4.19969
6.39060E+06 4.20346
6.40563E+06 4.20722
6.42065E+06 4.21098
6.43567E+06 4.21473
6.45069E+06 4.21848
6.46572E+06 4.22223
6.48074E+06 4.22597
6.49697E+06 4.22998
6.51319E+06 4.23398
6.52942E+06 4.23798
6.54565E+06 4.24197
6.56188E+06 4.24596
6.57810E+06 4.24994
6.59433E+06 4.25391
6.61056E+06 4.25788
6.62678E+06 4.26185
6.64301E+06 4.26581
6.65924E+06 4.26977
6.67546E+06 4.27372
6.69169E+06 4.27766
6.70792E+06 4.28160
6.72414E+06 4.28554
6.74037E+06 4.28947
6.75660E+06 4.29339
6.77282E+06 4.29731
6.78905E+06 4.30123
6.80528E+06 4.30514
6.82151E+06 4.30904
6.83773E+06 4.31294
6.85396E+06 4.31684
6.87019E+06 4.32073
6.88641E+06 4.32462
6.90264E+06 4.32850
6.91887E+06 4.33237
6.93509E+06 4.33624
6.95132E+06 4.34011
6.96755E+06 4.34397
6.98377E+06 4.34783
7.00000E+06 4.35168
7.02222E+06 4.35503
7.04444E+06 4.35838
7.06666E+06 4.36172
7.08888E+06 4.36505
7.11109E+06 4.36838
7.13331E+06 4.37170
7.15553E+06 4.37502
7.17775E+06 4.37833
7.20275E+06 4.38201
7.22775E+06 4.38569
7.25275E+06 4.38937
7.27775E+06 4.39303
7.30274E+06 4.39669
7.32774E+06 4.40035
7.35274E+06 4.40399
7.37774E+06 4.40763
7.40274E+06 4.41126
7.42774E+06 4.41489
7.45274E+06 4.41851
7.47774E+06 4.42213
7.50273E+06 4.42573
7.52773E+06 4.42933
7.55273E+06 4.43293
7.57773E+06 4.43652
7.60376E+06 4.44021
7.62980E+06 4.44390
7.65583E+06 4.44758
7.68187E+06 4.45126
7.70790E+06 4.45493
7.73393E+06 4.45859
7.75997E+06 4.46225
7.78600E+06 4.46590
7.81275E+06 4.46962
7.83950E+06 4.47333
7.86625E+06 4.47704
7.89300E+06 4.48074
7.91975E+06 4.48443
7.94650E+06 4.48812
7.97325E+06 4.49180
8.00000E+06 4.49548
8.00747E+06 4.49565
8.01494E+06 4.49583
8.02241E+06 4.49601
8.02988E+06 4.49619
8.03736E+06 4.49636
8.04483E+06 4.49654
8.05230E+06 4.49672
8.05977E+06 4.49689
8.06724E+06 4.49707
8.07471E+06 4.49725
8.08218E+06 4.49743
8.08965E+06 4.49760
8.09712E+06 4.49778
8.10459E+06 4.49796
8.11207E+06 4.49814
8.11954E+06 4.49831
8.12701E+06 4.49849
8.13448E+06 4.49867
8.14195E+06 4.49884
8.14942E+06 4.49902
8.15689E+06 4.49920
8.16436E+06 4.49938
8.17183E+06 4.49955
8.17930E+06 4.49973
8.18677E+06 4.49991
8.19425E+06 4.50009
8.20172E+06 4.50026
8.20919E+06 4.50044
8.21666E+06 4.50062
8.22413E+06 4.50079
8.23160E+06 4.50097
8.23907E+06 4.50115
8.24677E+06 4.50132
8.25446E+06 4.50150
8.26215E+06 4.50168
8.26985E+06 4.50186
8.27754E+06 4.50203
8.28524E+06 4.50221
8.29293E+06 4.50239
8.30062E+06 4.50257
8.30832E+06 4.50274
8.31601E+06 4.50292
8.32371E+06 4.50310
8.33140E+06 4.50328
8.33909E+06 4.50345
8.34679E+06 4.50363
8.35448E+06 4.50381
8.36218E+06 4.50399
8.36987E+06 4.50416
8.37756E+06 4.50434
8.38526E+06 4.50452
8.39295E+06 4.50470
8.40065E+06 4.50487
8.40834E+06 4.50505
8.41603E+06 4.50523
8.42373E+06 4.50541
8.43142E+06 4.50558
8.43912E+06 4.50576
8.44681E+06 4.50594
8.45450E+06 4.50612
8.46220E+06 4.50629
8.46989E+06 4.50647
8.47759E+06 4.50665
8.48528E+06 4.50682
8.49128E+06 4.50696
8.49911E+06 4.50713
8.50695E+06 4.50731
8.51478E+06 4.50748
8.52261E+06 4.50766
8.53045E+06 4.50783
8.53828E+06 4.50801
8.54611E+06 4.50818
8.55395E+06 4.50836
8.56178E+06 4.50853
8.56961E+06 4.50871
8.57745E+06 4.50889
8.58528E+06 4.50906
8.59311E+06 4.50924
8.60094E+06 4.50941
8.60878E+06 4.50959
8.61661E+06 4.50976
8.62444E+06 4.50994
8.63228E+06 4.51011
8.64011E+06 4.51029
8.64794E+06 4.51046
8.65578E+06 4.51064
8.66361E+06 4.51081
8.67144E+06 4.51099
8.67928E+06 4.51116
8.68711E+06 4.51134
8.69494E+06 4.51151
8.70278E+06 4.51169
8.71061E+06 4.51186
8.71844E+06 4.51204
8.72627E+06 4.51222
8.73411E+06 4.51239
8.74194E+06 4.51257
8.75001E+06 4.51274
8.75807E+06 4.51292
8.76613E+06 4.51309
8.77420E+06 4.51327
8.78226E+06 4.51344
8.79033E+06 4.51362
8.79839E+06 4.51380
8.80646E+06 4.51397
8.81452E+06 4.51415
8.82258E+06 4.51432
8.83065E+06 4.51450
8.83871E+06 4.51467
8.84678E+06 4.51485
8.85484E+06 4.51502
8.86291E+06 4.51520
8.87097E+06 4.51537
8.87904E+06 4.51555
8.88710E+06 4.51573
8.89516E+06 4.51590
8.90323E+06 4.51608
8.91129E+06 4.51625
8.91936E+06 4.51643
8.92742E+06 4.51660
8.93549E+06 4.51678
8.94355E+06 4.51696
8.95161E+06 4.51713
8.95968E+06 4.51731
8.96774E+06 4.51748
8.97581E+06 4.51766
8.98387E+06 4.51783
8.99194E+06 4.51801
9.00000E+06 4.51819
9.00761E+06 4.51757
9.01521E+06 4.51695
9.02282E+06 4.51633
9.03043E+06 4.51572
9.03803E+06 4.51510
9.04564E+06 4.51448
9.05325E+06 4.51387
9.06085E+06 4.51326
9.06846E+06 4.51264
9.07607E+06 4.51203
9.08368E+06 4.51142
9.09128E+06 4.51080
9.09889E+06 4.51019
9.10650E+06 4.50958
9.11410E+06 4.50897
9.12171E+06 4.50836
9.12932E+06 4.50775
9.13692E+06 4.50714
9.14453E+06 4.50653
9.15214E+06 4.50593
9.15974E+06 4.50532
9.16735E+06 4.50471
9.17496E+06 4.50410
9.18256E+06 4.50350
9.19017E+06 4.50289
9.19778E+06 4.50229
9.20538E+06 4.50168
9.21299E+06 4.50108
9.22060E+06 4.50048
9.22820E+06 4.49988
9.23581E+06 4.49927
9.24342E+06 4.49867
9.25102E+06 4.49807
9.25863E+06 4.49747
9.26624E+06 4.49687
9.27384E+06 4.49627
9.28145E+06 4.49567
9.28906E+06 4.49508
9.29666E+06 4.49448
9.30427E+06 4.49388
9.31188E+06 4.49328
9.31948E+06 4.49269
9.32709E+06 4.49209
9.33470E+06 4.49150
9.34230E+06 4.49090
9.34991E+06 4.49031
9.35752E+06 4.48971
9.36512E+06 4.48912
9.37273E+06 4.48853
9.38034E+06 4.48794
9.38794E+06 4.48734
9.39555E+06 4.48675
9.40316E+06 4.48616
9.41076E+06 4.48557
9.41837E+06 4.48498
9.42598E+06 4.48439
9.43358E+06 4.48381
9.44119E+06 4.48322
9.44880E+06 4.48263
9.45640E+06 4.48204
9.46401E+06 4.48146
9.47162E+06 4.48087
9.47922E+06 4.48029
9.48683E+06 4.47970
9.49485E+06 4.47909
9.50287E+06 4.47847
9.51089E+06 4.47786
9.51890E+06 4.47725
9.52692E+06 4.47664
9.53494E+06 4.47603
9.54296E+06 4.47542
9.55098E+06 4.47481
9.55900E+06 4.47420
9.56701E+06 4.47359
9.57503E+06 4.47298
9.58305E+06 4.47237
9.59107E+06 4.47176
9.59909E+06 4.47116
9.60711E+06 4.47055
9.61512E+06 4.46995
9.62314E+06 4.46934
9.63116E+06 4.46874
9.63918E+06 4.46813
9.64720E+06 4.46753
9.65522E+06 4.46693
9.66323E+06 4.46633
9.67125E+06 4.46572
9.67927E+06 4.46512
9.68729E+06 4.46452
9.69531E+06 4.46392
9.70332E+06 4.46332
9.71134E+06 4.46273
9.71936E+06 4.46213
9.72738E+06 4.46153
9.73540E+06 4.46093
9.74342E+06 4.46034
9.75143E+06 4.45974
9.75945E+06 4.45914
9.76747E+06 4.45855
9.77549E+06 4.45795
9.78351E+06 4.45736
9.79153E+06 4.45677
9.79954E+06 4.45617
9.80756E+06 4.45558
9.81558E+06 4.45499
9.82360E+06 4.45440
9.83162E+06 4.45381
9.83964E+06 4.45322
9.84765E+06 4.45263
9.85567E+06 4.45204
9.86369E+06 4.45145
9.87171E+06 4.45086
9.87973E+06 4.45028
9.88775E+06 4.44969
9.89576E+06 4.44910
9.90378E+06 4.44852
9.91180E+06 4.44793
9.91982E+06 4.44735
9.92784E+06 4.44676
9.93585E+06 4.44618
9.94387E+06 4.44560
9.95189E+06 4.44501
9.95991E+06 4.44443
9.96793E+06 4.44385
9.97595E+06 4.44327
9.98396E+06 4.44269
9.99198E+06 4.44211
1.00000E+07 4.44153
1.00076E+07 4.44024
1.00153E+07 4.43895
1.00229E+07 4.43767
1.00305E+07 4.43638
1.00381E+07 4.43510
1.00458E+07 4.43382
1.00534E+07 4.43254
1.00610E+07 4.43126
1.00687E+07 4.42998
1.00763E+07 4.42870
1.00839E+07 4.42743
1.00915E+07 4.42616
1.00992E+07 4.42489
1.01068E+07 4.42362
1.01144E+07 4.42235
1.01220E+07 4.42108
1.01297E+07 4.41982
1.01373E+07 4.41855
1.01449E+07 4.41729
1.01525E+07 4.41603
1.01602E+07 4.41477
1.01678E+07 4.41352
1.01754E+07 4.41226
1.01830E+07 4.41101
1.01907E+07 4.40975
1.01983E+07 4.40850
1.02059E+07 4.40725
1.02136E+07 4.40600
1.02212E+07 4.40475
1.02288E+07 4.40351
1.02364E+07 4.40226
1.02441E+07 4.40102
1.02517E+07 4.39978
1.02593E+07 4.39854
1.02669E+07 4.39730
1.02746E+07 4.39606
1.02822E+07 4.39482
1.02898E+07 4.39359
1.02975E+07 4.39236
1.03051E+07 4.39113
1.03127E+07 4.38989
1.03203E+07 4.38867
1.03280E+07 4.38744
1.03356E+07 4.38621
1.03432E+07 4.38499
1.03508E+07 4.38377
1.03585E+07 4.38254
1.03661E+07 4.38132
1.03737E+07 4.38010
1.03813E+07 4.37889
1.03890E+07 4.37767
1.03966E+07 4.37646
1.04042E+07 4.37524
1.04118E+07 4.37403
1.04195E+07 4.37282
1.04271E+07 4.37161
1.04347E+07 4.37040
1.04424E+07 4.36920
1.04500E+07 4.36799
1.04576E+07 4.36679
1.04652E+07 4.36559
1.04729E+07 4.36439
1.04805E+07 4.36319
1.04881E+07 4.36199
1.04982E+07 4.36039
1.05083E+07 4.35880
1.05184E+07 4.35721
1.05286E+07 4.35562
1.05387E+07 4.35404
1.05488E+07 4.35245
1.05589E+07 4.35087
1.05690E+07 4.34929
1.05791E+07 4.34772
1.05892E+07 4.34614
1.05993E+07 4.34457
1.06095E+07 4.34300
1.06196E+07 4.34143
1.06297E+07 4.33987
1.06398E+07 4.33831
1.06499E+07 4.33675
1.06499E+07 4.33675
1.06611E+07 4.33501
1.06723E+07 4.33328
1.06835E+07 4.33155
1.06947E+07 4.32983
1.07060E+07 4.32811
1.07172E+07 4.32639
1.07284E+07 4.32468
1.07396E+07 4.32297
1.07508E+07 4.32126
1.07620E+07 4.31955
1.07732E+07 4.31785
1.07844E+07 4.31615
1.07956E+07 4.31445
1.08068E+07 4.31276
1.08180E+07 4.31106
1.08292E+07 4.30938
1.08399E+07 4.30775
1.08506E+07 4.30613
1.08612E+07 4.30451
1.08719E+07 4.30290
1.08826E+07 4.30129
1.08933E+07 4.29968
1.09039E+07 4.29808
1.09146E+07 4.29649
1.09253E+07 4.29490
1.09360E+07 4.29331
1.09466E+07 4.29173
1.09573E+07 4.29015
1.09680E+07 4.28857
1.09787E+07 4.28700
1.09893E+07 4.28544
1.10000E+07 4.28388
1.10132E+07 4.28160
1.10263E+07 4.27933
1.10395E+07 4.27708
1.10527E+07 4.27484
1.10658E+07 4.27262
1.10790E+07 4.27041
1.10921E+07 4.26822
1.11053E+07 4.26604
1.11185E+07 4.26388
1.11316E+07 4.26173
1.11448E+07 4.25959
1.11580E+07 4.25747
1.11711E+07 4.25536
1.11843E+07 4.25327
1.11974E+07 4.25119
1.12106E+07 4.24912
1.12238E+07 4.24707
1.12369E+07 4.24503
1.12501E+07 4.24301
1.12633E+07 4.24100
1.12764E+07 4.23900
1.12896E+07 4.23702
1.13027E+07 4.23505
1.13159E+07 4.23310
1.13291E+07 4.23116
1.13422E+07 4.22923
1.13554E+07 4.22732
1.13686E+07 4.22542
1.13817E+07 4.22353
1.13949E+07 4.22166
1.14080E+07 4.21980
1.14212E+07 4.21795
1.14344E+07 4.21612
1.14475E+07 4.21430
1.14607E+07 4.21249
1.14739E+07 4.21070
1.14870E+07 4.20892
1.15002E+07 4.20715
1.15133E+07 4.20539
1.15265E+07 4.20365
1.15397E+07 4.20192
1.15528E+07 4.20021
1.15660E+07 4.19851
1.15792E+07 4.19682
1.15923E+07 4.19514
1.16055E+07 4.19348
1.16186E+07 4.19183
1.16318E+07 4.19019
1.16450E+07 4.18856
1.16581E+07 4.18695
1.16713E+07 4.18535
1.16845E+07 4.18376
1.16976E+07 4.18219
1.17108E+07 4.18062
1.17239E+07 4.17907
1.17371E+07 4.17754
1.17503E+07 4.17601
1.17634E+07 4.17450
1.17766E+07 4.17300
1.17898E+07 4.17151
1.18029E+07 4.17003
1.18161E+07 4.16857
1.18292E+07 4.16712
1.18424E+07 4.16568
1.18492E+07 4.16476
1.18559E+07 4.16385
1.18626E+07 4.16294
1.18694E+07 4.16203
1.18761E+07 4.16112
1.18829E+07 4.16022
1.18896E+07 4.15933
1.18964E+07 4.15843
1.19031E+07 4.15754
1.19098E+07 4.15665
1.19166E+07 4.15576
1.19233E+07 4.15488
1.19301E+07 4.15400
1.19368E+07 4.15312
1.19436E+07 4.15225
1.19503E+07 4.15138
1.19565E+07 4.15056
1.19627E+07 4.14973
1.19689E+07 4.14891
1.19752E+07 4.14810
1.19814E+07 4.14728
1.19876E+07 4.14647
1.19938E+07 4.14566
1.20000E+07 4.14485
1.20078E+07 4.14338
1.20156E+07 4.14192
1.20234E+07 4.14045
1.20313E+07 4.13900
1.20391E+07 4.13754
1.20469E+07 4.13609
1.20547E+07 4.13465
1.20625E+07 4.13320
1.20703E+07 4.13176
1.20781E+07 4.13033
1.20859E+07 4.12890
1.20938E+07 4.12747
1.21016E+07 4.12604
1.21094E+07 4.12462
1.21172E+07 4.12320
1.21250E+07 4.12179
1.21328E+07 4.12038
1.21406E+07 4.11897
1.21484E+07 4.11757
1.21563E+07 4.11617
1.21641E+07 4.11477
1.21719E+07 4.11338
1.21797E+07 4.11199
1.21875E+07 4.11060
1.21953E+07 4.10922
1.22031E+07 4.10784
1.22109E+07 4.10646
1.22188E+07 4.10509
1.22266E+07 4.10372
1.22344E+07 4.10235
1.22422E+07 4.10099
1.22500E+07 4.09963
1.22578E+07 4.09828
1.22656E+07 4.09693
1.22734E+07 4.09558
1.22813E+07 4.09423
1.22891E+07 4.09289
1.22969E+07 4.09155
1.23047E+07 4.09022
1.23125E+07 4.08889
1.23203E+07 4.08756
1.23281E+07 4.08624
1.23359E+07 4.08492
1.23438E+07 4.08360
1.23516E+07 4.08228
1.23594E+07 4.08097
1.23672E+07 4.07967
1.23750E+07 4.07836
1.23828E+07 4.07706
1.23906E+07 4.07576
1.23984E+07 4.07447
1.24063E+07 4.07318
1.24141E+07 4.07189
1.24219E+07 4.07061
1.24297E+07 4.06933
1.24375E+07 4.06805
1.24453E+07 4.06677
1.24531E+07 4.06550
1.24609E+07 4.06424
1.24688E+07 4.06297
1.24766E+07 4.06171
1.24844E+07 4.06046
1.24922E+07 4.05920
1.25000E+07 4.05795
1.25078E+07 4.05670
1.25156E+07 4.05546
1.25234E+07 4.05422
1.25313E+07 4.05298
1.25391E+07 4.05175
1.25469E+07 4.05052
1.25547E+07 4.04929
1.25625E+07 4.04806
1.25703E+07 4.04684
1.25781E+07 4.04562
1.25859E+07 4.04441
1.25938E+07 4.04320
1.26016E+07 4.04199
1.26094E+07 4.04078
1.26172E+07 4.03958
1.26250E+07 4.03838
1.26328E+07 4.03719
1.26406E+07 4.03599
1.26484E+07 4.03481
1.26563E+07 4.03362
1.26641E+07 4.03244
1.26719E+07 4.03126
1.26797E+07 4.03008
1.26875E+07 4.02891
1.26953E+07 4.02774
1.27031E+07 4.02657
1.27109E+07 4.02541
1.27188E+07 4.02425
1.27266E+07 4.02309
1.27344E+07 4.02193
1.27422E+07 4.02078
1.27500E+07 4.01964
1.27578E+07 4.01849
1.27656E+07 4.01735
1.27734E+07 4.01621
1.27813E+07 4.01508
1.27891E+07 4.01394
1.27969E+07 4.01281
1.28047E+07 4.01169
1.28125E+07 4.01057
1.28203E+07 4.00945
1.28281E+07 4.00833
1.28359E+07 4.00722
1.28438E+07 4.00611
1.28516E+07 4.00500
1.28594E+07 4.00389
1.28672E+07 4.00279
1.28750E+07 4.00169
1.28828E+07 4.00060
1.28906E+07 3.99951
1.28984E+07 3.99842
1.29063E+07 3.99733
1.29141E+07 3.99625
1.29219E+07 3.99517
1.29297E+07 3.99409
1.29375E+07 3.99302
1.29453E+07 3.99195
1.29531E+07 3.99088
1.29609E+07 3.98982
1.29688E+07 3.98876
1.29766E+07 3.98770
1.29844E+07 3.98665
1.29922E+07 3.98560
1.30000E+07 3.98455
1.30109E+07 3.98285
1.30218E+07 3.98116
1.30326E+07 3.97947
1.30435E+07 3.97779
1.30544E+07 3.97611
1.30652E+07 3.97444
1.30761E+07 3.97276
1.30870E+07 3.97109
1.30979E+07 3.96943
1.31087E+07 3.96777
1.31196E+07 3.96611
1.31305E+07 3.96446
1.31413E+07 3.96281
1.31522E+07 3.96116
1.31631E+07 3.95952
1.31740E+07 3.95788
1.31848E+07 3.95624
1.31957E+07 3.95461
1.32066E+07 3.95298
1.32174E+07 3.95136
1.32283E+07 3.94973
1.32392E+07 3.94812
1.32501E+07 3.94650
1.32609E+07 3.94489
1.32718E+07 3.94329
1.32827E+07 3.94168
1.32936E+07 3.94008
1.33044E+07 3.93849
1.33153E+07 3.93690
1.33262E+07 3.93531
1.33370E+07 3.93372
1.33479E+07 3.93214
1.33588E+07 3.93056
1.33697E+07 3.92899
1.33805E+07 3.92742
1.33914E+07 3.92585
1.34023E+07 3.92429
1.34131E+07 3.92273
1.34240E+07 3.92117
1.34349E+07 3.91962
1.34458E+07 3.91807
1.34566E+07 3.91653
1.34675E+07 3.91499
1.34784E+07 3.91345
1.34892E+07 3.91192
1.35001E+07 3.91039
1.35110E+07 3.90886
1.35219E+07 3.90734
1.35327E+07 3.90582
1.35436E+07 3.90430
1.35545E+07 3.90279
1.35653E+07 3.90128
1.35762E+07 3.89978
1.35871E+07 3.89828
1.35980E+07 3.89678
1.36088E+07 3.89529
1.36197E+07 3.89380
1.36306E+07 3.89231
1.36415E+07 3.89083
1.36523E+07 3.88935
1.36632E+07 3.88788
1.36741E+07 3.88641
1.36849E+07 3.88495
1.36958E+07 3.88348
1.37053E+07 3.88214
1.37148E+07 3.88080
1.37243E+07 3.87946
1.37338E+07 3.87813
1.37433E+07 3.87679
1.37528E+07 3.87546
1.37624E+07 3.87413
1.37719E+07 3.87281
1.37814E+07 3.87148
1.37909E+07 3.87016
1.38004E+07 3.86884
1.38099E+07 3.86753
1.38194E+07 3.86621
1.38289E+07 3.86490
1.38384E+07 3.86359
1.38479E+07 3.86228
1.38574E+07 3.86097
1.38669E+07 3.85967
1.38764E+07 3.85837
1.38859E+07 3.85707
1.38954E+07 3.85577
1.39049E+07 3.85448
1.39145E+07 3.85319
1.39240E+07 3.85190
1.39335E+07 3.85061
1.39430E+07 3.84933
1.39525E+07 3.84804
1.39620E+07 3.84677
1.39715E+07 3.84549
1.39810E+07 3.84421
1.39905E+07 3.84294
1.40000E+07 3.84167
1.40078E+07 3.84063
1.40156E+07 3.83959
1.40234E+07 3.83856
1.40313E+07 3.83752
1.40391E+07 3.83649
1.40469E+07 3.83546
1.40547E+07 3.83443
1.40625E+07 3.83340
1.40703E+07 3.83238
1.40781E+07 3.83136
1.40859E+07 3.83034
1.40938E+07 3.82932
1.41016E+07 3.82830
1.41094E+07 3.82729
1.41172E+07 3.82627
1.41250E+07 3.82526
1.41328E+07 3.82425
1.41406E+07 3.82325
1.41484E+07 3.82224
1.41563E+07 3.82124
1.41641E+07 3.82024
1.41719E+07 3.81924
1.41797E+07 3.81825
1.41875E+07 3.81725
1.41953E+07 3.81626
1.42031E+07 3.81527
1.42109E+07 3.81428
1.42188E+07 3.81330
1.42266E+07 3.81231
1.42344E+07 3.81133
1.42422E+07 3.81035
1.42500E+07 3.80937
1.42578E+07 3.80840
1.42656E+07 3.80743
1.42734E+07 3.80645
1.42813E+07 3.80549
1.42891E+07 3.80452
1.42969E+07 3.80355
1.43047E+07 3.80259
1.43125E+07 3.80163
1.43203E+07 3.80067
1.43281E+07 3.79971
1.43359E+07 3.79876
1.43438E+07 3.79781
1.43516E+07 3.79686
1.43594E+07 3.79591
1.43672E+07 3.79496
1.43750E+07 3.79402
1.43828E+07 3.79308
1.43906E+07 3.79214
1.43984E+07 3.79120
1.44063E+07 3.79027
1.44141E+07 3.78934
1.44219E+07 3.78841
1.44297E+07 3.78748
1.44375E+07 3.78655
1.44453E+07 3.78563
1.44531E+07 3.78471
1.44609E+07 3.78379
1.44688E+07 3.78287
1.44766E+07 3.78196
1.44844E+07 3.78104
1.44922E+07 3.78014
1.45000E+07 3.77923
1.45078E+07 3.77824
1.45156E+07 3.77725
1.45234E+07 3.77626
1.45313E+07 3.77527
1.45391E+07 3.77429
1.45469E+07 3.77331
1.45547E+07 3.77233
1.45625E+07 3.77135
1.45703E+07 3.77037
1.45781E+07 3.76940
1.45859E+07 3.76842
1.45938E+07 3.76745
1.46016E+07 3.76648
1.46094E+07 3.76552
1.46172E+07 3.76455
1.46250E+07 3.76359
1.46328E+07 3.76263
1.46406E+07 3.76167
1.46484E+07 3.76071
1.46563E+07 3.75976
1.46641E+07 3.75881
1.46719E+07 3.75786
1.46797E+07 3.75691
1.46875E+07 3.75596
1.46953E+07 3.75501
1.47031E+07 3.75407
1.47109E+07 3.75313
1.47188E+07 3.75219
1.47266E+07 3.75126
1.47344E+07 3.75032
1.47422E+07 3.74939
1.47500E+07 3.74846
1.47578E+07 3.74753
1.47656E+07 3.74661
1.47734E+07 3.74568
1.47813E+07 3.74476
1.47891E+07 3.74384
1.47969E+07 3.74292
1.48047E+07 3.74201
1.48125E+07 3.74110
1.48203E+07 3.74018
1.48281E+07 3.73927
1.48359E+07 3.73837
1.48438E+07 3.73747
1.48516E+07 3.73656
1.48594E+07 3.73566
1.48672E+07 3.73476
1.48750E+07 3.73387
1.48828E+07 3.73298
1.48906E+07 3.73208
1.48984E+07 3.73120
1.49063E+07 3.73031
1.49141E+07 3.72943
1.49219E+07 3.72855
1.49297E+07 3.72767
1.49375E+07 3.72679
1.49453E+07 3.72591
1.49531E+07 3.72504
1.49609E+07 3.72417
1.49688E+07 3.72331
1.49766E+07 3.72244
1.49844E+07 3.72158
1.49922E+07 3.72072
1.50000E+07 3.71986
1.50156E+07 3.71794
1.50313E+07 3.71603
1.50469E+07 3.71413
1.50625E+07 3.71223
1.50781E+07 3.71034
1.50938E+07 3.70846
1.51094E+07 3.70659
1.51250E+07 3.70473
1.51406E+07 3.70287
1.51563E+07 3.70102
1.51719E+07 3.69917
1.51875E+07 3.69734
1.52031E+07 3.69551
1.52188E+07 3.69369
1.52344E+07 3.69188
1.52500E+07 3.69008
1.52656E+07 3.68828
1.52813E+07 3.68650
1.52969E+07 3.68472
1.53125E+07 3.68295
1.53281E+07 3.68118
1.53438E+07 3.67943
1.53594E+07 3.67768
1.53750E+07 3.67595
1.53906E+07 3.67421
1.54063E+07 3.67249
1.54219E+07 3.67078
1.54375E+07 3.66908
1.54531E+07 3.66738
1.54688E+07 3.66570
1.54844E+07 3.66402
1.55000E+07 3.66235
1.55156E+07 3.66069
1.55313E+07 3.65904
1.55469E+07 3.65740
1.55625E+07 3.65577
1.55781E+07 3.65414
1.55938E+07 3.65253
1.56094E+07 3.65092
1.56250E+07 3.64933
1.56406E+07 3.64774
1.56563E+07 3.64617
1.56719E+07 3.64460
1.56875E+07 3.64304
1.57031E+07 3.64150
1.57188E+07 3.63996
1.57344E+07 3.63844
1.57500E+07 3.63692
1.57656E+07 3.63541
1.57813E+07 3.63392
1.57969E+07 3.63243
1.58125E+07 3.63096
1.58281E+07 3.62950
1.58438E+07 3.62804
1.58594E+07 3.62660
1.58750E+07 3.62517
1.58906E+07 3.62375
1.59063E+07 3.62235
1.59219E+07 3.62095
1.59375E+07 3.61957
1.59531E+07 3.61819
1.59688E+07 3.61683
1.59844E+07 3.61548
1.60000E+07 3.61415
1.60308E+07 3.61010
1.60616E+07 3.60609
1.60923E+07 3.60211
1.61231E+07 3.59816
1.61539E+07 3.59424
1.61847E+07 3.59036
1.62154E+07 3.58650
1.62462E+07 3.58268
1.62770E+07 3.57889
1.63078E+07 3.57514
1.63385E+07 3.57141
1.63693E+07 3.56772
1.64001E+07 3.56407
1.64309E+07 3.56045
1.64616E+07 3.55686
1.64924E+07 3.55331
1.65241E+07 3.54959
1.65559E+07 3.54591
1.65876E+07 3.54227
1.66193E+07 3.53866
1.66510E+07 3.53510
1.66828E+07 3.53158
1.67145E+07 3.52810
1.67462E+07 3.52467
1.67779E+07 3.52127
1.68097E+07 3.51792
1.68414E+07 3.51462
1.68731E+07 3.51136
1.69048E+07 3.50814
1.69366E+07 3.50497
1.69683E+07 3.50185
1.70000E+07 3.49878
1.70308E+07 3.49509
1.70616E+07 3.49143
1.70924E+07 3.48780
1.71232E+07 3.48420
1.71540E+07 3.48063
1.71848E+07 3.47709
1.72157E+07 3.47357
1.72465E+07 3.47008
1.72773E+07 3.46663
1.73081E+07 3.46320
1.73389E+07 3.45980
1.73697E+07 3.45644
1.74005E+07 3.45310
1.74313E+07 3.44980
1.74621E+07 3.44652
1.74929E+07 3.44328
1.75246E+07 3.43989
1.75563E+07 3.43653
1.75880E+07 3.43321
1.76197E+07 3.42993
1.76514E+07 3.42667
1.76831E+07 3.42346
1.77148E+07 3.42028
1.77465E+07 3.41714
1.77782E+07 3.41403
1.78098E+07 3.41097
1.78415E+07 3.40794
1.78732E+07 3.40494
1.79049E+07 3.40199
1.79366E+07 3.39908
1.79683E+07 3.39620
1.80000E+07 3.39337
1.80524E+07 3.38586
1.81047E+07 3.37845
1.81571E+07 3.37115
1.82094E+07 3.36396
1.82098E+07 3.36390
1.82592E+07 3.35675
1.83086E+07 3.34968
1.83580E+07 3.34267
1.84074E+07 3.33573
1.84567E+07 3.32886
1.85061E+07 3.32206
1.85555E+07 3.31533
1.86049E+07 3.30867
1.86543E+07 3.30208
1.87037E+07 3.29557
1.87531E+07 3.28913
1.88025E+07 3.28276
1.88518E+07 3.27647
1.89012E+07 3.27025
1.89506E+07 3.26411
1.90000E+07 3.25805
1.90800E+07 3.24745
1.91599E+07 3.23702
1.92399E+07 3.22674
1.93199E+07 3.21663
1.93998E+07 3.20668
1.94798E+07 3.19690
1.95597E+07 3.18729
1.96397E+07 3.17784
1.97298E+07 3.16677
1.98199E+07 3.15587
1.99099E+07 3.14517
2.00000E+07 3.13466
