Sr-86(n,tot) ENDFB-8.0
Energy(eV) XS(b)
1.00000E-05 68.0612
1.03125E-05 67.0279
1.06250E-05 66.0405
1.09375E-05 65.0959
1.12500E-05 64.1910
1.15625E-05 63.3231
1.18750E-05 62.4897
1.21875E-05 61.6887
1.25000E-05 60.9180
1.28125E-05 60.1757
1.31250E-05 59.4601
1.34375E-05 58.7697
1.37500E-05 58.1031
1.43750E-05 56.8358
1.50000E-05 55.6487
1.56250E-05 54.5337
1.62500E-05 53.4840
1.68750E-05 52.4932
1.75000E-05 51.5562
1.81250E-05 50.6682
1.87500E-05 49.8252
1.93750E-05 49.0234
2.00000E-05 48.2596
2.09375E-05 47.1789
2.18750E-05 46.1687
2.28125E-05 45.2217
2.37500E-05 44.3316
2.46875E-05 43.4929
2.56250E-05 42.7008
2.65625E-05 41.9512
2.75000E-05 41.2405
2.84375E-05 40.5654
2.93750E-05 39.9230
3.03125E-05 39.3108
3.12500E-05 38.7266
3.21875E-05 38.1682
3.31250E-05 37.6337
3.40625E-05 37.1217
3.50000E-05 36.6304
3.59375E-05 36.1587
3.68750E-05 35.7051
3.78125E-05 35.2687
3.87500E-05 34.8483
3.96875E-05 34.4429
4.06250E-05 34.0518
4.25000E-05 33.3090
4.43750E-05 32.6141
4.62500E-05 31.9623
4.81250E-05 31.3492
5.00000E-05 30.7712
5.15625E-05 30.3141
5.31250E-05 29.8774
5.46875E-05 29.4597
5.62500E-05 29.0598
5.78125E-05 28.6763
5.93750E-05 28.3082
6.09375E-05 27.9545
6.25000E-05 27.6142
6.40625E-05 27.2867
6.56250E-05 26.9710
6.71875E-05 26.6665
6.87500E-05 26.3726
7.18750E-05 25.8140
7.50000E-05 25.2912
7.81250E-05 24.8005
8.12500E-05 24.3386
8.43750E-05 23.9031
8.75000E-05 23.4913
9.06250E-05 23.1014
9.37500E-05 22.7314
9.68750E-05 22.3797
0.000100000 22.0449
0.000103125 21.7257
0.000106250 21.4208
0.000109375 21.1294
0.000112500 20.8503
0.000115625 20.5829
0.000118750 20.3263
0.000121875 20.0798
0.000125000 19.8427
0.000128125 19.6145
0.000131250 19.3947
0.000134375 19.1828
0.000137500 18.9783
0.000143750 18.5898
0.000150000 18.2264
0.000156250 17.8854
0.000162500 17.5648
0.000168750 17.2626
0.000175000 16.9770
0.000181250 16.7067
0.000187500 16.4504
0.000193750 16.2069
0.000200000 15.9752
0.000209375 15.6478
0.000218750 15.3423
0.000228125 15.0563
0.000237500 14.7879
0.000246875 14.5354
0.000256250 14.2973
0.000265625 14.0723
0.000275000 13.8592
0.000284375 13.6571
0.000293750 13.4651
0.000303125 13.2824
0.000312500 13.1082
0.000321875 12.9420
0.000331250 12.7831
0.000340625 12.6311
0.000350000 12.4854
0.000359375 12.3457
0.000368750 12.2115
0.000378125 12.0825
0.000387500 11.9585
0.000396875 11.8390
0.000406250 11.7238
0.000425000 11.5054
0.000443750 11.3016
0.000462500 11.1108
0.000481250 10.9317
0.000500000 10.7632
0.000515625 10.6301
0.000531250 10.5032
0.000546875 10.3821
0.000562500 10.2662
0.000578125 10.1552
0.000593750 10.0488
0.000609375 9.94676
0.000625000 9.84871
0.000640625 9.75442
0.000656250 9.66367
0.000671875 9.57624
0.000687500 9.49194
0.000718750 9.33202
0.000750000 9.18264
0.000781250 9.04270
0.000812500 8.91128
0.000843750 8.78754
0.000875000 8.67077
0.000906250 8.56037
0.000937500 8.45577
0.000968750 8.35650
0.00100000 8.26211
0.00103125 8.17224
0.00106250 8.08653
0.00109375 8.00467
0.00112500 7.92640
0.00115625 7.85145
0.00118750 7.77960
0.00121875 7.71065
0.00125000 7.64441
0.00128125 7.58071
0.00131250 7.51939
0.00134375 7.46031
0.00137500 7.40333
0.00143750 7.29523
0.00150000 7.19422
0.00156250 7.09956
0.00162500 7.01062
0.00168750 6.92686
0.00175000 6.84779
0.00181250 6.77299
0.00187500 6.70211
0.00193750 6.63480
0.00200000 6.57078
0.00209375 6.48036
0.00218750 6.39602
0.00228125 6.31710
0.00237500 6.24306
0.00246875 6.17340
0.00256250 6.10773
0.00265625 6.04567
0.00275000 5.98691
0.00284375 5.93117
0.00293750 5.87819
0.00303125 5.82777
0.00312500 5.77970
0.00321875 5.73380
0.00331250 5.68992
0.00340625 5.64791
0.00350000 5.60765
0.00359375 5.56902
0.00368750 5.53190
0.00378125 5.49622
0.00387500 5.46187
0.00396875 5.42878
0.00406250 5.39687
0.00425000 5.33632
0.00443750 5.27975
0.00462500 5.22673
0.00481250 5.17692
0.00500000 5.13000
0.00515625 5.09292
0.00531250 5.05752
0.00546875 5.02369
0.00562500 4.99130
0.00578125 4.96027
0.00593750 4.93049
0.00609375 4.90189
0.00625000 4.87440
0.00640625 4.84793
0.00656250 4.82244
0.00671875 4.79786
0.00687500 4.77414
0.00718750 4.72908
0.00750000 4.68692
0.00781250 4.64737
0.00812500 4.61016
0.00843750 4.57508
0.00875000 4.54192
0.00906250 4.51053
0.00937500 4.48074
0.00968750 4.45244
0.0100000 4.42549
0.0103125 4.39980
0.0106250 4.37527
0.0109375 4.35181
0.0112500 4.32936
0.0115625 4.30784
0.0118750 4.28718
0.0121875 4.26734
0.0125000 4.24825
0.0128125 4.22988
0.0131250 4.21218
0.0134375 4.19511
0.0137500 4.17864
0.0143750 4.14733
0.0150000 4.11803
0.0156250 4.09053
0.0162500 4.06465
0.0168750 4.04024
0.0175000 4.01717
0.0181250 3.99531
0.0187500 3.97457
0.0193750 3.95486
0.0200000 3.93608
0.0206625 3.91713
0.0213250 3.89908
0.0219875 3.88186
0.0226500 3.86541
0.0233125 3.84968
0.0239750 3.83460
0.0246375 3.82015
0.0253000 3.80628
0.0264578 3.78331
0.0276156 3.76181
0.0287734 3.74165
0.0299313 3.72267
0.0310891 3.70478
0.0322469 3.68787
0.0334047 3.67185
0.0345625 3.65665
0.0355274 3.64457
0.0364922 3.63296
0.0374570 3.62182
0.0384219 3.61109
0.0393867 3.60077
0.0403516 3.59082
0.0413164 3.58123
0.0422813 3.57196
0.0442109 3.55436
0.0461406 3.53789
0.0480703 3.52242
0.0500000 3.50787
0.0515625 3.49669
0.0531250 3.48601
0.0546875 3.47580
0.0562500 3.46602
0.0578125 3.45665
0.0593750 3.44765
0.0609375 3.43900
0.0625000 3.43068
0.0640625 3.42266
0.0656250 3.41494
0.0671875 3.40750
0.0687500 3.40031
0.0718750 3.38664
0.0750000 3.37384
0.0781250 3.36181
0.0812500 3.35049
0.0843750 3.33981
0.0875000 3.32971
0.0906250 3.32013
0.0937500 3.31104
0.0968750 3.30240
0.100000 3.29417
0.103125 3.28632
0.106250 3.27881
0.109375 3.27164
0.112500 3.26476
0.115625 3.25817
0.118750 3.25184
0.121875 3.24576
0.125000 3.23991
0.128125 3.23428
0.131250 3.22885
0.134375 3.22361
0.137500 3.21856
0.143750 3.20894
0.150000 3.19994
0.156250 3.19147
0.162500 3.18351
0.168750 3.17598
0.175000 3.16887
0.181250 3.16213
0.187500 3.15573
0.193750 3.14965
0.200000 3.14386
0.209375 3.13566
0.218750 3.12799
0.228125 3.12079
0.237500 3.11403
0.246875 3.10766
0.256250 3.10164
0.265625 3.09594
0.275000 3.09054
0.284375 3.08540
0.293750 3.08052
0.303125 3.07586
0.312500 3.07141
0.321875 3.06716
0.331250 3.06309
0.340625 3.05919
0.350000 3.05545
0.359375 3.05186
0.368750 3.04840
0.378125 3.04507
0.387500 3.04187
0.396875 3.03878
0.406250 3.03580
0.425000 3.03014
0.443750 3.02483
0.462500 3.01984
0.500000 3.01074
0.531250 3.00389
0.562500 2.99761
0.593750 2.99183
0.625000 2.98649
0.687500 2.97690
0.750000 2.96853
0.812500 2.96114
0.875000 2.95456
0.937500 2.94863
1.00000 2.94325
1.06250 2.93833
1.12500 2.93383
1.18750 2.92968
1.25000 2.92583
1.37500 2.91892
1.50000 2.91286
1.62500 2.90749
1.75000 2.90269
1.87500 2.89836
2.00000 2.89440
2.18750 2.88908
2.37500 2.88437
2.56250 2.88014
2.75000 2.87632
2.93750 2.87284
3.12500 2.86964
3.31250 2.86668
3.50000 2.86393
3.87500 2.85898
4.25000 2.85459
4.62500 2.85066
5.00000 2.84710
5.31250 2.84436
5.62500 2.84180
5.93750 2.83940
6.25000 2.83713
6.87500 2.83294
7.50000 2.82913
8.12500 2.82561
8.75000 2.82235
9.37500 2.81929
10.0000 2.81640
10.6250 2.81365
11.2500 2.81103
12.5000 2.80609
13.7500 2.80148
15.0000 2.79713
16.2500 2.79298
17.5000 2.78900
18.7500 2.78515
20.0000 2.78141
21.8750 2.77597
23.7500 2.77070
25.6250 2.76555
27.5000 2.76051
29.3750 2.75555
31.2500 2.75065
33.1250 2.74580
35.0000 2.74100
38.7500 2.73148
42.5000 2.72204
46.2500 2.71263
50.0000 2.70324
53.1250 2.69541
56.2500 2.68756
62.5000 2.67177
68.7500 2.65583
75.0000 2.63968
81.2500 2.62331
87.5000 2.60668
93.7500 2.58976
100.000 2.57255
109.375 2.54608
118.750 2.51891
125.000 2.50031
137.500 2.46191
150.000 2.42181
162.500 2.37986
175.000 2.33593
187.500 2.28984
200.000 2.24144
209.375 2.20351
218.750 2.16408
228.125 2.12307
237.500 2.08039
246.875 2.03592
256.250 1.98958
265.625 1.94123
275.000 1.89077
284.375 1.83805
293.750 1.78295
303.125 1.72532
312.500 1.66500
321.875 1.60186
331.250 1.53572
340.625 1.46644
350.000 1.39387
356.445 1.34193
362.891 1.28840
369.336 1.23317
375.781 1.17614
382.227 1.11751
388.672 1.05707
395.117 0.994971
401.563 0.931357
407.422 0.872148
413.281 0.811879
419.141 0.750758
425.000 0.689014
429.981 0.636292
434.961 0.583679
439.942 0.531555
444.922 0.480406
449.902 0.430842
454.883 0.383370
457.373 0.360897
459.863 0.339404
462.354 0.319062
464.844 0.300032
466.235 0.290048
467.627 0.280620
469.019 0.271766
470.410 0.263534
471.802 0.255976
472.498 0.252468
473.193 0.249149
473.889 0.246020
474.585 0.243084
475.281 0.240375
475.977 0.237895
476.782 0.235314
477.588 0.233057
478.394 0.231141
479.199 0.229582
480.005 0.228394
480.811 0.227597
481.616 0.227207
482.422 0.227244
482.935 0.227499
483.447 0.227940
483.960 0.228571
484.473 0.229397
484.985 0.230423
485.498 0.231660
485.755 0.232360
486.011 0.233114
486.267 0.233924
486.524 0.234789
486.661 0.235277
486.798 0.235780
486.936 0.236301
487.073 0.236838
487.210 0.237393
487.348 0.237964
487.485 0.238552
487.622 0.239158
487.741 0.239697
487.860 0.240249
487.979 0.240815
488.098 0.241393
488.217 0.241986
488.336 0.242591
488.455 0.243211
488.574 0.243844
488.776 0.244948
488.977 0.246091
489.179 0.247275
489.380 0.248500
489.581 0.249766
489.783 0.251074
490.186 0.253820
490.589 0.256742
490.991 0.259840
491.394 0.263117
491.797 0.266577
492.200 0.270227
492.603 0.274069
493.006 0.278112
493.408 0.282356
493.811 0.286810
494.214 0.291476
494.617 0.296359
495.020 0.301466
495.423 0.306803
495.825 0.312372
496.228 0.318181
496.631 0.324235
497.034 0.330540
497.437 0.337101
497.840 0.343924
498.242 0.351017
498.682 0.359069
499.121 0.367456
499.561 0.376183
500.000 0.385259
500.375 0.393285
500.749 0.401588
501.124 0.410178
501.498 0.419055
501.873 0.428219
502.248 0.437673
502.622 0.447424
502.997 0.457483
503.371 0.467858
503.746 0.478556
504.495 0.500951
505.244 0.524730
505.994 0.549954
506.451 0.566115
506.909 0.582855
507.367 0.600198
507.825 0.618154
508.283 0.636748
508.741 0.655990
509.198 0.675904
509.656 0.696509
510.572 0.739877
511.488 0.786256
512.403 0.835836
513.319 0.888801
514.235 0.945369
515.150 1.00576
516.066 1.07020
516.982 1.13894
517.897 1.21228
518.813 1.29048
519.729 1.37387
520.644 1.46278
521.560 1.55759
522.476 1.65868
523.391 1.76646
524.307 1.88138
525.223 2.00396
526.138 2.13470
527.054 2.27419
527.969 2.42302
528.885 2.58191
529.801 2.75155
530.717 2.93275
531.632 3.12634
532.548 3.33329
533.464 3.55462
534.379 3.79143
535.295 4.04490
536.211 4.31644
537.126 4.60743
538.042 4.91955
538.957 5.25448
539.873 5.61424
540.789 6.00088
541.704 6.41685
542.620 6.86466
543.536 7.34732
544.451 7.86798
545.367 8.43023
546.283 9.03798
547.198 9.69582
548.114 10.4087
549.030 11.1822
549.945 12.0225
550.861 12.9369
551.777 13.9334
552.693 15.0211
553.608 16.2102
554.524 17.5129
555.439 18.9423
555.897 19.7096
556.355 20.5145
556.813 21.3594
557.271 22.2469
557.729 23.1799
558.186 24.1608
558.644 25.1931
559.102 26.2800
559.560 27.4253
560.018 28.6327
560.476 29.9066
560.933 31.2516
561.391 32.6732
561.849 34.1761
562.307 35.7667
562.765 37.4515
563.223 39.2380
563.680 41.1332
564.138 43.1460
564.596 45.2858
565.220 48.4277
565.845 51.8535
566.469 55.5951
567.093 59.6858
567.718 64.1726
568.342 69.1160
568.966 74.5736
569.278 77.5155
569.591 80.6107
570.048 85.4529
570.506 90.6847
570.964 96.3497
571.422 102.492
571.880 109.167
572.338 116.432
572.795 124.357
573.253 133.020
573.711 142.515
574.169 152.940
574.627 164.422
575.085 177.094
575.543 191.126
575.771 198.708
576.000 206.703
576.229 215.140
576.458 224.052
576.687 233.472
576.916 243.438
577.124 253.006
577.332 263.094
577.540 273.736
577.748 284.972
577.956 296.845
578.165 309.400
578.373 322.690
578.581 336.767
578.789 351.690
578.997 367.524
579.205 384.338
579.413 402.209
579.621 421.222
579.829 441.470
580.037 463.061
580.246 486.110
580.475 513.311
580.703 542.602
580.932 574.197
581.161 608.317
581.390 645.227
581.619 685.169
581.848 728.463
582.077 775.449
582.306 826.524
582.535 882.055
582.764 942.519
582.993 1008.41
583.222 1080.27
583.450 1158.67
583.679 1244.24
583.908 1337.60
584.149 1444.86
584.389 1562.16
584.630 1690.28
584.870 1829.71
585.111 1980.93
585.352 2143.90
585.592 2318.31
585.833 2503.22
586.154 2763.30
586.474 3032.40
586.795 3301.07
587.116 3556.53
587.277 3674.75
587.437 3783.96
587.598 3882.19
587.758 3967.52
587.919 4038.34
588.079 4093.12
588.240 4130.79
588.400 4150.55
588.598 4149.88
588.758 4129.17
588.919 4091.03
589.079 4036.43
589.239 3966.77
589.400 3883.55
589.560 3788.58
589.721 3683.76
589.881 3571.08
590.202 3329.29
590.523 3077.13
590.844 2825.75
591.165 2583.39
591.439 2387.88
591.713 2204.93
591.986 2035.36
592.260 1879.48
592.397 1806.53
592.534 1736.84
592.671 1670.31
592.808 1606.88
592.944 1546.37
593.081 1488.69
593.218 1433.72
593.355 1381.39
593.629 1283.81
593.904 1195.28
594.178 1114.88
594.452 1041.80
594.726 975.254
595.000 914.623
595.275 859.272
595.549 808.656
595.823 762.273
596.097 719.725
596.372 680.612
596.646 644.594
596.920 611.370
597.194 580.674
597.468 552.269
597.743 525.941
598.004 502.562
598.266 480.744
598.528 460.348
598.790 441.259
599.051 423.357
599.313 406.564
599.575 390.779
599.837 375.940
600.098 361.961
600.360 348.784
600.622 336.349
600.884 324.607
601.146 313.498
601.407 302.987
601.669 293.023
601.931 283.576
602.205 274.188
602.479 265.293
603.028 248.838
603.576 233.970
604.125 220.496
604.673 208.240
605.221 197.063
605.770 186.840
606.318 177.462
606.966 167.346
607.615 158.153
608.263 149.774
608.911 142.117
609.559 135.105
610.207 128.670
610.855 122.730
611.504 117.235
612.052 112.904
612.600 108.840
613.149 105.022
613.697 101.430
614.246 98.0456
614.794 94.8534
615.343 91.8383
615.891 88.9871
616.440 86.2874
616.988 83.7292
617.536 81.3017
618.085 78.9967
619.182 74.7199
620.279 70.8408
621.375 67.3096
622.472 64.0848
623.569 61.1309
624.666 58.4174
625.763 55.9180
626.860 53.6099
627.957 51.4735
629.054 49.4916
629.901 48.0561
630.749 46.6976
631.596 45.4104
632.444 44.1908
633.292 43.0379
634.139 41.9393
634.987 40.8896
635.834 39.8903
637.530 38.0278
639.225 36.3293
640.920 34.7752
642.615 33.3489
643.712 32.4876
644.809 31.6700
645.906 30.8930
647.003 30.1547
648.100 29.4518
649.196 28.7817
651.390 27.5332
653.584 26.3931
655.778 25.3493
657.972 24.3903
660.165 23.5066
662.359 22.6904
664.553 21.9342
666.747 21.2321
668.940 20.5789
671.134 19.9695
673.328 19.4003
675.522 18.8673
677.715 18.3685
679.909 17.9019
682.103 17.4597
684.297 17.0409
686.491 16.6485
688.684 16.2772
690.878 15.9236
693.072 15.5902
695.266 15.2745
697.459 14.9726
699.653 14.6863
701.847 14.4148
704.041 14.1545
706.235 13.9062
708.428 13.6704
712.816 13.2268
717.203 12.8216
719.397 12.6304
721.591 12.4479
725.978 12.1030
730.366 11.7846
734.754 11.4883
739.141 11.2133
743.529 10.9569
747.916 10.7169
750.908 10.5624
753.899 10.4145
756.891 10.2729
759.882 10.1371
765.865 9.88179
768.857 9.76161
771.848 9.64723
777.831 9.42850
783.814 9.22549
789.797 9.03664
795.780 8.86060
800.168 8.73968
804.555 8.62372
808.943 8.51230
813.330 8.40711
822.105 8.20909
826.493 8.11668
830.880 8.02830
835.268 7.94281
839.656 7.86099
848.431 7.70713
852.818 7.63421
857.206 7.56461
865.981 7.43179
874.756 7.30880
883.531 7.19363
892.306 7.08587
901.081 6.98520
909.856 6.89025
918.631 6.80117
927.406 6.71718
936.181 6.63765
944.159 6.56935
952.136 6.50430
960.113 6.44219
968.091 6.38369
976.068 6.32666
984.045 6.27284
1000.00 6.17114
1007.95 6.12412
1015.89 6.07870
1023.84 6.03475
1031.79 5.99298
1047.68 5.91358
1055.63 5.87617
1063.57 5.84016
1071.52 5.80514
1079.47 5.77143
1095.36 5.70751
1111.25 5.64766
1127.14 5.59130
1143.04 5.53863
1158.93 5.48884
1174.82 5.44183
1190.72 5.39753
1206.61 5.35540
1222.50 5.31557
1238.40 5.27772
1254.29 5.24162
1271.63 5.20429
1278.49 5.19007
1285.35 5.17615
1292.21 5.16252
1299.08 5.14918
1305.94 5.13616
1312.80 5.12348
1316.24 5.11727
1319.67 5.11116
1323.10 5.10515
1326.53 5.09926
1329.42 5.09443
1332.31 5.08972
1334.84 5.08573
1337.37 5.08189
1339.89 5.07824
1342.42 5.07482
1344.95 5.07176
1346.21 5.07040
1347.48 5.06920
1348.74 5.06818
1350.01 5.06740
1351.27 5.06691
1352.53 5.06681
1353.57 5.06708
1354.61 5.06778
1355.65 5.06906
1356.69 5.07110
1357.21 5.07249
1357.73 5.07418
1358.25 5.07623
1358.77 5.07870
1359.29 5.08168
1359.80 5.08528
1360.32 5.08963
1360.84 5.09494
1361.29 5.10053
1361.75 5.10724
1362.20 5.11539
1362.65 5.12533
1362.87 5.13115
1363.10 5.13763
1363.33 5.14489
1363.55 5.15299
1363.78 5.16218
1364.00 5.17259
1364.23 5.18447
1364.45 5.19802
1364.70 5.21549
1364.95 5.23610
1365.20 5.26092
1365.32 5.27522
1365.45 5.29109
1365.57 5.30897
1365.70 5.32895
1365.82 5.35165
1365.95 5.37774
1366.07 5.40812
1366.19 5.44403
1366.32 5.48721
1366.38 5.51224
1366.44 5.54006
1366.51 5.57431
1366.58 5.61313
1366.65 5.65737
1366.71 5.70719
1366.78 5.76522
1366.85 5.83211
1366.92 5.90941
1366.98 5.99752
1367.05 6.10112
1367.09 6.15901
1367.12 6.22138
1367.15 6.28858
1367.19 6.36099
1367.22 6.43899
1367.25 6.52043
1367.29 6.61068
1367.32 6.70782
1367.36 6.81234
1367.39 6.92472
1367.42 7.04551
1367.46 7.17526
1367.49 7.31453
1367.53 7.45938
1367.57 7.67827
1367.62 7.91289
1367.66 8.16933
1367.71 8.44916
1367.75 8.75397
1367.80 9.08542
1367.84 9.44513
1367.89 9.83476
1367.93 10.2657
1367.98 10.7207
1368.02 11.2105
1368.07 11.7364
1368.11 12.2998
1368.16 12.9020
1368.20 13.5441
1368.25 14.2269
1368.28 14.7214
1368.31 15.2358
1368.37 16.3246
1368.43 17.4937
1368.50 18.7422
1368.56 20.0683
1368.62 21.4686
1368.68 22.9388
1368.74 24.4727
1368.81 26.2197
1368.88 28.0227
1369.01 31.7125
1369.14 35.1638
1369.26 38.4983
1369.36 41.0593
1369.47 43.4043
1369.53 44.7270
1369.59 45.9048
1369.65 46.9458
1369.71 47.8374
1369.77 48.5051
1369.83 49.0350
1369.88 49.4161
1369.94 49.6553
1370.00 49.7519
1370.05 49.6928
1370.10 49.5236
1370.15 49.2316
1370.20 48.8238
1370.25 48.2689
1370.30 47.5929
1370.36 46.8019
1370.41 45.9030
1370.48 44.5235
1370.55 42.9817
1370.66 40.4674
1370.77 37.7342
1370.98 31.9659
1371.07 29.3282
1371.17 26.7527
1371.26 24.2809
1371.31 23.0946
1371.36 21.9462
1371.40 20.9292
1371.45 19.9701
1371.49 19.0258
1371.53 18.1404
1371.58 17.2735
1371.62 16.4651
1371.66 15.6951
1371.71 14.9637
1371.77 14.0377
1371.82 13.1944
1371.87 12.5344
1371.92 11.9190
1371.97 11.3466
1372.01 10.8156
1372.06 10.3244
1372.11 9.87109
1372.16 9.45375
1372.21 9.07041
1372.23 8.86898
1372.26 8.68425
1372.29 8.50168
1372.31 8.33445
1372.34 8.16938
1372.37 8.01836
1372.39 7.86946
1372.42 7.73340
1372.45 7.59938
1372.47 7.47703
1372.50 7.35665
1372.52 7.24686
1372.55 7.13893
1372.58 7.04058
1372.63 6.85929
1372.68 6.69400
1372.74 6.54648
1372.79 6.41493
1372.84 6.29771
1372.89 6.19331
1372.95 6.10032
1373.00 6.01750
1373.05 5.94501
1373.11 5.87905
1373.16 5.82017
1373.21 5.76753
1373.26 5.72039
1373.32 5.67809
1373.37 5.64006
1373.42 5.60578
1373.48 5.57534
1373.58 5.52160
1373.69 5.47688
1373.79 5.43918
1373.90 5.40726
1374.00 5.37937
1374.11 5.35496
1374.22 5.33338
1374.32 5.31429
1374.43 5.29695
1374.53 5.28139
1374.74 5.25409
1374.94 5.23284
1375.13 5.21450
1375.32 5.19842
1375.51 5.18422
1375.71 5.17153
1375.90 5.16025
1376.09 5.15011
1376.28 5.14095
1376.67 5.12505
1377.05 5.11181
1377.44 5.10058
1377.82 5.09102
1378.19 5.08311
1378.55 5.07620
1378.92 5.07009
1379.28 5.06464
1379.65 5.05974
1380.01 5.05533
1380.74 5.04768
1381.47 5.04125
1382.20 5.03578
1382.93 5.03103
1383.66 5.02686
1384.51 5.02261
1385.35 5.01884
1386.20 5.01544
1387.05 5.01235
1387.89 5.00950
1388.74 5.00686
1390.43 5.00208
1392.12 4.99779
1393.81 4.99387
1395.50 4.99023
1397.20 4.98678
1398.73 4.98378
1400.27 4.98089
1403.35 4.97536
1406.42 4.97010
1409.50 4.96503
1412.88 4.95963
1416.26 4.95434
1419.65 4.94916
1423.03 4.94409
1429.80 4.93416
1436.56 4.92449
1443.33 4.91501
1450.09 4.90573
1456.86 4.89661
1463.63 4.88765
1476.54 4.87093
1489.46 4.85469
1502.38 4.83891
1515.30 4.82352
1541.13 4.79391
1566.96 4.76572
1596.49 4.73514
1626.02 4.70595
1655.54 4.67825
1685.07 4.65169
1714.59 4.62635
1744.12 4.60194
1803.17 4.55594
1852.38 4.52007
1901.58 4.48594
1950.79 4.45328
2000.00 4.42187
2055.49 4.38783
2110.98 4.35470
2184.96 4.31168
2221.95 4.29044
2258.94 4.26927
2295.94 4.24807
2332.93 4.22674
2369.92 4.20519
2406.91 4.18330
2434.65 4.16660
2462.40 4.14959
2476.27 4.14096
2490.14 4.13225
2504.01 4.12346
2517.89 4.11460
2527.13 4.10869
2536.38 4.10282
2541.01 4.09991
2545.63 4.09706
2550.25 4.09428
2554.88 4.09163
2559.50 4.08919
2561.81 4.08809
2564.13 4.08713
2566.44 4.08635
2568.75 4.08583
2571.06 4.08569
2573.37 4.08613
2574.67 4.08675
2575.97 4.08779
2577.28 4.08940
2578.58 4.09181
2579.88 4.09540
2580.53 4.09781
2581.18 4.10078
2581.83 4.10448
2582.48 4.10914
2583.13 4.11508
2583.78 4.12279
2584.28 4.13047
2584.79 4.14019
2585.30 4.15278
2585.55 4.16056
2585.80 4.16961
2586.05 4.18042
2586.31 4.19355
2586.56 4.20999
2586.81 4.23135
2586.94 4.24473
2587.07 4.26036
2587.19 4.27914
2587.32 4.30157
2587.45 4.32905
2587.57 4.36245
2587.70 4.40359
2587.82 4.45448
2587.93 4.50827
2588.04 4.57245
2588.15 4.65044
2588.26 4.74334
2588.37 4.85578
2588.42 4.91945
2588.47 4.98898
2588.53 5.06483
2588.58 5.14749
2588.64 5.23746
2588.69 5.33527
2588.75 5.44351
2588.80 5.55883
2588.85 5.68369
2588.91 5.81869
2588.96 5.96721
2589.02 6.12449
2589.07 6.29372
2589.12 6.47552
2589.18 6.67423
2589.23 6.88320
2589.29 7.10651
2589.34 7.34470
2589.40 7.59828
2589.45 7.86774
2589.50 8.15352
2589.56 8.45600
2589.61 8.78159
2589.67 9.11873
2589.72 9.47336
2589.77 9.84560
2589.83 10.2429
2589.88 10.6507
2589.94 11.0758
2589.99 11.5181
2590.05 11.9858
2590.10 12.4614
2590.21 13.4586
2590.32 14.5115
2590.42 15.6115
2590.55 16.9508
2590.68 18.3088
2590.93 21.0256
2591.10 22.7730
2591.19 23.5890
2591.27 24.3457
2591.37 25.1607
2591.47 25.8751
2591.54 26.3301
2591.62 26.7262
2591.72 27.1682
2591.81 27.4845
2591.92 27.6754
2592.00 27.7214
2592.10 27.6518
2592.21 27.4316
2592.32 27.0354
2592.43 26.4871
2592.51 25.9631
2592.60 25.3597
2592.71 24.4675
2592.82 23.4811
2592.93 22.5016
2593.03 21.4783
2593.23 19.3325
2593.40 17.4725
2593.57 15.6501
2593.66 14.7701
2593.74 13.9185
2593.83 13.1001
2593.92 12.3185
2594.02 11.4436
2594.07 11.0285
2594.12 10.6363
2594.17 10.2516
2594.22 9.88959
2594.27 9.53595
2594.32 9.20447
2594.36 8.94386
2594.40 8.69926
2594.44 8.45835
2594.48 8.22724
2594.53 8.00580
2594.57 7.79892
2594.61 7.59608
2594.65 7.40698
2594.69 7.22199
2594.73 7.04989
2594.77 6.88188
2594.81 6.72591
2594.85 6.57394
2594.89 6.43315
2594.97 6.16963
2595.05 5.93334
2595.13 5.71976
2595.21 5.53206
2595.30 5.36548
2595.38 5.21811
2595.46 5.08811
2595.54 4.97372
2595.62 4.87333
2595.70 4.78539
2595.78 4.70851
2595.86 4.64140
2595.94 4.58288
2596.02 4.53190
2596.11 4.48749
2596.19 4.44881
2596.27 4.41509
2596.35 4.38568
2596.51 4.33749
2596.67 4.30036
2596.83 4.27140
2597.00 4.24844
2597.16 4.22991
2597.32 4.21467
2597.48 4.20190
2597.64 4.19101
2597.99 4.17230
2598.33 4.15781
2598.68 4.14608
2599.02 4.13641
2599.37 4.12824
2599.71 4.12129
2600.40 4.11007
2601.09 4.10140
2601.78 4.09452
2602.47 4.08894
2603.15 4.08434
2604.25 4.07846
2605.34 4.07382
2606.44 4.07002
2607.53 4.06684
2608.62 4.06412
2609.72 4.06176
2611.91 4.05777
2614.09 4.05447
2616.28 4.05157
2618.47 4.04897
2620.66 4.04657
2624.55 4.04265
2628.44 4.03901
2632.65 4.03526
2636.86 4.03161
2641.08 4.02803
2645.29 4.02450
2653.72 4.01748
2662.14 4.01046
2670.57 4.00339
2679.00 3.99625
2695.85 3.98167
2710.11 3.96893
2724.37 3.95580
2752.90 3.92813
2781.42 3.89828
2809.94 3.86580
2838.46 3.83008
2852.72 3.81083
2866.98 3.79044
2881.24 3.76894
2895.51 3.74602
2909.77 3.72161
2924.03 3.69559
2935.05 3.67414
2946.07 3.65143
2957.09 3.62733
2968.11 3.60168
2979.13 3.57432
2990.15 3.54522
3001.17 3.51385
3012.19 3.48007
3019.32 3.45676
3026.45 3.43224
3033.58 3.40637
3040.71 3.37901
3047.84 3.35007
3054.97 3.31935
3062.10 3.28669
3069.23 3.25193
3075.71 3.21824
3082.20 3.18241
3088.68 3.14425
3095.16 3.10348
3101.64 3.05976
3108.13 3.01281
3114.61 2.96234
3121.09 2.90794
3124.66 2.87604
3128.22 2.84267
3131.79 2.80774
3135.35 2.77112
3138.92 2.73268
3142.48 2.69231
3146.05 2.64985
3149.61 2.60514
3153.18 2.55799
3156.74 2.50822
3160.31 2.45561
3163.87 2.39993
3167.44 2.34092
3171.00 2.27829
3172.79 2.24552
3174.57 2.21174
3176.35 2.17688
3178.13 2.14093
3180.56 2.09002
3183.00 2.03684
3185.43 1.98127
3187.86 1.92325
3190.29 1.86266
3192.72 1.79920
3193.94 1.76638
3195.15 1.73286
3196.37 1.69857
3197.58 1.66355
3199.36 1.61079
3201.15 1.55639
3202.93 1.50035
3204.71 1.44274
3206.50 1.38355
3208.28 1.32295
3210.06 1.26104
3210.95 1.22970
3211.84 1.19813
3213.38 1.14319
3214.92 1.08808
3216.46 1.03312
3217.23 1.00587
3218.00 0.978919
3218.77 0.952290
3219.54 0.926122
3220.31 0.900535
3221.08 0.875696
3221.85 0.851703
3222.62 0.828782
3223.39 0.807165
3224.16 0.787137
3225.05 0.766245
3225.94 0.748387
3226.83 0.734149
3227.72 0.724308
3228.62 0.719730
3229.06 0.719743
3229.51 0.721481
3229.95 0.725117
3230.40 0.730817
3230.84 0.738807
3231.29 0.749276
3231.84 0.765930
3232.11 0.775989
3232.38 0.787244
3232.66 0.799852
3232.93 0.813801
3233.20 0.829217
3233.48 0.846191
3233.67 0.859181
3233.86 0.872959
3233.90 0.876015
3234.03 0.886133
3234.17 0.896605
3234.42 0.918093
3234.67 0.941323
3234.92 0.966396
3235.18 0.993418
3235.54 1.03607
3235.91 1.08338
3236.27 1.13575
3236.64 1.19346
3237.00 1.25731
3237.37 1.32768
3237.73 1.40517
3238.10 1.49018
3238.46 1.58390
3238.83 1.68692
3239.01 1.74233
3239.19 1.80010
3239.37 1.86065
3239.55 1.92410
3239.74 1.99098
3239.92 2.06069
3240.10 2.13376
3240.28 2.21035
3240.47 2.29108
3240.65 2.37527
3240.83 2.46353
3241.01 2.55608
3241.24 2.67565
3241.46 2.80243
3241.68 2.93687
3241.90 3.07882
3242.13 3.23010
3242.35 3.39067
3242.57 3.56117
3242.79 3.74142
3243.02 3.93379
3243.24 4.13830
3243.46 4.35579
3243.69 4.58722
3243.91 4.83359
3244.13 5.09603
3244.36 5.37573
3244.58 5.67264
3244.80 5.99086
3245.02 6.33069
3245.25 6.69384
3245.47 7.08222
3245.69 7.49790
3245.92 7.94318
3246.14 8.42059
3246.36 8.93054
3246.58 9.48070
3246.81 10.0723
3247.03 10.7091
3247.25 11.3921
3247.47 12.1323
3247.70 12.9319
3247.92 13.7968
3248.14 14.7293
3248.37 15.7451
3248.59 16.8487
3248.81 18.0495
3249.03 19.3583
3249.26 20.7873
3249.48 22.3504
3249.70 24.0634
3249.81 24.9776
3249.93 25.9358
3250.04 26.9500
3250.15 28.0050
3250.26 29.1228
3250.37 30.2869
3250.48 31.5217
3250.59 32.8091
3250.71 34.1763
3250.82 35.6032
3250.93 37.1204
3251.04 38.7058
3251.15 40.3935
3251.26 42.1591
3251.38 44.0407
3251.49 46.0116
3251.60 48.0950
3251.71 50.2987
3251.82 52.6524
3251.93 55.1228
3252.04 57.7641
3252.15 60.5388
3252.27 63.5079
3252.38 66.6294
3252.49 69.9409
3252.60 73.4548
3252.71 77.2188
3252.82 81.1794
3252.93 85.4224
3253.05 89.8869
3253.16 94.6687
3253.27 99.6982
3253.38 105.033
3253.49 110.688
3253.64 118.980
3253.79 127.944
3253.95 137.616
3254.10 148.031
3254.25 159.219
3254.40 171.205
3254.55 184.004
3254.71 197.529
3254.82 208.081
3254.93 218.968
3255.15 242.082
3255.37 266.723
3255.60 292.541
3255.94 333.936
3256.28 376.015
3256.45 396.759
3256.62 416.779
3256.79 436.015
3256.96 453.949
3257.09 466.682
3257.22 478.430
3257.35 489.075
3257.48 498.511
3257.61 506.644
3257.74 513.393
3257.87 518.693
3258.00 522.494
3258.13 524.779
3258.26 525.498
3258.48 523.352
3258.69 517.264
3258.90 507.486
3259.11 494.370
3259.32 478.271
3259.54 459.836
3259.75 439.517
3259.96 417.845
3260.38 373.420
3260.58 351.115
3260.79 329.184
3261.00 307.806
3261.20 287.404
3261.41 268.035
3261.62 249.804
3261.83 232.533
3262.04 216.513
3262.25 201.733
3262.35 194.796
3262.46 188.152
3262.56 181.794
3262.67 175.713
3262.77 169.901
3262.88 164.347
3262.98 159.041
3263.09 153.975
3263.30 144.563
3263.51 135.939
3263.72 128.076
3263.93 120.901
3264.14 114.375
3264.35 108.375
3264.56 102.877
3264.77 97.8292
3264.98 93.2084
3265.15 89.6784
3265.32 86.3727
3265.49 83.2732
3265.66 80.3631
3265.84 77.6274
3266.01 75.0523
3266.18 72.6253
3266.35 70.3482
3266.52 68.1840
3266.69 66.1371
3266.87 64.1990
3267.04 62.3723
3267.21 60.6286
3267.38 58.9723
3267.72 55.9075
3267.93 54.1732
3268.14 52.5368
3268.35 50.9907
3268.56 49.5282
3268.77 48.1431
3268.98 46.8299
3269.19 45.5835
3269.40 44.4047
3269.61 43.2781
3269.82 42.2055
3270.24 40.2086
3270.66 38.3890
3271.08 36.7292
3271.54 35.0714
3272.00 33.5577
3272.46 32.1711
3272.91 30.8973
3273.37 29.7236
3273.83 28.6394
3274.29 27.6353
3274.75 26.7049
3275.17 25.9068
3275.59 25.1583
3276.01 24.4551
3276.43 23.7934
3276.85 23.1698
3277.27 22.5814
3277.69 22.0253
3278.10 21.5003
3278.52 21.0018
3278.94 20.5290
3279.36 20.0800
3279.78 19.6531
3280.20 19.2469
3280.62 18.8599
3281.04 18.4909
3281.46 18.1395
3282.30 17.4812
3283.14 16.8789
3283.98 16.3249
3284.82 15.8148
3285.66 15.3429
3286.50 14.9060
3287.34 14.4998
3288.18 14.1219
3288.79 13.8628
3289.40 13.6161
3290.01 13.3812
3290.62 13.1575
3291.23 12.9436
3291.84 12.7396
3293.06 12.3571
3294.29 12.0056
3295.51 11.6815
3296.73 11.3821
3297.95 11.1047
3298.79 10.9254
3299.63 10.7549
3300.47 10.5924
3301.31 10.4376
3302.15 10.2897
3302.99 10.1486
3303.83 10.0134
3304.67 9.88413
3306.35 9.64126
3308.02 9.41772
3309.70 9.21122
3311.38 9.01993
3313.06 8.84214
3314.74 8.67669
3316.42 8.52227
3318.10 8.37784
3319.78 8.24238
3321.46 8.11526
3323.14 7.99567
3324.82 7.88308
3326.42 7.78168
3328.02 7.68549
3329.63 7.59400
3331.23 7.50701
3332.83 7.42425
3334.43 7.34541
3337.64 7.19851
3340.85 7.06433
3344.05 6.94137
3347.26 6.82822
3350.46 6.72383
3353.82 6.62272
3357.18 6.52920
3360.54 6.44242
3363.89 6.36169
3367.25 6.28636
3370.61 6.21597
3373.97 6.15001
3377.33 6.08808
3382.21 6.00446
3387.10 5.92767
3391.98 5.85703
3396.87 5.79172
3401.75 5.73100
3406.64 5.67453
3411.52 5.62188
3416.41 5.57267
3423.12 5.51005
3429.84 5.45252
3436.56 5.39951
3443.27 5.35057
3449.99 5.30512
3456.71 5.26288
3463.42 5.22349
3470.14 5.18664
3476.86 5.15214
3483.57 5.11971
3497.01 5.06042
3510.44 5.00749
3523.87 4.95994
3537.31 4.91707
3550.74 4.87789
3564.17 4.84208
3577.61 4.80932
3591.04 4.77898
3604.47 4.75099
3617.91 4.72498
3631.34 4.70067
3658.21 4.65677
3685.07 4.61797
3711.94 4.58332
3738.80 4.55216
3759.57 4.53011
3780.33 4.50958
3821.85 4.47248
3863.37 4.43954
3904.89 4.41008
3958.62 4.37613
4012.35 4.34587
4066.09 4.31856
4119.82 4.29368
4178.44 4.26886
4197.98 4.26104
4224.84 4.25065
4251.71 4.24063
4278.58 4.23099
4305.44 4.22171
4332.31 4.21284
4345.74 4.20857
4359.18 4.20445
4372.61 4.20048
4386.04 4.19673
4399.48 4.19327
4412.91 4.19021
4419.63 4.18894
4426.34 4.18783
4433.06 4.18705
4439.78 4.18666
4446.49 4.18685
4453.21 4.18789
4456.57 4.18885
4459.93 4.19024
4463.29 4.19209
4466.64 4.19469
4469.24 4.19732
4471.83 4.20068
4474.43 4.20495
4477.02 4.21045
4479.62 4.21757
4482.21 4.22689
4483.51 4.23270
4484.81 4.23948
4486.11 4.24744
4487.40 4.25685
4488.63 4.26736
4489.85 4.27986
4491.07 4.29484
4492.29 4.31301
4493.51 4.33533
4494.73 4.36316
4495.34 4.37977
4495.95 4.39856
4496.56 4.41999
4497.17 4.44450
4497.82 4.47472
4498.47 4.51016
4499.12 4.55212
4499.77 4.60237
4500.42 4.66332
4500.74 4.69889
4501.07 4.73841
4501.39 4.78281
4501.72 4.83267
4502.04 4.88918
4502.36 4.95369
4502.73 5.03770
4503.09 5.13719
4503.27 5.19463
4503.45 5.25773
4503.63 5.32782
4503.81 5.40619
4504.00 5.49494
4504.18 5.59513
4504.36 5.70973
4504.54 5.84193
4504.72 5.99664
4504.90 6.17720
4505.08 6.39061
4505.26 6.64457
4505.37 6.81412
4505.47 7.00258
4505.58 7.21235
4505.68 7.44605
4505.79 7.70662
4505.89 7.99724
4506.00 8.32141
4506.10 8.67932
4506.21 9.08191
4506.31 9.53034
4506.42 10.0293
4506.52 10.5837
4506.63 11.1989
4506.73 11.8802
4506.84 12.6332
4506.94 13.4553
4507.01 14.0278
4507.08 14.6356
4507.14 15.2801
4507.21 15.9629
4507.28 16.6853
4507.34 17.4486
4507.41 18.2542
4507.48 19.0903
4507.54 19.9833
4507.61 20.9219
4507.68 21.9070
4507.74 22.9236
4507.81 24.0031
4507.88 25.1309
4507.95 26.3074
4508.01 27.5139
4508.12 29.5305
4508.22 31.6647
4508.33 33.9135
4508.43 36.2724
4508.54 38.7350
4508.64 41.2933
4508.85 46.6558
4509.10 53.2904
4509.35 60.0201
4509.56 65.6739
4509.77 71.0297
4509.98 75.9336
4510.08 78.1601
4510.19 80.1894
4510.29 82.0405
4510.40 83.6749
4510.50 85.0759
4510.61 86.2194
4510.77 87.4840
4510.93 88.1079
4511.00 88.1750
4511.16 87.8445
4511.32 86.8645
4511.48 85.3182
4511.63 83.2204
4511.80 80.4540
4511.96 77.2132
4512.13 73.5591
4512.29 69.5745
4512.50 64.1539
4512.71 58.5410
4513.04 49.6439
4513.20 45.3247
4513.36 41.1700
4513.53 37.2021
4513.61 35.3207
4513.69 33.5043
4513.78 31.7555
4513.86 30.0764
4513.94 28.4688
4514.02 26.9334
4514.10 25.4709
4514.19 24.0812
4514.27 22.7637
4514.35 21.5178
4514.43 20.3421
4514.51 19.2352
4514.60 18.1952
4514.68 17.2200
4514.76 16.3075
4514.84 15.4551
4514.92 14.6605
4515.01 13.9209
4515.09 13.2336
4515.17 12.5961
4515.25 12.0054
4515.33 11.4590
4515.45 10.7792
4515.56 10.1704
4515.67 9.62600
4515.78 9.14004
4515.89 8.70675
4516.01 8.32077
4516.12 7.97713
4516.23 7.67381
4516.34 7.40119
4516.45 7.15835
4516.56 6.94185
4516.68 6.75023
4516.79 6.57727
4516.90 6.42233
4517.01 6.28323
4517.12 6.15911
4517.30 5.98360
4517.48 5.83353
4517.66 5.70417
4517.84 5.59173
4518.02 5.49320
4518.20 5.40617
4518.38 5.32873
4518.55 5.25934
4518.91 5.14004
4519.27 5.04101
4519.63 4.95740
4519.99 4.88604
4520.31 4.82899
4520.64 4.77865
4520.97 4.73396
4521.30 4.69405
4521.63 4.65824
4521.95 4.62596
4522.61 4.57020
4523.27 4.52390
4523.92 4.48499
4524.58 4.45195
4525.23 4.42363
4525.86 4.40017
4526.49 4.37965
4527.11 4.36153
4527.74 4.34548
4528.99 4.31833
4530.24 4.29641
4531.50 4.27840
4532.75 4.26344
4534.00 4.25085
4535.25 4.24016
4536.21 4.23306
4537.64 4.22377
4539.07 4.21579
4540.50 4.20889
4541.93 4.20287
4543.84 4.19596
4545.75 4.19008
4547.66 4.18502
4549.57 4.18062
4553.39 4.17338
4557.20 4.16760
4561.02 4.16283
4564.84 4.15882
4568.65 4.15538
4572.47 4.15237
4576.29 4.14969
4580.11 4.14729
4587.74 4.14307
4595.38 4.13938
4603.01 4.13609
4610.64 4.13307
4618.28 4.13025
4625.91 4.12759
4633.55 4.12505
4648.82 4.12023
4664.09 4.11565
4679.35 4.11124
4694.62 4.10697
4717.53 4.10075
4740.43 4.09468
4763.33 4.08875
4786.24 4.08291
4824.41 4.07339
4862.58 4.06407
4900.75 4.05491
4938.93 4.04591
4969.46 4.03882
5000.00 4.03186
5018.48 4.02774
5036.95 4.02371
5046.19 4.02175
5055.43 4.01986
5064.66 4.01806
5073.90 4.01639
5083.14 4.01494
5087.76 4.01434
5092.38 4.01388
5096.99 4.01360
5101.61 4.01358
5106.23 4.01395
5110.85 4.01489
5113.45 4.01580
5116.05 4.01713
5118.65 4.01904
5121.24 4.02176
5123.84 4.02567
5126.44 4.03138
5127.74 4.03521
5129.04 4.04000
5130.34 4.04605
5131.64 4.05380
5132.65 4.06142
5133.66 4.07087
5134.67 4.08284
5135.68 4.09828
5136.69 4.11874
5137.70 4.14668
5138.20 4.16472
5138.71 4.18655
5139.21 4.21350
5139.72 4.24775
5140.19 4.28963
5140.66 4.34720
5140.89 4.38533
5141.13 4.43235
5141.36 4.49194
5141.60 4.56808
5141.83 4.66755
5142.06 4.79771
5142.30 4.97051
5142.42 5.07648
5142.53 5.19838
5142.65 5.33980
5142.77 5.50091
5142.89 5.68564
5143.00 5.89708
5143.12 6.14076
5143.24 6.41618
5143.35 6.72910
5143.47 7.08359
5143.57 7.42271
5143.67 7.79408
5143.77 8.20362
5143.87 8.65406
5143.97 9.15335
5144.07 9.69420
5144.17 10.2840
5144.27 10.9252
5144.37 11.6273
5144.46 12.3786
5144.56 13.1874
5144.66 14.0554
5144.76 14.9932
5144.86 15.9828
5144.96 17.0335
5145.06 18.1447
5145.18 19.5470
5145.29 21.0183
5145.41 22.5659
5145.53 24.1843
5145.65 25.8812
5145.76 27.6192
5146.00 31.2199
5146.30 36.0534
5146.61 40.7494
5146.81 43.5978
5147.01 46.1729
5147.13 47.6515
5147.26 48.9616
5147.36 49.8699
5147.46 50.6633
5147.56 51.3349
5147.66 51.8791
5147.76 52.2912
5147.90 52.6488
5148.00 52.7221
5148.15 52.5631
5148.27 52.2075
5148.41 51.5424
5148.51 50.9363
5148.60 50.2218
5148.70 49.3896
5148.79 48.4635
5148.95 46.7289
5149.11 44.7841
5149.30 42.1585
5149.49 39.3330
5150.22 27.9783
5150.37 25.7800
5150.51 23.6709
5150.66 21.6677
5150.81 19.7953
5150.88 18.9000
5150.96 18.0373
5151.03 17.2081
5151.10 16.4231
5151.18 15.6611
5151.25 14.9331
5151.33 14.2390
5151.40 13.5873
5151.53 12.4984
5151.66 11.5175
5151.79 10.6253
5151.92 9.83059
5152.05 9.11548
5152.18 8.48504
5152.31 7.92741
5152.44 7.43644
5152.57 7.00294
5152.70 6.62754
5152.83 6.30103
5152.96 6.01800
5153.09 5.77168
5153.22 5.56113
5153.35 5.38006
5153.48 5.22463
5153.62 5.09041
5153.75 4.97634
5153.88 4.87789
5154.01 4.79417
5154.27 4.65999
5154.53 4.56053
5154.79 4.48510
5155.05 4.42723
5155.31 4.38146
5155.57 4.34468
5156.09 4.28852
5156.61 4.24738
5157.13 4.21548
5157.65 4.18985
5158.25 4.16622
5158.84 4.14689
5160.02 4.11730
5161.20 4.09584
5162.38 4.07970
5163.56 4.06717
5164.74 4.05723
5165.93 4.04919
5167.11 4.04260
5168.22 4.03741
5170.44 4.02914
5172.67 4.02284
5175.03 4.01764
5177.39 4.01351
5179.76 4.01015
5182.12 4.00735
5184.48 4.00500
5186.84 4.00295
5191.57 3.99951
5196.30 3.99672
5201.02 3.99436
5205.75 3.99231
5210.47 3.99047
5216.04 3.98852
5221.60 3.98669
5227.16 3.98499
5232.72 3.98338
5243.84 3.98033
5254.96 3.97747
5272.75 3.97310
5290.54 3.96891
5308.33 3.96482
5326.12 3.96080
5343.92 3.95685
5361.15 3.95306
5369.77 3.95120
5378.39 3.94935
5387.01 3.94753
5391.32 3.94664
5395.62 3.94577
5399.93 3.94493
5404.24 3.94413
5406.40 3.94375
5408.55 3.94340
5410.71 3.94309
5412.86 3.94283
5414.46 3.94268
5416.06 3.94259
5417.66 3.94259
5419.25 3.94272
5420.05 3.94287
5420.85 3.94308
5421.65 3.94339
5422.45 3.94382
5423.25 3.94444
5424.05 3.94535
5424.45 3.94598
5424.85 3.94678
5425.25 3.94787
5425.65 3.94943
5425.93 3.95096
5426.20 3.95307
5426.48 3.95604
5426.76 3.96027
5426.90 3.96304
5427.04 3.96635
5427.18 3.97033
5427.32 3.97509
5427.46 3.98079
5427.59 3.98758
5427.73 3.99566
5427.87 4.00522
5428.01 4.01651
5428.15 4.02978
5428.29 4.04530
5428.43 4.06336
5428.57 4.08428
5428.71 4.10837
5428.98 4.16738
5429.12 4.20293
5429.26 4.24291
5429.40 4.28760
5429.54 4.33721
5429.68 4.39192
5429.82 4.45182
5429.96 4.51696
5430.10 4.58726
5430.31 4.70749
5430.53 4.83819
5430.75 4.97797
5430.97 5.12425
5431.40 5.42314
5431.62 5.56678
5431.83 5.70072
5432.00 5.79322
5432.16 5.87549
5432.33 5.94574
5432.49 6.00239
5432.63 6.03680
5432.76 6.06116
5432.92 6.07762
5433.00 6.07939
5433.01 6.07937
5433.03 6.07918
5433.04 6.07885
5433.07 6.07766
5433.14 6.07337
5433.31 6.04929
5433.42 6.02457
5433.54 5.99286
5433.57 5.98280
5433.69 5.93635
5433.81 5.88561
5433.93 5.82899
5434.05 5.76619
5434.17 5.69896
5434.40 5.55192
5434.64 5.39389
5435.21 5.00439
5435.50 4.82052
5435.64 4.73462
5435.78 4.65328
5435.92 4.57639
5436.06 4.50531
5436.21 4.43962
5436.35 4.37939
5436.49 4.32420
5436.63 4.27469
5436.78 4.23027
5436.92 4.19067
5437.12 4.14296
5437.31 4.10318
5437.51 4.07040
5437.71 4.04382
5437.91 4.02226
5438.10 4.00512
5438.30 3.99147
5438.50 3.98078
5438.70 3.97239
5438.89 3.96590
5439.09 3.96083
5439.29 3.95691
5439.49 3.95386
5439.68 3.95148
5439.88 3.94959
5440.08 3.94810
5440.47 3.94589
5440.87 3.94436
5441.26 3.94322
5441.66 3.94233
5442.45 3.94097
5443.24 3.93995
5444.00 3.93917
5444.76 3.93853
5446.27 3.93753
5447.79 3.93677
5449.31 3.93614
5450.83 3.93562
5452.34 3.93517
5455.38 3.93441
5458.66 3.93376
5461.95 3.93326
5465.24 3.93290
5468.53 3.93273
5471.81 3.93285
5473.46 3.93307
5475.10 3.93343
5476.75 3.93397
5478.39 3.93477
5480.03 3.93593
5481.68 3.93760
5482.88 3.93930
5484.08 3.94158
5485.28 3.94471
5486.48 3.94913
5487.08 3.95203
5487.68 3.95558
5488.28 3.96000
5488.88 3.96562
5489.48 3.97311
5490.08 3.98381
5490.39 3.99126
5490.69 4.00095
5490.99 4.01405
5491.29 4.03231
5491.52 4.05218
5491.76 4.07867
5492.00 4.11433
5492.23 4.16239
5492.47 4.22698
5492.59 4.26723
5492.71 4.31329
5492.83 4.36676
5492.95 4.42764
5493.06 4.49794
5493.18 4.57752
5493.30 4.66882
5493.42 4.77148
5493.54 4.88845
5493.66 5.01899
5493.78 5.16658
5493.89 5.33000
5494.01 5.51324
5494.13 5.71441
5494.25 5.93802
5494.37 6.18133
5494.49 6.44930
5494.60 6.73814
5494.72 7.05320
5494.84 7.38944
5494.96 7.75251
5495.08 8.13597
5495.17 8.43326
5495.25 8.74249
5495.34 9.06314
5495.43 9.39461
5495.60 10.0870
5495.77 10.8122
5496.47 13.8315
5496.63 14.4888
5496.79 15.1121
5496.94 15.6904
5497.10 16.2095
5497.28 16.7109
5497.45 17.1169
5497.62 17.4191
5497.76 17.5860
5497.85 17.6508
5497.97 17.6916
5498.00 17.6940
5498.12 17.6682
5498.22 17.6051
5498.31 17.5047
5498.41 17.3742
5498.50 17.2131
5498.65 16.9073
5498.79 16.5350
5498.92 16.1596
5499.04 15.7429
5499.17 15.2900
5499.30 14.8063
5499.44 14.2231
5499.58 13.6156
5499.87 12.3613
5500.16 11.1064
5500.30 10.4961
5500.45 9.90503
5500.56 9.47726
5500.66 9.06472
5500.77 8.66882
5500.88 8.29072
5500.99 7.93129
5501.10 7.59117
5501.20 7.27073
5501.31 6.97013
5501.42 6.68935
5501.53 6.42814
5501.64 6.18613
5501.74 5.96279
5501.85 5.75747
5501.96 5.56942
5502.07 5.39782
5502.18 5.24180
5502.34 5.03496
5502.50 4.85791
5502.66 4.70744
5502.82 4.58045
5502.99 4.47395
5503.15 4.38516
5503.31 4.31153
5503.47 4.25077
5503.63 4.20081
5503.80 4.15988
5503.96 4.12640
5504.12 4.09906
5504.28 4.07671
5504.44 4.05843
5504.61 4.04343
5504.77 4.03106
5505.09 4.01224
5505.42 3.99889
5505.74 3.98905
5506.06 3.98149
5506.71 3.97049
5507.36 3.96266
5507.86 3.95789
5508.37 3.95393
5509.38 3.94771
5510.38 3.94304
5511.39 3.93942
5512.40 3.93654
5513.41 3.93419
5514.42 3.93224
5515.42 3.93060
5517.44 3.92798
5519.46 3.92595
5521.47 3.92431
5523.49 3.92295
5525.22 3.92194
5526.95 3.92104
5530.40 3.91948
5533.86 3.91816
5537.31 3.91699
5540.77 3.91592
5544.23 3.91494
5547.68 3.91403
5551.14 3.91319
5552.94 3.91280
5554.74 3.91245
5556.54 3.91215
5558.34 3.91192
5559.24 3.91185
5560.14 3.91183
5561.04 3.91188
5561.94 3.91201
5562.84 3.91229
5563.29 3.91252
5563.74 3.91285
5564.19 3.91334
5564.64 3.91413
5564.87 3.91470
5565.09 3.91545
5565.32 3.91645
5565.54 3.91780
5565.79 3.91987
5566.04 3.92276
5566.30 3.92677
5566.42 3.92933
5566.55 3.93232
5566.67 3.93582
5566.80 3.93990
5566.93 3.94463
5567.05 3.95012
5567.30 3.96370
5567.56 3.98147
5567.81 4.00429
5568.06 4.03308
5568.31 4.06866
5568.56 4.11174
5568.82 4.16277
5569.07 4.22185
5569.32 4.28863
5569.57 4.36220
5569.91 4.47012
5570.26 4.58221
5570.60 4.69128
5570.77 4.74213
5570.94 4.78912
5571.09 4.82705
5571.25 4.86038
5571.40 4.88850
5571.55 4.91085
5571.69 4.92545
5571.82 4.93500
5571.99 4.93964
5572.00 4.93965
5572.02 4.93962
5572.06 4.93908
5572.11 4.93792
5572.21 4.93368
5572.45 4.91135
5572.51 4.90265
5572.58 4.89287
5572.79 4.85424
5573.00 4.80602
5573.21 4.74986
5573.42 4.68764
5573.68 4.60544
5573.93 4.52091
5574.19 4.43669
5574.45 4.35627
5574.71 4.28125
5574.97 4.21374
5575.23 4.15414
5575.49 4.10321
5575.79 4.05332
5575.95 4.03240
5576.10 4.01413
5576.25 3.99807
5576.41 3.98424
5576.56 3.97225
5576.71 3.96207
5576.87 3.95335
5577.02 3.94602
5577.17 3.93982
5577.33 3.93466
5577.48 3.93034
5577.63 3.92677
5577.79 3.92379
5577.94 3.92135
5578.10 3.91932
5578.25 3.91765
5578.40 3.91627
5578.56 3.91513
5578.86 3.91338
5579.17 3.91214
5579.48 3.91123
5579.78 3.91054
5580.09 3.90999
5580.40 3.90953
5580.92 3.90890
5581.43 3.90839
5582.47 3.90758
5583.50 3.90693
5584.53 3.90639
5585.57 3.90592
5586.60 3.90551
5588.67 3.90477
5590.74 3.90412
5592.81 3.90352
5594.88 3.90295
5596.94 3.90241
5600.30 3.90156
5603.67 3.90074
5610.39 3.89915
5617.11 3.89759
5623.83 3.89605
5637.28 3.89301
5650.72 3.88999
5664.16 3.88698
5677.61 3.88398
5704.49 3.87796
5729.31 3.87240
5741.72 3.86961
5754.13 3.86682
5766.54 3.86404
5772.75 3.86265
5778.95 3.86128
5785.16 3.85991
5791.36 3.85857
5794.47 3.85791
5797.57 3.85727
5800.67 3.85665
5803.77 3.85606
5806.23 3.85562
5808.68 3.85522
5811.14 3.85488
5813.60 3.85461
5816.05 3.85447
5817.28 3.85447
5818.51 3.85453
5819.74 3.85468
5820.96 3.85493
5822.19 3.85534
5823.42 3.85598
5824.46 3.85678
5825.49 3.85791
5826.52 3.85956
5827.04 3.86067
5827.56 3.86205
5828.07 3.86384
5828.59 3.86624
5829.11 3.86972
5829.37 3.87214
5829.63 3.87524
5829.88 3.87935
5830.14 3.88486
5830.40 3.89241
5830.66 3.90274
5830.92 3.91706
5831.18 3.93673
5831.31 3.94925
5831.44 3.96379
5831.56 3.98072
5831.69 4.00040
5831.90 4.03763
5832.10 4.08412
5832.30 4.14162
5832.50 4.21203
5832.70 4.29733
5832.91 4.39950
5833.11 4.52044
5833.31 4.66182
5833.51 4.82500
5833.71 5.01083
5833.92 5.21951
5834.12 5.45049
5834.32 5.70228
5834.52 5.97243
5834.72 6.25740
5834.93 6.55263
5835.20 6.96092
5835.48 7.36147
5835.61 7.55385
5835.75 7.73600
5835.89 7.90701
5836.02 8.06461
5836.15 8.19191
5836.27 8.30456
5836.39 8.40240
5836.51 8.48432
5836.62 8.54561
5836.73 8.59122
5836.87 8.62603
5836.98 8.63656
5837.00 8.63678
5837.06 8.63492
5837.11 8.62920
5837.21 8.60846
5837.31 8.57742
5837.40 8.53531
5837.58 8.43196
5837.75 8.29669
5837.86 8.18900
5837.98 8.07022
5838.09 7.93944
5838.20 7.80018
5838.43 7.49678
5838.66 7.17231
5839.27 6.27401
5839.42 6.05681
5839.58 5.84877
5839.73 5.64885
5839.88 5.46101
5840.02 5.29500
5840.17 5.13997
5840.31 4.99626
5840.45 4.86400
5840.60 4.74311
5840.74 4.63337
5840.88 4.53440
5841.03 4.44571
5841.17 4.36672
5841.31 4.29680
5841.45 4.23526
5841.60 4.18141
5841.74 4.13453
5841.88 4.09394
5842.03 4.05895
5842.17 4.02895
5842.31 4.00332
5842.46 3.98152
5842.60 3.96304
5842.74 3.94742
5842.88 3.93425
5843.03 3.92317
5843.17 3.91386
5843.31 3.90604
5843.46 3.89947
5843.60 3.89395
5843.89 3.88536
5844.17 3.87918
5844.46 3.87464
5844.80 3.87060
5845.14 3.86759
5845.49 3.86524
5845.83 3.86333
5846.52 3.86036
5847.20 3.85811
5847.89 3.85631
5848.57 3.85483
5849.26 3.85359
5849.95 3.85254
5851.32 3.85081
5852.69 3.84946
5854.06 3.84835
5855.43 3.84741
5857.65 3.84616
5859.86 3.84510
5862.07 3.84417
5864.28 3.84334
5866.49 3.84257
5868.70 3.84185
5870.91 3.84116
5873.12 3.84051
5877.54 3.83924
5881.96 3.83804
5886.39 3.83686
5890.81 3.83571
5896.30 3.83431
5901.79 3.83292
5912.76 3.83016
5923.74 3.82741
5934.72 3.82466
5959.12 3.81851
5983.51 3.81226
6032.30 3.79933
6071.33 3.78843
6110.37 3.77683
6149.40 3.76430
6188.43 3.75041
6215.27 3.73976
6242.10 3.72783
6268.94 3.71411
6282.36 3.70632
6295.77 3.69776
6305.53 3.69089
6318.95 3.68037
6332.37 3.66825
6345.79 3.65400
6359.20 3.63679
6368.35 3.62273
6377.50 3.60608
6386.65 3.58598
6391.22 3.57418
6395.80 3.56091
6402.20 3.53925
6408.61 3.51287
6411.81 3.49736
6415.01 3.47989
6418.21 3.46007
6421.41 3.43742
6424.77 3.40976
6428.12 3.37700
6431.48 3.33754
6433.15 3.31464
6434.83 3.28911
6437.42 3.24335
6440.01 3.18776
6441.31 3.15524
6442.61 3.11880
6443.90 3.07767
6445.20 3.03087
6446.04 2.99697
6446.88 2.95983
6447.71 2.91887
6448.55 2.87362
6449.39 2.82328
6450.23 2.76719
6451.07 2.70434
6451.49 2.67019
6451.91 2.63409
6452.36 2.59243
6452.82 2.54886
6453.28 2.50401
6453.74 2.46008
6453.97 2.43958
6454.19 2.42117
6454.42 2.40607
6454.65 2.39601
6454.88 2.39315
6455.11 2.40062
6455.34 2.42239
6455.57 2.46341
6455.74 2.51100
6455.91 2.57614
6456.08 2.66349
6456.25 2.77652
6456.42 2.92168
6456.60 3.10303
6456.77 3.32912
6456.94 3.60430
6457.02 3.76404
6457.11 3.93939
6457.20 4.13136
6457.28 4.33847
6457.37 4.56663
6457.45 4.81457
6457.54 5.08337
6457.62 5.37057
6457.71 5.68399
6457.80 6.02138
6457.88 6.38375
6457.97 6.76738
6458.05 7.18219
6458.14 7.62465
6458.23 8.09553
6458.31 8.58951
6458.40 9.11878
6458.48 9.67817
6458.57 10.2680
6458.65 10.8885
6458.74 11.5397
6458.83 12.2216
6458.91 12.9337
6459.00 13.6670
6459.08 14.4379
6459.17 15.2373
6459.26 16.0641
6459.34 16.9070
6459.51 18.6847
6459.68 20.5358
6459.81 21.9207
6459.93 23.3329
6460.18 26.2049
6460.22 26.6469
6460.32 27.8657
6460.43 29.0643
6460.63 31.3329
6460.83 33.4879
6461.02 35.4072
6461.21 37.1424
6461.31 38.0133
6461.42 38.8070
6461.52 39.5336
6461.63 40.1748
6461.74 40.7829
6461.85 41.2837
6462.00 41.7776
6462.06 41.9357
6462.19 42.1445
6462.32 42.2168
6462.44 42.1530
6462.57 41.9573
6462.69 41.6300
6462.82 41.1769
6462.97 40.4873
6463.12 39.6426
6463.24 38.8107
6463.37 37.8935
6463.50 36.8951
6463.62 35.8259
6463.78 34.3739
6463.94 32.8565
6464.26 29.6773
6464.52 27.1443
6464.64 25.8910
6464.77 24.6570
6464.89 23.4495
6465.02 22.2746
6465.15 21.1377
6465.27 20.0430
6465.38 19.1740
6465.48 18.3457
6465.58 17.5510
6465.69 16.7905
6465.79 16.0581
6465.89 15.3680
6466.00 14.7131
6466.10 14.0930
6466.20 13.5019
6466.31 12.9503
6466.41 12.4316
6466.51 11.9449
6466.61 11.4889
6466.72 11.0626
6466.82 10.6647
6466.92 10.2938
6467.05 9.87171
6467.18 9.48898
6467.30 9.13961
6467.43 8.82112
6467.55 8.53107
6467.68 8.26710
6467.81 8.02697
6467.93 7.80854
6468.06 7.60982
6468.18 7.42891
6468.31 7.26410
6468.44 7.11377
6468.69 6.85083
6468.94 6.62986
6469.19 6.44179
6469.45 6.28139
6469.70 6.14250
6469.95 6.02092
6470.20 5.91299
6470.45 5.81699
6470.96 5.65194
6471.46 5.51385
6471.97 5.39624
6472.47 5.29422
6472.98 5.20462
6473.66 5.09833
6474.35 5.00684
6475.04 4.92715
6475.73 4.85715
6476.41 4.79497
6477.10 4.73940
6478.48 4.64427
6479.49 4.58525
6480.50 4.53344
6482.51 4.44678
6484.53 4.37705
6486.55 4.31976
6488.29 4.27788
6490.03 4.24157
6491.78 4.20971
6493.52 4.18154
6497.00 4.13396
6500.49 4.09530
6503.05 4.07113
6505.62 4.04986
6510.76 4.01416
6515.89 3.98534
6521.03 3.96142
6525.06 3.94532
6529.10 3.93109
6537.17 3.90706
6545.24 3.88746
6553.31 3.87107
6560.28 3.85891
6567.25 3.84821
6574.22 3.83864
6581.19 3.83002
6595.12 3.81506
6609.06 3.80238
6623.74 3.79087
6638.41 3.78074
6661.88 3.76668
6694.16 3.75031
6726.44 3.73619
6758.72 3.72357
6791.00 3.71199
6843.82 3.69458
6896.64 3.67840
7002.29 3.64807
7107.93 3.61910
7213.57 3.59054
7401.38 3.53939
7495.28 3.51322
7589.18 3.48645
7647.87 3.46937
7706.56 3.45200
7735.91 3.44320
7765.25 3.43432
7779.93 3.42986
7794.60 3.42539
7809.27 3.42090
7823.94 3.41641
7835.68 3.41282
7847.42 3.40924
7859.16 3.40569
7870.90 3.40219
7877.87 3.40014
7884.83 3.39814
7891.80 3.39621
7898.77 3.39438
7905.74 3.39269
7909.23 3.39194
7912.71 3.39126
7916.20 3.39067
7919.68 3.39021
7923.17 3.38994
7926.65 3.38993
7929.40 3.39018
7932.15 3.39073
7934.91 3.39172
7937.66 3.39331
7940.41 3.39582
7941.78 3.39758
7943.16 3.39981
7944.53 3.40263
7945.91 3.40623
7947.29 3.41091
7948.66 3.41704
7949.85 3.42403
7951.05 3.43324
7952.24 3.44572
7953.43 3.46335
7954.03 3.47515
7954.62 3.48999
7955.22 3.50947
7955.81 3.53668
7956.11 3.55496
7956.41 3.57794
7956.71 3.60745
7957.01 3.64607
7957.30 3.69736
7957.60 3.76618
7957.90 3.85904
7958.05 3.91705
7958.20 3.98444
7958.40 4.09634
7958.61 4.23277
7958.82 4.40005
7959.02 4.60219
7959.23 4.84742
7959.33 4.98728
7959.44 5.14017
7959.54 5.30701
7959.64 5.48874
7959.75 5.68631
7959.85 5.90068
7959.95 6.13515
7960.06 6.38618
7960.16 6.65685
7960.26 6.94807
7960.36 7.26071
7960.47 7.59558
7960.57 7.95343
7960.67 8.33493
7960.78 8.74473
7960.88 9.17543
7960.98 9.63122
7961.09 10.1123
7961.19 10.6189
7961.29 11.1507
7961.40 11.7077
7961.50 12.2893
7961.60 12.8651
7961.69 13.4558
7961.89 14.7022
7962.08 16.0197
7962.28 17.3965
7963.06 23.1593
7963.24 24.4871
7963.42 25.7546
7963.61 26.9488
7963.79 28.0496
7964.01 29.2125
7964.23 30.1857
7964.35 30.6514
7964.48 31.0408
7964.64 31.4200
7964.77 31.6255
7964.93 31.7610
7965.00 31.7766
7965.15 31.7141
7965.28 31.5717
7965.39 31.3698
7965.50 31.1012
7965.61 30.7680
7965.76 30.2536
7965.90 29.6445
7966.13 28.5146
7966.35 27.2066
7966.58 25.7376
7966.81 24.1636
7967.26 20.8341
7967.50 19.0696
7967.73 17.3480
7967.97 15.6927
7968.09 14.8979
7968.20 14.1286
7968.32 13.3871
7968.44 12.6749
7968.56 11.9937
7968.68 11.3445
7968.79 10.7281
7968.91 10.1448
7969.03 9.59474
7969.15 9.07789
7969.29 8.49149
7969.44 7.95274
7969.58 7.46010
7969.72 7.01167
7969.87 6.60531
7970.01 6.23865
7970.16 5.90920
7970.30 5.61631
7970.44 5.35330
7970.59 5.11972
7970.73 4.91302
7970.87 4.73072
7971.02 4.57046
7971.16 4.42999
7971.31 4.30720
7971.45 4.20082
7971.59 4.10757
7971.74 4.02658
7971.88 3.95633
7972.03 3.89549
7972.31 3.79722
7972.60 3.72376
7972.89 3.66824
7973.18 3.62622
7973.46 3.59377
7973.75 3.56848
7974.20 3.53848
7974.65 3.51639
7975.11 3.49932
7975.56 3.48560
7976.46 3.46457
7977.37 3.44903
7978.27 3.43700
7979.17 3.42742
7980.08 3.41963
7980.98 3.41318
7982.30 3.40557
7983.61 3.39951
7984.93 3.39458
7986.24 3.39050
7987.56 3.38706
7988.87 3.38413
7991.50 3.37935
7994.13 3.37556
7996.76 3.37247
7999.39 3.36987
8002.02 3.36762
8004.98 3.36541
8007.93 3.36344
8010.89 3.36166
8013.85 3.35999
8019.77 3.35697
8025.68 3.35422
8031.60 3.35166
8037.52 3.34922
8043.43 3.34686
8049.35 3.34457
8059.87 3.34060
8070.39 3.33671
8080.91 3.33288
8091.42 3.32907
8101.94 3.32528
8112.46 3.32150
8133.50 3.31394
8154.53 3.30637
8165.05 3.30258
8175.57 3.29880
8186.09 3.29502
8196.61 3.29125
8207.13 3.28751
8217.64 3.28383
8223.89 3.28169
8230.13 3.27961
8236.38 3.27760
8242.63 3.27572
8248.87 3.27402
8251.99 3.27328
8255.12 3.27263
8258.24 3.27211
8261.36 3.27175
8264.49 3.27163
8267.61 3.27185
8270.07 3.27235
8272.54 3.27327
8275.00 3.27475
8277.47 3.27703
8279.93 3.28055
8281.17 3.28300
8282.40 3.28607
8283.63 3.28996
8284.86 3.29493
8286.10 3.30139
8287.33 3.30992
8288.40 3.31971
8289.47 3.33275
8290.53 3.35076
8291.07 3.36262
8291.60 3.37736
8292.14 3.39645
8292.67 3.42241
8293.20 3.46011
8293.47 3.48593
8293.74 3.51855
8294.01 3.56026
8294.27 3.61407
8294.54 3.68391
8294.81 3.77484
8295.07 3.89316
8295.34 4.04671
8295.47 4.13995
8295.61 4.24492
8295.74 4.36466
8295.87 4.49894
8296.06 4.71437
8296.24 4.96743
8296.43 5.26314
8296.61 5.60673
8296.80 6.00358
8296.98 6.45908
8297.08 6.71188
8297.17 6.97847
8297.26 7.26528
8297.35 7.56669
8297.45 7.88980
8297.54 8.22814
8297.63 8.58950
8297.72 8.96650
8297.82 9.36763
8297.91 9.78450
8298.00 10.2263
8298.09 10.6836
8298.19 11.1664
8298.28 11.6640
8298.37 12.1871
8298.46 12.7240
8298.65 13.8601
8298.83 15.0602
8299.00 16.1898
8299.16 17.3555
8299.49 19.7894
8299.82 22.2810
8300.15 24.7248
8300.32 25.9747
8300.50 27.1582
8300.67 28.2717
8300.85 29.2861
8301.06 30.3930
8301.28 31.3061
8301.39 31.6987
8301.50 32.0265
8301.68 32.4112
8301.79 32.5744
8301.96 32.6908
8302.00 32.6955
8302.01 32.6954
8302.03 32.6937
8302.05 32.6899
8302.09 32.6752
8302.17 32.6195
8302.34 32.3846
8302.52 31.9673
8302.65 31.5874
8302.77 31.1337
8302.95 30.3422
8303.14 29.4197
8303.32 28.3719
8303.50 27.2214
8303.68 25.9870
8303.86 24.6953
8304.56 19.4877
8304.73 18.1957
8304.90 16.9427
8305.08 15.7318
8305.25 14.5719
8305.35 13.9022
8305.46 13.2608
8305.56 12.6424
8305.66 12.0477
8305.77 11.4720
8305.87 10.9267
8305.97 10.4064
8306.08 9.91140
8306.18 9.43705
8306.28 8.99234
8306.39 8.57225
8306.49 8.17637
8306.59 7.80066
8306.70 7.45171
8306.80 7.12511
8306.90 6.82008
8307.01 6.53314
8307.11 6.26896
8307.21 6.02377
8307.31 5.79667
8307.42 5.58477
8307.52 5.39121
8307.62 5.21295
8307.73 5.04905
8307.93 4.75953
8308.14 4.51849
8308.35 4.31703
8308.55 4.15115
8308.82 3.97998
8309.08 3.84769
8309.35 3.74500
8309.61 3.66596
8309.88 3.60454
8310.14 3.55692
8310.40 3.51954
8310.67 3.48986
8310.93 3.46589
8311.20 3.44637
8311.73 3.41643
8312.25 3.39435
8312.78 3.37723
8313.31 3.36335
8313.84 3.35182
8314.90 3.33359
8315.95 3.31981
8317.01 3.30905
8318.07 3.30043
8319.65 3.29033
8321.24 3.28260
8323.35 3.27472
8325.47 3.26867
8327.58 3.26386
8329.70 3.25993
8331.81 3.25663
8333.93 3.25380
8336.04 3.25135
8340.27 3.24717
8344.50 3.24366
8348.72 3.24061
8352.95 3.23787
8357.18 3.23535
8363.52 3.23185
8369.87 3.22860
8378.32 3.22449
8386.78 3.22055
8395.24 3.21672
8403.70 3.21296
8412.15 3.20925
8420.61 3.20556
8437.52 3.19824
8454.44 3.19092
8471.35 3.18360
8488.27 3.17624
8505.18 3.16883
8528.44 3.15854
8551.70 3.14813
8598.21 3.12689
8644.72 3.10504
8691.24 3.08250
8708.15 3.07412
8748.32 3.05380
8788.49 3.03287
8868.84 2.98907
8949.18 2.94229
9029.52 2.89209
9076.04 2.86121
9122.55 2.82887
9169.06 2.79493
9192.32 2.77730
9215.58 2.75923
9229.32 2.74832
9243.06 2.73724
9256.81 2.72601
9270.55 2.71464
9284.29 2.70311
9291.16 2.69730
9298.03 2.69147
9304.91 2.68564
9311.78 2.67983
9318.65 2.67405
9325.52 2.66837
9331.86 2.66329
9335.03 2.66084
9338.21 2.65848
9341.38 2.65625
9344.55 2.65420
9347.72 2.65238
9350.89 2.65089
9353.40 2.65005
9355.91 2.64967
9358.42 2.64991
9360.93 2.65108
9363.44 2.65368
9364.70 2.65576
9365.96 2.65855
9367.21 2.66231
9368.47 2.66738
9369.72 2.67430
9370.98 2.68391
9371.97 2.69430
9372.96 2.70842
9373.95 2.72859
9374.45 2.74241
9374.94 2.76020
9375.44 2.78417
9375.93 2.81780
9376.18 2.84003
9376.43 2.86720
9376.68 2.90064
9376.92 2.94185
9377.17 2.99323
9377.42 3.05718
9377.67 3.13678
9377.91 3.23523
9378.16 3.35761
9378.41 3.50848
9378.66 3.69342
9378.78 3.80057
9378.91 3.91758
9379.09 4.11209
9379.27 4.33456
9379.45 4.58778
9379.63 4.87287
9379.81 5.19569
9380.00 5.55732
9380.18 5.96010
9380.36 6.40345
9380.54 6.89383
9380.72 7.42994
9380.91 8.01217
9381.09 8.63659
9381.27 9.30890
9381.45 10.0197
9381.63 10.7736
9381.81 11.5584
9381.98 12.3044
9382.14 13.0662
9382.47 14.6283
9382.80 16.1995
9383.13 17.7219
9383.32 18.5180
9383.50 19.2697
9383.68 19.9663
9383.86 20.5946
9384.04 21.1520
9384.22 21.6241
9384.36 21.9123
9384.49 22.1506
9384.67 22.3936
9384.78 22.4929
9384.90 22.5520
9385.00 22.5705
9385.01 22.5705
9385.04 22.5687
9385.06 22.5646
9385.12 22.5490
9385.23 22.4891
9385.43 22.2790
9385.64 21.9356
9385.82 21.5416
9386.00 21.0624
9386.14 20.6271
9386.28 20.1468
9386.42 19.6260
9386.56 19.0731
9386.80 18.0388
9387.05 16.9365
9387.53 14.6339
9387.82 13.2982
9388.10 12.0052
9388.24 11.3790
9388.38 10.7717
9388.52 10.1856
9388.66 9.62651
9388.80 9.08807
9388.94 8.57557
9389.08 8.08989
9389.22 7.63471
9389.36 7.20379
9389.50 6.80319
9389.64 6.42692
9389.78 6.07980
9389.94 5.71453
9390.10 5.38353
9390.26 5.08117
9390.42 4.80958
9390.58 4.56358
9390.74 4.34441
9390.90 4.14743
9391.06 3.97324
9391.22 3.81779
9391.38 3.68124
9391.54 3.56013
9391.70 3.45434
9391.86 3.36100
9392.02 3.27983
9392.18 3.20892
9392.34 3.14704
9392.65 3.04583
9392.97 2.96910
9393.29 2.91078
9393.61 2.86617
9393.93 2.83169
9394.25 2.80465
9394.57 2.78308
9394.89 2.76560
9395.41 2.74285
9395.94 2.72535
9396.46 2.71127
9396.99 2.69962
9398.04 2.68122
9399.09 2.66723
9400.14 2.65616
9401.19 2.64718
9402.24 2.63972
9403.29 2.63342
9404.49 2.62728
9406.59 2.61850
9408.69 2.61143
9410.80 2.60552
9412.90 2.60042
9415.00 2.59591
9417.10 2.59184
9419.20 2.58811
9421.30 2.58463
9425.50 2.57823
9429.71 2.57232
9433.91 2.56672
9438.11 2.56136
9443.81 2.55430
9449.52 2.54742
9455.22 2.54064
9460.92 2.53391
9472.33 2.52049
9483.73 2.50702
9495.14 2.49342
9506.55 2.47963
9517.95 2.46562
9529.36 2.45136
9546.17 2.42982
9562.97 2.40763
9596.59 2.36105
9632.61 2.30738
9668.63 2.24907
9704.65 2.18542
9740.67 2.11555
9767.08 2.05931
9793.49 1.99820
9819.91 1.93140
9846.32 1.85784
9872.74 1.77615
9899.15 1.68461
9912.36 1.63454
9925.56 1.58105
9938.77 1.52381
9951.98 1.46251
9963.98 1.40266
9975.99 1.33838
9987.99 1.26921
10000.0 1.19459
10013.1 1.10627
10016.4 1.08295
10018.0 1.07114
10019.6 1.05944
10020.5 1.05375
10020.9 1.05105
10021.3 1.04851
10021.7 1.04623
10022.1 1.04431
10022.5 1.04289
10022.9 1.04215
10023.3 1.04226
10023.7 1.04343
10024.1 1.04587
10024.6 1.04974
10025.0 1.05511
10025.4 1.06195
10026.2 1.07898
10026.9 1.09479
10027.5 1.10861
10028.0 1.11525
10028.4 1.11871
10028.8 1.11871
10029.0 1.11756
10029.1 1.11706
10029.1 1.11648
10029.3 1.11484
10029.4 1.11280
10029.7 1.10649
10030.1 1.09821
10030.2 1.09358
10030.6 1.08016
10031.0 1.06513
10031.9 1.03365
10032.7 1.00367
10033.1 0.990488
10033.5 0.979055
10033.8 0.970222
10034.2 0.962432
10034.5 0.955592
10034.9 0.949586
10035.2 0.944287
10035.6 0.939569
10035.9 0.935312
10036.3 0.931413
10036.6 0.927785
10037.0 0.924354
10037.7 0.917876
10039.1 0.905588
10043.1 0.870469
10047.2 0.834678
10055.3 0.760060
10063.4 0.681163
10071.4 0.598151
10076.7 0.541587
10082.0 0.483576
10087.3 0.424360
10092.6 0.364397
10097.9 0.304408
10103.2 0.245408
10105.8 0.216678
10108.5 0.189009
10111.1 0.162610
10113.7 0.137878
10115.7 0.120966
10117.6 0.105539
10119.6 0.0916985
10121.5 0.0799085
10123.5 0.0704632
10124.4 0.0668092
10125.4 0.0639314
10126.4 0.0618808
10127.4 0.0607741
10128.3 0.0606691
10129.3 0.0616576
10130.5 0.0644481
10131.6 0.0691677
10132.8 0.0760256
10134.0 0.0851605
10135.1 0.0969804
10136.3 0.111561
10137.5 0.129473
10138.6 0.150764
10139.8 0.176201
10141.0 0.206067
10142.1 0.240873
10143.3 0.280833
10144.5 0.327302
10145.1 0.352865
10145.6 0.380236
10146.2 0.410045
10146.8 0.441398
10147.4 0.474905
10148.0 0.510694
10148.8 0.568258
10149.7 0.631635
10150.5 0.701365
10151.4 0.777116
10152.3 0.861332
10153.1 0.952777
10154.0 1.05442
10154.4 1.10897
10154.8 1.16480
10155.2 1.22471
10155.7 1.28754
10156.1 1.35343
10156.5 1.42254
10157.0 1.49504
10157.4 1.57110
10157.8 1.65091
10158.2 1.73268
10158.7 1.82051
10159.1 1.91272
10159.5 2.00954
10160.0 2.10881
10160.4 2.21553
10160.8 2.32767
10161.2 2.44553
10161.7 2.56650
10162.1 2.69668
10162.5 2.83362
10163.0 2.97773
10163.4 3.12581
10163.8 3.28537
10164.2 3.45345
10164.7 3.63058
10165.1 3.81287
10165.5 4.00957
10165.9 4.21712
10166.4 4.43621
10166.8 4.66206
10167.2 4.90621
10167.6 5.15814
10168.1 5.43076
10168.5 5.71234
10168.9 6.01737
10169.4 6.34051
10169.8 6.68303
10170.2 7.04631
10170.6 7.43186
10171.1 7.84131
10171.5 8.27641
10171.9 8.72802
10172.4 9.21969
10172.8 9.74329
10173.2 10.3013
10173.6 10.8822
10174.1 11.5166
10174.5 12.1944
10174.9 12.9191
10175.3 13.6761
10175.8 14.5057
10176.2 15.3952
10176.6 16.3498
10177.1 17.3752
10177.5 18.4779
10177.9 19.6648
10178.4 20.9435
10178.8 22.2892
10179.2 23.7752
10179.6 25.3807
10180.1 27.1170
10180.5 28.9511
10180.9 30.9834
10181.3 33.1868
10181.8 35.5773
10182.2 38.1094
10182.6 40.9223
10183.1 43.9780
10183.5 47.2978
10183.9 50.8168
10184.3 54.7251
10184.8 58.9659
10185.2 63.5622
10185.6 68.4164
10186.1 74.1690
10186.5 80.2574
10187.0 86.8161
10187.4 93.8521
10187.9 101.535
10188.3 109.516
10188.8 117.926
10189.2 126.722
10189.9 139.348
10190.5 152.351
10191.1 165.432
10191.7 178.230
10192.3 190.335
10192.6 195.994
10193.0 201.317
10193.3 206.254
10193.6 210.755
10193.9 214.773
10194.2 218.165
10194.6 221.952
10195.0 224.703
10195.4 226.406
10195.8 226.964
10196.2 226.605
10196.5 225.561
10196.8 223.798
10197.2 221.454
10197.5 218.433
10197.8 214.962
10198.2 210.887
10198.5 206.508
10199.2 196.571
10199.9 185.642
10201.2 162.583
10201.7 154.038
10202.2 145.870
10202.7 137.983
10203.2 130.432
10203.7 123.113
10204.2 116.340
10204.6 109.970
10205.1 104.003
10205.6 98.4286
10206.1 93.3356
10206.6 88.4935
10207.1 84.0803
10207.6 79.8910
10208.0 76.0756
10208.5 72.4539
10209.0 69.1539
10209.8 64.4440
10210.5 60.2211
10211.3 56.4263
10212.0 53.0506
10212.8 49.9579
10213.5 47.1564
10214.3 44.6118
10215.0 42.3237
10216.0 39.6183
10216.9 37.2027
10217.9 35.0371
10218.9 33.0880
10219.8 31.3272
10220.8 29.7309
10221.8 28.2788
10222.7 26.9668
10223.7 25.7529
10224.7 24.6387
10225.7 23.6132
10226.6 22.6670
10227.6 21.7919
10228.6 20.9806
10229.5 20.2270
10230.5 19.5325
10232.2 18.4260
10233.8 17.4452
10235.5 16.5655
10237.2 15.7727
10238.9 15.0552
10240.5 14.4034
10242.2 13.8092
10243.9 13.2657
10245.8 12.6901
10247.7 12.1669
10249.7 11.6898
10251.6 11.2551
10253.6 10.8538
10255.5 10.4859
10257.4 10.1442
10259.4 9.82921
10261.6 9.48433
10263.9 9.16726
10266.2 8.87487
10268.5 8.60454
10270.8 8.35409
10273.1 8.12144
10277.7 7.70148
10281.6 7.38645
10285.4 7.10391
10289.3 6.84853
10293.2 6.61658
10297.0 6.40447
10300.9 6.21073
10304.8 6.03262
10308.7 5.86830
10316.4 5.57469
10324.1 5.32061
10331.9 5.09786
10339.6 4.90126
10347.4 4.72606
10355.1 4.56854
10362.9 4.42611
10370.6 4.29699
10371.8 4.27886
10372.9 4.26130
10373.5 4.25263
10374.1 4.24442
10374.6 4.23670
10374.9 4.23304
10375.2 4.22973
10375.5 4.22658
10375.8 4.22379
10376.1 4.22140
10376.4 4.21955
10376.6 4.21816
10376.9 4.21739
10377.2 4.21724
10377.5 4.21774
10378.1 4.22090
10378.6 4.22660
10379.8 4.24248
10380.5 4.25116
10381.2 4.25499
10381.7 4.25324
10381.9 4.25044
10382.0 4.24963
10382.1 4.24765
10382.3 4.24555
10382.6 4.23715
10383.1 4.22209
10383.7 4.20355
10384.2 4.18275
10385.6 4.12241
10386.0 4.10904
10386.3 4.09670
10386.7 4.08546
10387.1 4.07528
10387.4 4.06612
10387.8 4.05786
10388.1 4.05039
10388.5 4.04357
10388.9 4.03729
10389.2 4.03144
10389.6 4.02593
10389.9 4.02066
10390.7 4.01051
10391.4 4.00092
10392.8 3.98235
10395.7 3.94631
10402.2 3.86932
10408.6 3.79684
10421.5 3.66307
10434.4 3.54200
10447.3 3.43154
10462.2 3.31433
10477.2 3.20670
10492.1 3.10683
10507.0 3.01332
10512.4 2.98066
10521.3 2.92892
10530.1 2.87881
10534.5 2.85427
10536.7 2.84217
10538.9 2.83027
10541.1 2.81850
10542.2 2.81274
10543.3 2.80708
10544.4 2.80155
10545.0 2.79893
10545.5 2.79646
10546.1 2.79425
10546.4 2.79328
10546.6 2.79251
10546.9 2.79192
10547.2 2.79162
10547.5 2.79169
10547.7 2.79223
10548.1 2.79380
10548.4 2.79668
10548.6 2.79874
10548.8 2.80130
10549.1 2.80821
10549.4 2.81806
10549.8 2.83157
10550.1 2.84955
10550.5 2.87208
10550.9 2.90816
10551.3 2.95309
10551.7 3.00842
10552.1 3.07429
10552.5 3.15206
10552.9 3.23622
10553.7 3.41716
10554.0 3.49276
10554.4 3.56325
10554.7 3.62548
10555.0 3.67649
10555.4 3.71195
10555.7 3.73352
10555.9 3.73993
10556.0 3.74012
10556.0 3.74006
10556.0 3.73981
10556.1 3.73957
10556.1 3.73870
10556.2 3.73583
10556.6 3.71508
10556.9 3.68333
10557.1 3.64181
10557.3 3.61311
10557.6 3.54965
10558.0 3.48055
10558.3 3.40899
10558.9 3.25919
10559.2 3.18529
10559.5 3.11742
10559.9 3.05252
10560.2 2.99548
10560.5 2.94008
10560.8 2.89360
10561.2 2.85301
10561.5 2.82022
10561.8 2.79854
10562.0 2.78080
10562.3 2.76575
10562.5 2.75307
10562.8 2.74204
10563.0 2.73321
10563.3 2.72584
10563.5 2.71969
10563.8 2.71433
10564.0 2.71001
10564.3 2.70633
10564.5 2.70316
10564.8 2.70040
10565.0 2.69795
10565.3 2.69575
10565.5 2.69374
10566.0 2.69006
10566.5 2.68680
10567.1 2.68369
10567.6 2.68076
10568.6 2.67506
10569.6 2.66957
10571.6 2.65874
10573.6 2.64818
10577.6 2.62740
10581.6 2.60687
10585.7 2.58651
10593.7 2.54626
10609.8 2.46670
10634.0 2.34847
10658.2 2.22953
10682.4 2.10760
10706.5 1.97997
10721.3 1.89760
10736.1 1.81069
10750.8 1.71784
10765.6 1.61721
10774.3 1.55309
10783.1 1.48476
10791.8 1.41122
10800.5 1.33144
10807.9 1.25802
10815.3 1.17818
10819.0 1.13531
10822.7 1.09040
10826.4 1.04312
10830.1 0.993246
10833.8 0.940351
10837.5 0.884440
10841.1 0.825069
10844.8 0.761933
10848.5 0.694559
10852.2 0.623105
10854.1 0.585660
10855.9 0.547369
10857.8 0.507873
10859.6 0.467702
10861.9 0.417178
10864.1 0.366075
10866.4 0.315214
10868.7 0.266103
10870.9 0.220426
10872.1 0.200078
10873.2 0.182097
10874.3 0.167153
10875.5 0.156536
10876.0 0.153175
10876.6 0.151438
10877.2 0.151500
10877.7 0.153625
10878.4 0.159401
10879.1 0.169108
10879.6 0.178683
10880.0 0.190579
10880.5 0.205286
10880.9 0.223157
10881.4 0.244595
10881.9 0.270063
10882.3 0.300089
10882.8 0.335284
10883.3 0.385145
10883.9 0.443651
10884.4 0.514651
10885.0 0.597542
10885.5 0.697859
10885.8 0.753872
10886.0 0.814893
10886.3 0.883966
10886.6 0.956695
10886.9 1.03603
10887.1 1.12262
10887.4 1.20627
10887.6 1.29289
10887.8 1.38640
10888.1 1.48742
10888.3 1.59665
10888.5 1.71485
10888.8 1.84290
10889.0 1.98175
10889.2 2.13933
10889.5 2.30377
10889.7 2.48274
10889.9 2.67779
10890.1 2.89064
10890.4 3.12327
10890.6 3.37790
10890.8 3.65702
10891.1 3.96348
10891.3 4.30045
10891.5 4.67156
10891.8 5.08086
10891.9 5.31107
10892.0 5.53292
10892.1 5.78745
10892.2 6.03288
10892.3 6.31462
10892.4 6.58646
10892.6 6.89868
10892.7 7.20007
10892.8 7.54638
10892.9 7.88081
10893.0 8.26522
10893.1 8.63653
10893.3 9.06344
10893.4 9.47586
10893.5 9.95008
10893.6 10.4082
10893.7 10.9350
10893.8 11.4438
10893.9 12.0288
10894.1 12.5937
10894.2 13.2428
10894.3 13.8694
10894.4 14.5891
10894.5 15.2834
10894.6 16.0803
10894.8 16.9202
10894.9 17.8050
10895.0 18.6571
10895.1 19.6332
10895.2 20.5721
10895.3 21.6464
10895.4 22.6786
10895.6 23.8578
10895.7 25.0943
10895.8 26.3898
10895.9 27.6304
10896.0 29.0431
10896.1 30.3936
10896.4 33.3926
10896.6 36.3425
10896.8 39.4977
10897.0 42.8590
10897.2 46.4247
10897.4 50.1900
10897.6 54.1472
10897.8 58.2852
10898.0 62.3805
10898.3 67.4708
10898.5 72.4997
10899.0 82.8530
10899.4 93.3092
10899.9 103.248
10900.1 107.464
10900.3 111.503
10900.5 115.328
10900.7 118.902
10900.9 122.192
10901.1 125.164
10901.3 127.791
10901.5 129.942
10901.7 132.386
10902.0 134.025
10902.3 134.961
10902.5 135.139
10902.7 134.822
10902.9 133.991
10903.1 132.736
10903.4 130.961
10903.6 128.854
10903.8 126.247
10904.0 123.413
10904.3 118.530
10904.6 113.086
10905.0 107.224
10905.3 101.085
10905.9 88.5017
10906.2 82.2873
10906.5 76.4367
10906.8 72.4239
10907.0 68.7217
10907.2 64.9922
10907.4 61.5850
10907.6 58.1835
10907.8 55.1018
10908.0 52.1833
10908.3 49.4281
10908.6 45.5390
10908.9 42.0113
10909.1 40.3772
10909.2 38.8260
10909.5 36.0449
10909.8 33.4637
10910.2 31.2191
10910.5 29.1405
10910.8 27.3341
10911.1 25.6600
10911.4 24.2020
10911.7 22.8463
10912.0 21.6608
10912.4 20.5531
10912.7 19.5792
10913.0 18.6641
10913.3 17.8547
10913.6 17.2280
10913.8 16.6439
10914.1 16.0987
10914.3 15.5886
10914.9 14.6617
10915.4 13.8568
10915.9 13.1254
10916.4 12.4825
10916.9 11.8919
10917.4 11.3674
10918.1 10.7840
10918.7 10.2615
10919.3 9.79113
10920.0 9.36563
10920.6 8.97901
10921.2 8.62629
10921.8 8.30330
10922.5 8.00651
10923.2 7.70800
10923.9 7.43400
10924.5 7.18167
10925.2 6.94859
10925.9 6.73268
10926.6 6.53212
10928.0 6.17349
10929.2 5.88314
10930.5 5.62431
10931.8 5.39217
10933.0 5.18282
10934.3 4.99309
10935.5 4.82034
10936.8 4.66240
10938.1 4.51741
10939.3 4.38383
10940.6 4.26035
10943.1 4.03932
10945.6 3.84710
10948.1 3.67829
10950.4 3.54111
10952.7 3.41786
10955.0 3.30587
10957.3 3.20360
10959.6 3.10936
10961.9 3.02289
10966.5 2.86842
10971.5 2.72116
10976.6 2.59301
10981.6 2.47944
10986.7 2.37801
10991.5 2.29013
10996.3 2.20953
11001.1 2.13498
11005.9 2.06555
11015.5 1.93903
11025.2 1.82559
11036.2 1.70756
11047.2 1.59904
11058.2 1.49753
11069.2 1.40134
11072.9 1.37023
11085.2 1.26819
11097.6 1.16987
11103.8 1.12184
11110.0 1.07455
11113.1 1.05120
11116.2 1.02824
11119.3 1.00568
11120.8 0.994599
11122.4 0.983817
11123.7 0.974840
11125.0 0.966231
11126.3 0.958227
11127.0 0.954620
11127.6 0.951499
11128.3 0.949253
11128.6 0.948689
11129.0 0.948705
11129.3 0.949540
11129.6 0.951529
11130.0 0.955135
11130.3 0.960981
11130.6 0.969899
11130.9 0.982970
11131.3 1.00157
11131.6 1.02739
11131.9 1.06251
11132.3 1.10933
11132.6 1.17058
11132.9 1.24660
11133.2 1.33202
11133.5 1.43532
11133.8 1.55845
11134.1 1.69770
11134.4 1.86417
11134.6 2.04694
11134.9 2.25887
11135.2 2.48431
11135.5 2.72824
11135.8 2.97821
11136.0 3.23912
11136.3 3.50657
11136.8 4.04959
11137.1 4.30307
11137.4 4.53938
11137.6 4.72239
11137.8 4.88461
11138.1 5.02260
11138.3 5.13339
11138.5 5.20260
11138.7 5.24850
11138.8 5.27268
11139.0 5.28061
11139.0 5.28092
11139.1 5.27501
11139.3 5.25327
11139.4 5.22131
11139.6 5.17755
11139.7 5.10908
11139.9 5.02456
11140.1 4.92500
11140.2 4.81860
11140.5 4.63836
11140.7 4.43695
11141.0 4.21871
11141.2 3.98812
11142.2 3.03870
11142.5 2.73396
11142.8 2.45707
11143.1 2.20246
11143.4 1.97283
11143.7 1.76949
11144.0 1.59252
11144.3 1.44104
11144.6 1.31339
11145.0 1.20433
11145.3 1.11814
11145.6 1.04849
11145.9 0.992866
11146.2 0.948874
11146.5 0.914359
11146.8 0.887427
11147.1 0.866462
11147.3 0.855972
11147.5 0.846952
11147.9 0.832767
11148.3 0.821687
11148.6 0.813265
11149.0 0.806283
11149.4 0.800591
11149.8 0.795516
11150.1 0.791087
11150.9 0.783075
11151.6 0.775818
11153.1 0.762533
11154.6 0.749995
11156.1 0.737951
11159.1 0.714820
11162.1 0.692311
11165.1 0.670270
11171.1 0.626879
11181.7 0.551461
11196.4 0.450694
11203.7 0.401764
11211.0 0.353977
11218.4 0.307543
11225.7 0.262729
11229.3 0.241027
11233.0 0.219857
11236.7 0.199269
11240.3 0.179317
11244.3 0.158286
11248.3 0.138192
11252.3 0.119113
11256.3 0.101219
11260.3 0.0845284
11264.3 0.0692552
11268.3 0.0555014
11272.3 0.0434272
11276.4 0.0328153
11278.5 0.0283258
11280.6 0.0244179
11282.7 0.0211325
11283.7 0.0197361
11284.7 0.0185094
11285.8 0.0174564
11286.8 0.0165812
11287.9 0.0158886
11288.9 0.0153836
11289.6 0.0151601
11290.2 0.0150180
11290.9 0.0149589
11291.6 0.0149831
11292.2 0.0150839
11292.8 0.0152583
11293.5 0.0155132
11294.1 0.0158419
11294.7 0.0162560
11295.3 0.0167438
11296.6 0.0179626
11297.8 0.0195277
11299.1 0.0214241
11300.3 0.0236939
11301.5 0.0263135
11303.0 0.0299925
11304.5 0.0342551
11306.0 0.0391263
11307.5 0.0445868
11310.5 0.0575292
11313.5 0.0731863
11315.0 0.0821566
11316.5 0.0919152
11318.0 0.102494
11319.5 0.113849
11321.0 0.126165
11322.5 0.139405
11324.0 0.153601
11325.5 0.168684
11327.5 0.190530
11329.5 0.214324
11331.5 0.240210
11333.5 0.268167
11335.5 0.298587
11337.5 0.331287
11339.5 0.366736
11341.5 0.404727
11343.3 0.442404
11345.1 0.482442
11347.0 0.525177
11348.8 0.570757
11350.6 0.619337
11352.5 0.671082
11354.3 0.726168
11356.1 0.784783
11358.0 0.847125
11359.8 0.913407
11361.6 0.983853
11363.4 1.05870
11365.3 1.13821
11367.1 1.22266
11368.9 1.31232
11370.8 1.40752
11372.6 1.50859
11374.4 1.61588
11376.3 1.72977
11378.1 1.85067
11379.9 1.97901
11381.7 2.11526
11383.6 2.25992
11385.4 2.41352
11387.2 2.57666
11389.1 2.74993
11390.9 2.93401
11392.7 3.12963
11394.6 3.33755
11396.4 3.55860
11398.2 3.79369
11400.0 4.04378
11401.9 4.30993
11403.7 4.59328
11405.5 4.89506
11407.4 5.21658
11409.2 5.55931
11411.0 5.92480
11412.9 6.31478
11414.7 6.73107
11416.5 7.17823
11418.4 7.65358
11420.2 8.16188
11422.0 8.70574
11423.8 9.28802
11425.7 9.91185
11427.5 10.5806
11429.3 11.2981
11431.2 12.0684
11433.0 12.8961
11434.8 13.7859
11436.7 14.7435
11438.5 15.7747
11440.3 16.8861
11442.1 18.0851
11444.0 19.3794
11445.8 20.7780
11447.6 22.2904
11449.5 23.9274
11451.3 25.7006
11453.1 27.6230
11455.0 29.7089
11456.8 31.9737
11458.6 34.4346
11460.4 37.1103
11462.3 40.0212
11464.1 43.1894
11465.9 46.6388
11467.8 50.3949
11469.6 54.4851
11471.4 58.9376
11473.3 63.7821
11474.4 66.9824
11475.5 70.3202
11476.6 73.8299
11477.7 77.5180
11478.9 81.3905
11480.0 85.4519
11481.1 89.7061
11482.2 94.1556
11483.4 98.8445
11484.5 103.690
11486.7 113.968
11489.0 124.994
11491.2 136.678
11495.9 162.565
11498.3 175.560
11500.6 188.082
11501.8 194.037
11503.0 199.638
11504.1 204.915
11505.3 209.718
11506.5 214.071
11507.7 217.850
11508.8 221.075
11510.0 223.656
11511.9 226.470
11513.8 227.577
11515.3 227.251
11516.8 225.875
11518.4 223.524
11519.9 220.291
11521.4 216.284
11523.0 211.617
11524.5 206.408
11526.0 200.821
11529.1 188.779
11532.1 176.303
11535.2 163.845
11538.2 151.882
11540.5 143.350
11542.8 135.271
11545.1 127.674
11547.4 120.567
11549.7 113.942
11552.0 107.782
11554.3 102.066
11556.5 96.7654
11558.8 91.8953
11561.1 87.3989
11563.3 83.2275
11565.6 79.3557
11567.9 75.7595
11570.1 72.4165
11572.4 69.3060
11574.6 66.4086
11577.7 62.7607
11580.8 59.4487
11583.9 56.4272
11587.0 53.6664
11590.0 51.1323
11593.1 48.7992
11596.2 46.6494
11599.3 44.6650
11603.8 42.0187
11608.3 39.6490
11612.8 37.5184
11617.4 35.5954
11621.9 33.8535
11626.4 32.2702
11630.9 30.8262
11635.4 29.5054
11640.0 28.2936
11644.5 27.1787
11649.0 26.1504
11653.5 25.1994
11658.0 24.3180
11662.6 23.4992
11667.1 22.7370
11671.6 22.0274
11679.0 20.9616
11686.4 20.0062
11693.8 19.1406
11701.2 18.3552
11708.6 17.6388
11716.0 16.9839
11723.4 16.3833
11730.8 15.8315
11739.8 15.2141
11748.9 14.6521
11757.9 14.1387
11766.9 13.6681
11776.0 13.2351
11785.0 12.8358
11794.1 12.4663
11803.1 12.1238
11821.2 11.5077
11839.2 10.9700
11857.3 10.4967
11875.4 10.0771
11890.2 9.76781
11905.0 9.48463
11914.0 9.32335
11923.1 9.17021
11927.6 9.09657
11932.1 9.02487
11936.6 8.95518
11938.9 8.92115
11941.1 8.88774
11942.8 8.86383
11944.4 8.84058
11946.1 8.81802
11946.9 8.80708
11947.7 8.79649
11948.5 8.78627
11949.4 8.77705
11949.8 8.77300
11950.2 8.76956
11950.6 8.76704
11951.0 8.76591
11951.4 8.76686
11951.6 8.76846
11951.8 8.77090
11952.0 8.77462
11952.2 8.77950
11952.4 8.78629
11952.6 8.79465
11952.9 8.80580
11953.1 8.81906
11953.3 8.83624
11953.5 8.85620
11953.7 8.88153
11953.9 8.91042
11954.1 8.94645
11954.3 8.98689
11954.5 9.04693
11954.8 9.11570
11955.0 9.20031
11955.3 9.29529
11955.5 9.40981
11955.8 9.53576
11956.0 9.68455
11956.2 9.84485
11956.5 10.0303
11956.7 10.2258
11957.0 10.4470
11957.2 10.6750
11957.5 10.9270
11957.7 11.1804
11958.2 11.7092
11958.6 12.1658
11959.0 12.6045
11959.2 12.8147
11959.4 13.0020
11959.6 13.1821
11959.8 13.3352
11960.0 13.4433
11960.2 13.5373
11960.3 13.6162
11960.5 13.6794
11960.7 13.7468
11960.9 13.7651
11961.0 13.7688
11961.1 13.7617
11961.3 13.7393
11961.4 13.7047
11961.6 13.6573
11961.7 13.5878
11961.9 13.5025
11962.0 13.4025
11962.2 13.2960
11962.4 13.1281
11962.6 12.9408
11962.8 12.7370
11963.0 12.5196
11963.5 12.0572
11963.9 11.5898
11964.2 11.2390
11964.5 10.8994
11964.8 10.5673
11965.1 10.2687
11965.4 9.98800
11965.7 9.74466
11966.0 9.56278
11966.3 9.40093
11966.5 9.25839
11966.8 9.13412
11967.0 9.02680
11967.3 8.93493
11967.6 8.85694
11967.8 8.79355
11968.0 8.74806
11968.2 8.70881
11968.4 8.67505
11968.7 8.64608
11968.9 8.62127
11969.1 8.60003
11969.3 8.58185
11969.5 8.56695
11969.7 8.55344
11969.9 8.54179
11970.1 8.53167
11970.3 8.52283
11970.5 8.51505
11970.7 8.50813
11971.2 8.49654
11971.6 8.48656
11972.0 8.47785
11972.4 8.46999
11972.8 8.46285
11973.7 8.44944
11974.5 8.43684
11975.3 8.42460
11976.2 8.41285
11977.8 8.38994
11979.5 8.36774
11981.2 8.34618
11983.5 8.31695
11985.7 8.28841
11988.0 8.26023
11990.3 8.23258
11994.9 8.17829
11999.5 8.12544
12008.7 8.02315
12017.8 7.92512
12037.0 7.73252
12056.2 7.55473
12094.5 7.23707
12134.6 6.94969
12174.6 6.69872
12214.6 6.47733
12254.6 6.28047
12291.3 6.11826
12328.0 5.96981
12401.4 5.70909
12474.7 5.48582
12548.1 5.29159
12654.8 5.04845
12761.5 4.83984
12781.5 4.80380
12791.6 4.78606
12796.6 4.77730
12799.1 4.77295
12801.6 4.76864
12802.8 4.76660
12803.4 4.76559
12804.0 4.76460
12804.6 4.76365
12804.9 4.76319
12805.2 4.76276
12805.5 4.76235
12805.8 4.76198
12806.1 4.76166
12806.4 4.76140
12806.7 4.76122
12807.0 4.76114
12807.3 4.76119
12807.6 4.76139
12807.9 4.76177
12808.2 4.76238
12808.5 4.76324
12808.8 4.76440
12809.1 4.76590
12809.4 4.76778
12809.7 4.77006
12810.0 4.77277
12810.6 4.77953
12811.1 4.78784
12813.4 4.82549
12813.9 4.83079
12814.3 4.83427
12814.8 4.83578
12815.0 4.83571
12815.3 4.83490
12815.7 4.83203
12816.2 4.82543
12816.8 4.81645
12818.2 4.78837
12818.9 4.77470
12819.6 4.76281
12820.0 4.75667
12820.4 4.75139
12820.8 4.74696
12821.2 4.74336
12821.7 4.74033
12821.9 4.73904
12822.1 4.73792
12822.3 4.73686
12822.5 4.73590
12822.7 4.73502
12822.9 4.73427
12823.1 4.73354
12823.3 4.73287
12823.5 4.73225
12823.7 4.73170
12824.1 4.73066
12824.6 4.72974
12825.0 4.72886
12825.4 4.72806
12825.8 4.72727
12826.2 4.72653
12827.0 4.72505
12827.9 4.72360
12829.5 4.72075
12832.9 4.71509
12836.5 4.70900
12840.1 4.70296
12847.3 4.69098
12861.7 4.66733
12890.5 4.62096
12948.1 4.53212
13063.3 4.36653
13205.2 4.18023
13347.0 4.00563
13448.9 3.88504
13550.9 3.76634
13652.8 3.64789
13703.8 3.58829
13754.8 3.52814
13790.2 3.48586
13807.9 3.46456
13825.7 3.44316
13843.4 3.42164
13861.1 3.40001
13870.0 3.38917
13878.9 3.37832
13887.7 3.36750
13892.1 3.36210
13896.6 3.35673
13901.0 3.35139
13905.4 3.34612
13909.9 3.34095
13914.3 3.33593
13916.9 3.33306
13919.6 3.33034
13922.2 3.32782
13924.8 3.32559
13927.5 3.32382
13928.8 3.32319
13930.1 3.32281
13931.4 3.32276
13932.7 3.32317
13934.1 3.32424
13935.4 3.32634
13936.5 3.32944
13937.0 3.33178
13937.6 3.33489
13938.1 3.33932
13938.7 3.34562
13939.2 3.35503
13939.5 3.36157
13939.8 3.36940
13940.1 3.37951
13940.4 3.39216
13940.6 3.40798
13940.9 3.42696
13941.2 3.45138
13941.5 3.48169
13941.7 3.51910
13942.0 3.56322
13942.3 3.61886
13942.6 3.68625
13942.9 3.76726
13943.1 3.86011
13943.4 3.97363
13943.7 4.10153
13944.0 4.25514
13944.2 4.42504
13944.4 4.58019
13944.7 4.75090
13944.9 4.93749
13945.1 5.13048
13945.3 5.34809
13945.5 5.57011
13945.7 5.81695
13946.0 6.06514
13946.2 6.33692
13946.4 6.61895
13946.8 7.19113
13947.3 7.77383
13947.7 8.34299
13948.0 8.74200
13948.3 9.09668
13948.6 9.40991
13948.9 9.67248
13949.2 9.84775
13949.5 9.97787
13949.6 10.0312
13949.8 10.0682
13950.0 10.0925
13950.2 10.0736
13950.4 10.0400
13950.5 9.98995
13950.8 9.85380
13951.1 9.66519
13951.4 9.41037
13951.7 9.11890
13952.0 8.77875
13952.3 8.42097
13952.7 7.85617
13953.1 7.28775
13953.5 6.72580
13954.0 6.18963
13954.2 5.93604
13954.4 5.69410
13954.6 5.46493
13954.8 5.24935
13955.0 5.04791
13955.2 4.86088
13955.4 4.68834
13955.6 4.53012
13955.8 4.39246
13956.0 4.26707
13956.4 4.05584
13956.8 3.88465
13957.2 3.74829
13957.6 3.63897
13958.0 3.55690
13958.4 3.49428
13958.8 3.44697
13959.2 3.41072
13959.6 3.38442
13960.0 3.36477
13960.4 3.35000
13960.8 3.33855
13961.1 3.32997
13961.5 3.32322
13961.9 3.31779
13962.6 3.31044
13963.3 3.30489
13963.9 3.30039
13964.6 3.29657
13966.0 3.29026
13967.3 3.28515
13968.7 3.28081
13970.0 3.27705
13972.3 3.27155
13974.5 3.26678
13976.7 3.26246
13979.0 3.25846
13982.6 3.25247
13986.2 3.24684
13989.8 3.24144
13993.3 3.23619
13996.9 3.23105
14000.5 3.22598
14007.7 3.21599
14014.9 3.20609
14022.1 3.19625
14029.3 3.18644
14036.4 3.17663
14049.0 3.15941
14061.6 3.14211
14086.7 3.10713
14111.9 3.07157
14137.0 3.03534
14176.5 2.97683
14216.0 2.91618
14255.5 2.85306
14295.0 2.78715
14317.9 2.74748
14340.8 2.70670
14352.2 2.68588
14357.9 2.67536
14363.6 2.66478
14369.4 2.65411
14375.1 2.64344
14378.0 2.63810
14380.8 2.63278
14383.7 2.62749
14386.5 2.62227
14388.8 2.61825
14391.0 2.61439
14392.1 2.61255
14393.3 2.61078
14394.4 2.60914
14395.5 2.60768
14396.6 2.60661
14397.1 2.60628
14397.6 2.60621
14398.2 2.60656
14398.7 2.60758
14399.0 2.60850
14399.2 2.60972
14399.5 2.61145
14399.8 2.61368
14400.0 2.61672
14400.3 2.62070
14400.6 2.62586
14400.8 2.63220
14401.1 2.64053
14401.4 2.65059
14401.6 2.66358
14401.9 2.67901
14402.2 2.69862
14402.4 2.72249
14402.7 2.75130
14403.0 2.78437
14403.2 2.82496
14403.5 2.87073
14403.8 2.92591
14404.0 2.98702
14404.5 3.11275
14404.9 3.26529
14405.4 3.44500
14405.8 3.65031
14406.3 3.87732
14406.7 4.11959
14407.2 4.36824
14407.6 4.60704
14408.0 4.79119
14408.3 4.95388
14408.7 5.09462
14409.0 5.20813
14409.3 5.27634
14409.6 5.32254
14409.8 5.34370
14410.0 5.34811
14410.0 5.34813
14410.0 5.34789
14410.1 5.34716
14410.2 5.34471
14410.4 5.32845
14410.6 5.28825
14410.9 5.22726
14411.2 5.13006
14411.5 5.01298
14411.9 4.87218
14412.2 4.72045
14412.5 4.55240
14412.8 4.37726
14413.4 4.02300
14413.8 3.82019
14414.2 3.63415
14414.5 3.51208
14414.7 3.40237
14415.2 3.22533
14415.6 3.07845
14416.0 2.95693
14416.5 2.85891
14416.7 2.81616
14416.9 2.78020
14417.1 2.74865
14417.4 2.72113
14417.6 2.69725
14417.8 2.67661
14418.0 2.65886
14418.2 2.64365
14418.5 2.62853
14418.8 2.61648
14419.0 2.60613
14419.3 2.59793
14419.5 2.59165
14419.7 2.58659
14419.9 2.58230
14420.2 2.57866
14420.4 2.57543
14420.6 2.57279
14421.0 2.56854
14421.5 2.56522
14421.9 2.56263
14422.4 2.56047
14422.8 2.55860
14423.7 2.55537
14424.6 2.55257
14425.5 2.54998
14426.4 2.54756
14427.9 2.54358
14429.4 2.53983
14430.9 2.53620
14432.4 2.53267
14435.5 2.52578
14438.5 2.51904
14441.6 2.51236
14444.6 2.50573
14450.7 2.49250
14456.8 2.47923
14462.9 2.46591
14475.0 2.43895
14491.2 2.40217
14513.0 2.35106
14518.5 2.33796
14523.9 2.32476
14526.7 2.31812
14528.0 2.31484
14528.7 2.31323
14529.4 2.31166
14530.1 2.31019
14530.4 2.30951
14530.7 2.30888
14531.1 2.30833
14531.4 2.30786
14531.8 2.30752
14532.1 2.30731
14532.4 2.30728
14532.8 2.30747
14533.1 2.30791
14533.5 2.30863
14533.8 2.30969
14534.1 2.31111
14534.5 2.31293
14534.8 2.31516
14535.2 2.31849
14535.7 2.32234
14536.5 2.33150
14538.1 2.35122
14538.7 2.35606
14539.2 2.35918
14539.7 2.36016
14540.0 2.35979
14540.3 2.35868
14540.8 2.35549
14541.4 2.34908
14542.0 2.34055
14543.4 2.31690
14544.1 2.30518
14544.8 2.29488
14545.3 2.28784
14545.9 2.28188
14546.1 2.27925
14546.4 2.27695
14546.7 2.27479
14547.0 2.27291
14547.2 2.27116
14547.5 2.26962
14547.8 2.26818
14548.1 2.26691
14548.3 2.26570
14548.6 2.26462
14548.9 2.26361
14549.1 2.26267
14549.7 2.26088
14550.2 2.25923
14550.8 2.25766
14551.3 2.25615
14552.4 2.25320
14553.5 2.25032
14557.9 2.23875
14562.3 2.22714
14577.1 2.18725
14591.9 2.14602
14621.5 2.05884
14651.1 1.96480
14680.6 1.86272
14701.0 1.78678
14721.3 1.70556
14741.6 1.61818
14762.0 1.52376
14781.4 1.42584
14800.8 1.31916
14810.5 1.26200
14820.2 1.20209
14829.9 1.13905
14839.6 1.07286
14849.8 0.999465
14860.0 0.921734
14870.1 0.839330
14880.3 0.752037
14885.8 0.702177
14891.4 0.650769
14896.9 0.597839
14902.5 0.543561
14908.0 0.487885
14913.6 0.431260
14924.7 0.316597
14928.4 0.278776
14932.1 0.241783
14935.8 0.206154
14939.5 0.172672
14943.2 0.142046
14945.0 0.128241
14946.9 0.115725
14948.7 0.104737
14950.6 0.0955408
14952.4 0.0884431
14954.2 0.0838265
14956.1 0.0820813
14957.0 0.0824657
14957.9 0.0837759
14959.2 0.0872916
14960.5 0.0929424
14961.8 0.101009
14963.0 0.111786
14964.3 0.125607
14965.6 0.142853
14966.8 0.163956
14968.1 0.189412
14969.4 0.220046
14970.7 0.256035
14971.9 0.298343
14973.2 0.347833
14974.5 0.405499
14975.1 0.438017
14975.7 0.472498
14976.4 0.510215
14977.0 0.550173
14977.7 0.593846
14978.3 0.640088
14979.3 0.719838
14980.3 0.808184
14981.2 0.906995
14982.2 1.01754
14982.7 1.07892
14983.2 1.14261
14983.7 1.21002
14984.2 1.28137
14984.7 1.35693
14985.2 1.43695
14985.7 1.52173
14986.1 1.61157
14986.8 1.73709
14987.4 1.87044
14988.1 2.01673
14988.7 2.17234
14989.3 2.34328
14990.0 2.52540
14990.6 2.72580
14991.2 2.93967
14991.9 3.17545
14992.5 3.43177
14993.1 3.71072
14993.8 4.00970
14994.4 4.34084
14995.0 4.69666
14995.7 5.09180
14996.3 5.51761
14996.8 5.86154
14997.2 6.22191
14997.7 6.60778
14998.2 7.02131
14998.6 7.46490
14999.1 7.94118
14999.5 8.45305
15000.0 9.00371
15000.3 9.41151
15000.6 9.84110
15001.0 10.2938
15001.3 10.7712
15001.6 11.2749
15001.9 11.8065
15002.2 12.3680
15002.6 12.9421
15002.9 13.5682
15003.2 14.2303
15003.5 14.9309
15003.8 15.6489
15004.1 16.4331
15004.5 17.2641
15004.8 18.1451
15005.1 19.0493
15005.4 20.0385
15005.7 21.0883
15006.1 22.2027
15006.4 23.3858
15006.7 24.6421
15007.0 25.9763
15007.3 27.3931
15007.6 28.8492
15008.0 30.4435
15008.3 32.1356
15008.6 33.9309
15008.9 35.7733
15009.2 37.7869
15009.6 39.9188
15009.9 42.1738
15010.2 44.4800
15010.5 46.9092
15010.8 49.3802
15011.1 52.0596
15011.4 54.7760
15011.7 57.7109
15012.0 60.6741
15012.6 67.0635
15013.2 73.9116
15013.8 81.1593
15014.5 88.7181
15015.1 96.3408
15015.7 104.261
15016.3 112.042
15016.9 119.478
15017.5 126.348
15018.2 132.438
15018.5 135.126
15018.8 137.545
15019.1 139.676
15019.4 141.499
15019.7 143.001
15020.0 144.137
15020.4 145.192
15020.8 145.610
15021.2 145.501
15021.5 145.006
15021.8 144.108
15022.2 142.876
15022.5 141.256
15022.8 139.365
15023.5 134.670
15024.2 129.026
15024.9 122.682
15026.2 108.861
15027.1 99.8290
15027.5 95.4029
15027.9 91.1804
15028.3 86.9855
15028.8 83.0321
15029.2 79.1462
15029.6 75.5178
15030.1 71.1824
15030.7 67.1956
15031.2 63.4699
15031.7 59.9982
15032.2 56.7101
15032.7 53.7166
15033.3 50.9397
15033.8 48.3647
15034.2 46.4223
15034.6 44.6370
15035.0 42.9542
15035.4 41.3674
15035.9 39.8351
15036.3 38.4241
15037.1 35.8320
15037.9 33.4865
15038.7 31.4089
15039.6 29.5390
15040.4 27.8509
15041.2 26.3043
15042.0 24.9171
15042.8 23.6531
15043.7 22.4982
15044.5 21.4399
15045.3 20.4677
15046.1 19.5722
15046.9 18.7454
15048.0 17.7760
15049.0 16.8950
15050.1 16.0918
15051.1 15.3638
15052.2 14.6892
15053.2 14.0742
15054.3 13.5017
15055.3 12.9786
15056.0 12.6593
15056.7 12.3622
15057.3 12.0831
15058.0 11.8230
15058.7 11.5799
15059.4 11.3622
15060.0 11.1668
15060.7 10.9930
15061.5 10.7995
15062.4 10.6282
15062.8 10.5454
15063.2 10.4618
15063.6 10.3752
15064.1 10.2839
15064.4 10.1983
15064.8 10.1070
15065.0 10.0551
15065.0 10.0498
15065.1 10.0338
15065.1 10.0204
15065.2 9.99040
15065.7 9.87101
15066.1 9.75041
15066.5 9.62400
15066.9 9.49306
15067.3 9.35908
15068.2 9.05506
15069.1 8.76476
15069.5 8.62609
15069.9 8.49709
15070.4 8.37234
15070.8 8.25744
15071.3 8.14692
15071.7 8.04519
15072.2 7.94702
15072.6 7.85611
15073.1 7.76762
15073.5 7.68487
15074.4 7.52677
15075.3 7.37024
15076.3 7.22344
15078.1 6.94726
15080.0 6.69219
15081.9 6.45547
15083.7 6.23512
15085.6 6.02947
15087.5 5.83708
15089.4 5.65667
15092.4 5.38701
15095.4 5.14204
15098.4 4.91828
15101.5 4.71331
15104.5 4.52348
15107.5 4.34770
15110.6 4.18433
15113.6 4.03244
15117.5 3.84961
15121.4 3.68091
15125.3 3.52448
15129.3 3.37874
15133.2 3.24237
15137.1 3.11424
15141.0 2.99339
15144.9 2.87927
15151.3 2.70399
15157.8 2.54203
15164.2 2.39045
15170.6 2.24763
15177.0 2.11210
15183.4 1.98314
15189.8 1.85956
15196.2 1.74055
15207.6 1.53816
15219.0 1.34522
15226.9 1.21691
15234.7 1.09164
15242.5 0.969141
15250.4 0.849472
15258.2 0.732445
15266.0 0.618716
15273.9 0.508650
15277.8 0.455336
15281.7 0.403450
15285.6 0.353004
15289.6 0.304453
15293.5 0.258046
15297.4 0.214125
15301.3 0.173112
15303.3 0.153848
15305.2 0.135507
15307.2 0.118164
15309.2 0.101903
15311.1 0.0868110
15313.1 0.0730448
15316.1 0.0543722
15317.6 0.0463819
15319.1 0.0394459
15320.6 0.0335418
15322.2 0.0288176
15322.9 0.0268936
15323.7 0.0252869
15324.4 0.0240081
15325.2 0.0230784
15325.7 0.0226196
15326.3 0.0223453
15326.8 0.0222496
15327.3 0.0223365
15327.9 0.0226833
15328.6 0.0232898
15329.2 0.0241829
15329.8 0.0253420
15330.4 0.0268124
15331.1 0.0285555
15331.7 0.0306005
15332.3 0.0329557
15333.2 0.0367042
15334.0 0.0410742
15334.9 0.0460888
15335.7 0.0517015
15337.4 0.0650729
15339.1 0.0814036
15340.8 0.101058
15342.5 0.124067
15344.2 0.150820
15345.8 0.181625
15347.8 0.222870
15348.8 0.245882
15349.8 0.270589
15350.7 0.297074
15351.7 0.325421
15352.7 0.355722
15353.7 0.388072
15354.7 0.422572
15355.6 0.459327
15356.6 0.498451
15357.6 0.540062
15358.6 0.584284
15359.6 0.631250
15360.5 0.681097
15361.5 0.733416
15362.9 0.816272
15364.4 0.905756
15365.8 1.00369
15367.2 1.10934
15367.9 1.16632
15368.6 1.22489
15369.4 1.28590
15370.1 1.34946
15370.8 1.41662
15371.5 1.48562
15372.9 1.63230
15373.9 1.74066
15374.9 1.85522
15375.9 1.97633
15376.8 2.10437
15377.8 2.23973
15378.8 2.38285
15379.8 2.53420
15380.8 2.69426
15381.7 2.86355
15382.7 3.04263
15383.7 3.23211
15384.7 3.43261
15385.7 3.64483
15386.6 3.86950
15387.6 4.10739
15388.6 4.35937
15389.5 4.60394
15390.4 4.85896
15391.3 5.12784
15392.2 5.41140
15393.1 5.71054
15393.9 6.02619
15394.8 6.35935
15395.7 6.71109
15396.6 7.08254
15397.5 7.47493
15398.4 7.88956
15399.3 8.32784
15400.2 8.79131
15401.1 9.28162
15402.0 9.80057
15402.8 10.3501
15403.8 10.9930
15404.8 11.6784
15405.8 12.4096
15406.8 13.1898
15407.7 14.0228
15408.7 14.9125
15409.7 15.8633
15410.7 16.8798
15411.7 17.9671
15412.6 19.1306
15413.6 20.3762
15414.6 21.7104
15415.6 23.1398
15416.6 24.6719
15417.5 26.3145
15418.5 28.0575
15419.5 29.9456
15420.5 31.9711
15421.5 34.1438
15422.4 36.4744
15423.4 38.9737
15424.4 41.6530
15425.4 44.5238
15426.4 47.5976
15427.1 49.9236
15427.7 52.3269
15428.4 54.8810
15429.1 57.5158
15429.8 60.3106
15430.5 63.1877
15431.9 69.3117
15433.3 75.9799
15434.7 83.0840
15436.1 90.6931
15437.4 98.6378
15440.6 117.625
15442.2 127.170
15443.7 136.374
15445.3 144.906
15446.9 152.430
15447.7 155.735
15448.4 158.634
15449.2 161.172
15450.0 163.261
15451.0 165.220
15451.9 166.509
15452.8 167.150
15453.8 167.141
15454.8 166.432
15455.8 165.041
15456.8 163.025
15457.9 160.451
15458.9 157.396
15459.9 153.936
15461.9 146.113
15464.0 137.557
15466.0 128.737
15468.1 120.006
15470.1 111.609
15472.0 104.149
15473.9 97.1881
15475.9 90.7522
15477.8 84.8388
15479.7 79.4279
15481.6 74.4890
15483.5 69.9866
15485.5 65.9038
15487.4 62.1615
15489.3 58.7470
15491.2 55.6280
15493.1 52.7889
15495.0 50.1733
15497.0 47.7844
15498.9 45.5757
15500.8 43.5511
15502.7 41.6722
15504.6 39.9348
15506.5 38.3253
15508.5 36.8390
15510.4 35.4497
15512.3 34.1625
15514.2 32.9557
15516.1 31.8344
15519.8 29.8810
15523.4 28.1476
15527.1 26.6021
15530.8 25.2184
15534.4 23.9742
15538.1 22.8507
15541.7 21.8321
15545.4 20.9051
15549.2 20.0189
15553.1 19.2123
15556.9 18.4719
15560.7 17.7936
15564.6 17.1671
15568.4 16.5899
15572.2 16.0552
15576.1 15.5586
15581.6 14.8958
15587.2 14.2961
15592.8 13.7523
15598.4 13.2569
15604.0 12.8011
15609.5 12.3829
15615.1 11.9967
15620.7 11.6403
15628.3 11.1912
15636.0 10.7845
15643.7 10.4145
15651.3 10.0768
15659.0 9.76666
15666.7 9.48154
15674.3 9.21788
15682.0 8.97391
15691.8 8.68784
15701.5 8.42619
15711.3 8.18591
15721.0 7.96444
15740.6 7.57048
15760.1 7.22817
15775.4 6.98965
15790.7 6.77329
15806.1 6.57594
15821.4 6.39550
15836.8 6.22903
15852.1 6.07543
15882.7 5.79997
15903.7 5.63261
15924.6 5.47909
15945.5 5.33748
15966.4 5.20679
16008.2 4.96976
16050.0 4.76097
16080.7 4.62244
16111.4 4.49343
16172.7 4.25993
16234.0 4.05135
16295.4 3.86154
16348.3 3.70920
16401.3 3.56506
16507.2 3.29413
16613.2 3.03795
16719.1 2.78876
16841.8 2.50150
16964.5 2.20873
17087.2 1.90480
17148.5 1.74709
17209.8 1.58531
17304.6 1.32580
17352.0 1.19195
17399.4 1.05571
17494.2 0.778281
17541.6 0.638968
17589.0 0.501685
17607.1 0.450280
17625.2 0.399847
17643.4 0.350530
17661.5 0.302386
17679.6 0.256141
17688.7 0.233805
17697.7 0.212063
17706.8 0.190963
17715.8 0.170555
17724.9 0.150843
17734.0 0.132026
17741.6 0.116822
17749.3 0.102327
17757.0 0.0885956
17764.6 0.0757023
17772.3 0.0636755
17780.0 0.0526131
17787.6 0.0425571
17795.3 0.0336101
17800.9 0.0278283
17806.5 0.0227039
17812.0 0.0182723
17817.6 0.0145744
17823.2 0.0116153
17826.0 0.0104319
17828.8 0.00946753
17831.5 0.00871787
17834.3 0.00818823
17837.1 0.00788313
17839.9 0.00780813
17842.3 0.00793539
17844.8 0.00824750
17847.2 0.00874871
17849.7 0.00944335
17852.1 0.0103359
17854.5 0.0114313
17857.0 0.0127362
17859.4 0.0142602
17864.3 0.0179861
17869.2 0.0225963
17874.1 0.0281405
17878.9 0.0346636
17882.8 0.0405357
17886.6 0.0470576
17890.4 0.0542878
17894.3 0.0622142
17898.1 0.0709046
17901.9 0.0803411
17905.8 0.0905737
17909.6 0.101632
17913.4 0.113578
17917.3 0.126382
17921.1 0.140144
17924.9 0.154827
17928.8 0.170543
17932.6 0.187248
17936.4 0.205020
17940.3 0.223893
17945.2 0.249556
17950.0 0.277151
17954.9 0.306862
17959.8 0.338738
17964.7 0.372896
17969.6 0.409510
17974.4 0.448564
17979.3 0.490086
17983.1 0.524739
17987.0 0.561059
17990.8 0.599303
17994.6 0.639345
17998.5 0.681469
18002.3 0.725534
18006.1 0.771730
18010.0 0.820142
18013.8 0.870994
18017.6 0.924115
18021.5 0.979880
18025.3 1.03810
18029.2 1.09919
18033.0 1.16294
18036.8 1.22962
18040.6 1.29935
18044.5 1.37246
18048.3 1.44870
18052.2 1.52860
18056.0 1.61190
18059.8 1.69919
18063.7 1.79017
18067.5 1.88523
18071.3 1.98455
18075.2 2.08859
18079.0 2.19701
18082.8 2.31026
18086.6 2.42857
18090.5 2.55248
18094.3 2.68160
18098.1 2.81647
18102.0 2.95736
18105.8 3.10493
18109.6 3.25870
18113.5 3.41978
18117.3 3.58764
18121.2 3.76349
18125.0 3.94677
18128.8 4.13830
18132.6 4.33846
18136.5 4.54821
18140.3 4.76690
18144.2 4.99611
18148.0 5.23514
18151.8 5.48573
18155.7 5.74712
18159.5 6.02048
18163.3 6.30641
18167.2 6.60633
18171.0 6.91933
18174.8 7.24773
18178.7 7.59056
18182.5 7.95038
18186.3 8.32610
18190.2 8.71951
18194.0 9.13152
18197.8 9.56421
18201.7 10.0163
18205.5 10.4901
18209.3 10.9865
18213.2 11.5082
18217.0 12.0537
18220.8 12.6257
18224.6 13.2255
18228.5 13.8562
18232.3 14.5162
18236.2 15.2104
18240.0 15.9371
18243.8 16.7016
18247.7 17.5021
18251.5 18.3423
18255.3 19.2244
18259.2 20.1530
18263.0 21.1256
18266.8 22.1496
18270.7 23.2222
18274.5 24.3515
18278.3 25.5345
18282.2 26.7768
18286.0 28.0812
18290.3 29.6308
18294.6 31.2638
18298.9 32.9922
18303.2 34.8126
18307.6 36.7380
18311.9 38.7641
18316.2 40.8999
18320.5 43.1505
18324.8 45.5297
18329.1 48.0270
18333.4 50.6497
18337.8 53.3950
18342.1 56.2772
18346.4 59.2846
18350.7 62.4250
18355.0 65.6953
18360.6 70.1617
18366.3 74.8287
18371.9 79.6961
18377.5 84.7249
18388.8 95.1716
18400.0 105.823
18411.3 116.207
18416.9 121.127
18422.5 125.753
18428.1 130.024
18433.8 133.855
18439.4 137.198
18445.0 139.987
18450.6 142.189
18456.3 143.776
18461.9 144.747
18467.5 145.104
18473.1 144.868
18478.8 144.078
18484.4 142.779
18490.0 141.026
18495.6 138.869
18501.3 136.377
18512.5 130.605
18523.8 124.127
18535.0 117.364
18546.3 110.557
18557.5 103.904
18573.4 95.0177
18581.3 90.8564
18589.3 86.9044
18597.2 83.1551
18605.2 79.6168
18613.1 76.2758
18621.1 73.1336
18630.9 69.5075
18640.7 66.1476
18650.5 63.0354
18660.3 60.1527
18670.1 57.4964
18679.9 55.0165
18689.7 52.7137
18699.5 50.5749
18715.0 47.5126
18730.4 44.7697
18745.8 42.3046
18761.2 40.0877
18776.6 38.0795
18792.0 36.2618
18807.5 34.6077
18822.9 33.0982
18838.3 31.7182
18853.7 30.4520
18869.1 29.2865
18884.5 28.2135
18899.9 27.2197
18915.4 26.3004
18930.8 25.4461
18946.2 24.6511
18971.4 23.4640
18996.6 22.4054
19021.9 21.4478
19047.1 20.5810
19072.3 19.7925
19097.5 19.0734
19122.8 18.4151
19148.0 17.8116
19178.8 17.1406
19209.6 16.5289
19240.5 15.9711
19271.3 15.4624
19302.1 14.9930
19333.0 14.5620
19394.6 13.7932
19453.5 13.1610
19512.3 12.6025
19571.2 12.1118
19630.1 11.6720
19688.9 11.2772
19747.8 10.9240
19806.6 10.6020
19865.5 10.3077
19932.7 10.0040
20000.0 9.72558
20121.5 9.28328
20243.1 8.90103
20364.6 8.56584
20486.1 8.26836
20607.7 8.00153
20729.2 7.75874
20850.7 7.53514
20972.3 7.32679
21093.8 7.13030
21215.3 6.94217
21336.9 6.75926
21458.4 6.57838
21546.8 6.44604
21635.2 6.31120
21723.6 6.17197
21812.0 6.02594
21872.7 5.91998
21933.5 5.80811
21994.3 5.68880
22055.0 5.56007
22110.3 5.43250
22165.5 5.29277
22193.1 5.21710
22220.8 5.13703
22248.4 5.05213
22276.0 4.96173
22306.4 4.85447
22336.8 4.73813
22367.1 4.61113
22397.5 4.47156
22427.9 4.31698
22443.1 4.23324
22458.3 4.14458
22473.5 4.05058
22488.7 3.95062
22503.9 3.84410
22519.1 3.73037
22538.4 3.57372
22548.1 3.48993
22557.7 3.40254
22567.4 3.31049
22577.1 3.21381
22586.7 3.11221
22596.4 3.00542
22604.0 2.91745
22611.6 2.82579
22619.2 2.73024
22626.8 2.63074
22634.4 2.52683
22642.0 2.41858
22649.6 2.30554
22657.2 2.18786
22664.8 2.06512
22672.4 1.93743
22680.0 1.80487
22687.6 1.66783
22695.2 1.52640
22702.7 1.38174
22706.5 1.30840
22710.3 1.23472
22714.1 1.16099
22717.9 1.08773
22722.4 1.00187
22726.9 0.917778
22731.4 0.836527
22735.9 0.759695
22738.1 0.723416
22740.4 0.689116
22742.6 0.656797
22744.9 0.627101
22747.1 0.600163
22749.4 0.576673
22751.6 0.557003
22753.8 0.541722
22755.4 0.534020
22757.0 0.529053
22758.5 0.527050
22760.1 0.528354
22761.6 0.533326
22763.2 0.542268
22764.7 0.555598
22766.3 0.573755
22767.2 0.587477
22768.2 0.603315
22769.1 0.621400
22770.1 0.641869
22771.0 0.664870
22772.0 0.690558
22772.9 0.719101
22773.9 0.750328
22774.8 0.785090
22775.8 0.823274
22776.7 0.865093
22777.7 0.910778
22778.6 0.960572
22779.6 1.01474
22780.5 1.07354
22781.5 1.13660
22782.8 1.23235
22784.0 1.33796
22785.3 1.45604
22786.6 1.58584
22787.9 1.73054
22789.2 1.88922
22789.9 1.97530
22790.5 2.06576
22791.2 2.16078
22791.8 2.25900
22792.8 2.41381
22793.7 2.58003
22794.7 2.75845
22795.6 2.94994
22796.6 3.15541
22797.5 3.37585
22798.5 3.61233
22799.4 3.86601
22800.4 4.13811
22801.3 4.43000
22802.3 4.74311
22803.2 5.07901
22804.2 5.43937
22805.1 5.82602
22806.1 6.24092
22807.0 6.68619
22808.0 7.16410
22808.9 7.67713
22809.9 8.22792
22810.8 8.81933
22811.8 9.45444
22812.7 10.1366
22813.7 10.8692
22814.6 11.6477
22815.6 12.4925
22816.5 13.4001
22817.5 14.3750
22818.4 15.4221
22819.4 16.5467
22820.3 17.7541
22821.3 19.0501
22822.2 20.4255
22823.1 21.9155
22824.1 23.4947
22825.0 25.2032
22826.0 27.0108
22826.9 28.9621
22827.9 31.0215
22828.8 33.2379
22829.8 35.5689
22830.4 37.3426
22831.1 39.1630
22832.5 43.0513
22833.8 47.2309
22835.2 51.6896
22836.5 56.4036
22837.9 61.3359
22840.6 71.6334
22841.7 76.2337
22842.9 80.7456
22844.1 85.1387
22845.3 89.3401
22846.5 93.2762
22847.6 96.8760
22848.8 100.074
22850.0 102.815
22851.4 105.335
22852.7 107.156
22854.1 108.262
22855.4 108.664
22856.4 108.521
22857.4 108.023
22858.4 107.198
22859.5 106.077
22860.5 104.679
22861.5 103.067
22863.5 99.3004
22865.5 95.0097
22867.6 90.4690
22869.6 85.8201
22871.6 81.2474
22873.4 77.2108
22875.3 73.3678
22877.1 69.7053
22878.9 66.2779
22880.8 63.0523
22882.6 60.0607
22884.4 57.2773
22886.3 54.6916
22888.1 52.2790
22889.9 50.0529
22891.8 47.9869
22893.6 46.0687
22895.4 44.2769
22897.3 42.6200
22899.1 41.0774
22900.9 39.6396
22902.9 38.1779
22904.9 36.8206
22906.9 35.5584
22908.9 34.3830
22910.9 33.2868
22912.9 32.2631
22914.9 31.3054
22916.9 30.4122
22918.8 29.6347
22920.6 28.9041
22922.4 28.2128
22924.3 27.5581
22926.1 26.9343
22927.9 26.3457
22929.8 25.7866
22931.6 25.2550
22933.4 24.7464
22935.3 24.2646
22938.9 23.3668
22942.6 22.5478
22946.2 21.7980
22949.9 21.1078
22953.6 20.4740
22957.2 19.8871
22960.9 19.3452
22964.6 18.8410
22968.2 18.3731
22971.9 17.9358
22975.6 17.5283
22980.6 17.0131
22985.6 16.5406
22990.6 16.1063
22995.5 15.7069
23000.5 15.3361
23005.5 14.9921
23010.5 14.6713
23015.5 14.3729
23022.9 13.9693
23030.2 13.6023
23037.5 13.2672
23044.8 12.9600
23052.2 12.6775
23059.5 12.4168
23066.8 12.1755
23074.2 11.9515
23081.5 11.7431
23088.8 11.5486
23096.2 11.3667
23103.5 11.1963
23118.1 10.8857
23132.8 10.6100
23146.8 10.3745
23160.8 10.1609
23174.8 9.96687
23188.8 9.78970
23202.8 9.62717
23216.8 9.47779
23230.7 9.33977
23244.7 9.21184
23259.4 9.08751
23274.1 8.97193
23303.4 8.76364
23332.7 8.58074
23362.0 8.41876
23383.3 8.31193
23404.6 8.21317
23447.3 8.03629
23489.9 7.88171
23532.6 7.74525
23591.2 7.58134
23649.8 7.43910
23708.5 7.31387
23767.1 7.20241
23825.7 7.10223
23884.4 7.01130
23943.0 6.92804
24001.6 6.85131
24113.6 6.71969
24225.5 6.60333
24337.4 6.49862
24449.4 6.40296
24566.6 6.31061
24683.9 6.22447
24801.2 6.14319
24918.4 6.06578
25110.3 5.94531
25302.2 5.82959
25494.1 5.71608
25686.0 5.60241
25941.9 5.44634
26197.7 5.27912
26357.6 5.16526
26517.5 5.04110
26677.4 4.90368
26837.3 4.74772
26954.6 4.61778
27071.9 4.47097
27189.1 4.30267
27306.4 4.10646
27365.0 3.99493
27423.7 3.87260
27482.3 3.73772
27540.9 3.58808
27599.6 3.42074
27658.2 3.23245
27687.5 3.12932
27716.8 3.01910
27746.2 2.90124
27775.5 2.77531
27810.1 2.61398
27844.8 2.43881
27879.4 2.24695
27896.7 2.14437
27914.1 2.03703
27943.4 1.84381
27958.0 1.74152
27972.7 1.63531
27987.4 1.52515
28002.0 1.41100
28016.7 1.29295
28031.3 1.17128
28044.0 1.06339
28056.6 0.953305
28082.0 0.728850
28094.6 0.616106
28107.3 0.504709
28113.6 0.450109
28119.9 0.396667
28126.3 0.344715
28132.6 0.294751
28137.9 0.254454
28143.3 0.216204
28148.6 0.180395
28153.9 0.147458
28159.2 0.117846
28161.9 0.104463
28164.6 0.0922313
28167.2 0.0811506
28169.9 0.0713897
28172.6 0.0629695
28175.2 0.0560570
28177.6 0.0512835
28179.9 0.0478357
28182.2 0.0457870
28184.6 0.0452434
28185.8 0.0456104
28187.1 0.0464598
28188.3 0.0478096
28189.6 0.0496783
28192.1 0.0550478
28194.6 0.0627204
28197.1 0.0728529
28199.6 0.0856179
28202.1 0.101212
28204.6 0.119771
28206.4 0.135561
28208.2 0.153123
28210.1 0.172638
28211.9 0.194213
28213.7 0.218096
28215.6 0.244147
28217.4 0.272616
28219.2 0.303636
28221.1 0.337538
28222.9 0.374103
28224.7 0.413664
28226.5 0.456380
28228.4 0.502423
28230.2 0.551969
28232.0 0.605214
28233.9 0.662377
28235.7 0.724043
28237.5 0.789797
28239.4 0.860224
28241.2 0.935589
28243.0 1.01663
28244.9 1.10275
28246.7 1.19470
28248.5 1.29281
28250.4 1.39805
28252.2 1.50964
28254.0 1.62856
28255.9 1.75524
28257.7 1.89091
28259.5 2.03459
28261.4 2.18751
28263.2 2.35025
28265.0 2.52437
28266.9 2.70863
28268.7 2.90462
28270.5 3.11306
28272.4 3.33599
28274.2 3.57181
28276.0 3.82257
28277.8 4.08921
28279.7 4.37434
28281.5 4.67592
28283.3 4.99661
28285.2 5.33762
28287.0 5.70024
28288.8 6.08587
28290.7 6.49597
28292.5 6.93213
28294.3 7.39862
28296.2 7.89216
28298.0 8.41710
28299.8 8.97546
28301.7 9.57270
28303.5 10.2046
28305.3 10.8767
28307.2 11.5916
28309.0 12.3561
28310.8 13.1648
28312.7 14.0247
28314.5 14.9389
28316.3 15.9162
28318.2 16.9495
28320.0 18.0472
28321.8 19.2127
28324.4 20.9699
28327.0 22.8754
28329.5 24.9388
28332.1 27.1610
28334.7 29.5691
28337.2 32.1623
28339.8 34.9458
28342.4 37.9091
28344.5 40.5553
28346.7 43.3305
28348.8 46.2286
28351.0 49.2267
28355.3 55.5420
28359.6 62.1068
28363.9 68.7479
28368.2 75.1766
28370.4 78.2332
28372.6 81.1292
28374.7 83.8277
28376.9 86.2835
28380.0 89.3868
28383.1 91.8725
28386.3 93.6821
28389.4 94.7981
28392.6 95.2322
28394.9 95.1343
28397.3 94.7002
28399.6 93.9560
28402.0 92.9410
28404.3 91.6815
28406.7 90.2231
28411.4 86.8316
28416.1 83.0208
28420.8 79.0243
28425.5 74.9721
28430.2 70.9984
28434.4 67.5575
28438.6 64.2742
28442.9 61.1685
28447.1 58.2558
28451.3 55.5235
28455.5 52.9745
28459.7 50.6016
28463.9 48.4002
28468.2 46.3494
28472.4 44.4483
28476.6 42.6771
28480.8 41.0338
28485.0 39.5007
28489.2 38.0761
28493.5 36.7444
28497.7 35.5042
28502.3 34.2414
28506.9 33.0668
28511.5 31.9725
28516.1 30.9515
28520.7 29.9978
28525.3 29.1062
28534.5 27.4885
28542.9 26.1682
28551.3 24.9860
28559.8 23.9220
28568.2 22.9603
28576.6 22.0878
28585.1 21.2933
28593.5 20.5675
28601.9 19.9021
28610.4 19.2898
28618.8 18.7259
28627.2 18.2045
28635.6 17.7213
28652.5 16.8544
28669.4 16.0994
28682.4 15.5801
28695.4 15.1087
28708.5 14.6806
28721.5 14.2869
28734.5 13.9253
28747.5 13.5922
28773.6 12.9995
28790.5 12.6603
28807.3 12.3507
28841.1 11.8062
28874.8 11.3430
28908.5 10.9445
28942.2 10.5980
28976.0 10.2942
29009.7 10.0253
29043.4 9.78621
29077.1 9.57238
29110.9 9.37872
29178.3 9.04406
29245.8 8.76408
29313.2 8.52655
29380.7 8.32256
29448.1 8.14519
29515.6 7.98932
29583.0 7.85129
29687.3 7.66704
29791.5 7.50934
29895.8 7.37319
29947.9 7.31182
29973.9 7.28291
29980.5 7.27575
29983.7 7.27232
29985.3 7.27107
29986.2 7.27086
29987.0 7.27124
29987.8 7.27264
29988.2 7.27392
29988.6 7.27567
29989.0 7.27811
29989.4 7.28137
29989.8 7.28562
29990.2 7.29093
29990.6 7.29781
29991.0 7.30642
29991.5 7.31704
29991.9 7.32966
29992.3 7.34526
29992.7 7.36392
29993.1 7.38600
29993.5 7.41119
29993.9 7.44112
29994.3 7.47552
29995.1 7.55773
29995.9 7.66147
29996.7 7.78455
29997.6 7.92879
29998.4 8.08782
30000.0 8.43633
30000.0 9.61886
31250.0 9.59631
32500.0 9.57475
35000.0 9.53430
37500.0 9.50044
40000.0 9.46903
42500.0 9.44299
45000.0 9.41861
47500.0 9.39569
50000.0 9.37408
52500.0 9.35600
55000.0 9.33883
57500.0 9.32250
60000.0 9.30692
65000.0 9.28015
70000.0 9.25551
75000.0 9.23384
80000.0 9.21366
85000.0 9.19517
90000.0 9.17779
99999.9 9.14589
100000 9.14478
112500 9.18538
125000 9.22189
137500 9.25508
150000 9.28550
200000 9.27832
250000 9.18315
300000 9.03631
350000 8.79712
400000 8.59508
450000 8.42075
500000 8.26784
512500 8.20907
525000 8.15213
537500 8.09691
550000 8.04333
562500 7.99129
575000 7.94073
587500 7.89157
600000 7.84374
612500 7.79717
625000 7.75182
637500 7.70763
650000 7.66454
662500 7.62251
675000 7.58149
687500 7.54144
700000 7.50232
712500 7.45546
725000 7.40971
737500 7.36501
750000 7.32133
762500 7.27863
775000 7.23686
787500 7.19600
800000 7.15602
812500 7.11313
825000 7.07115
837500 7.03004
850000 6.98978
862500 6.95034
875000 6.91169
887500 6.87379
900000 6.83664
912500 6.79748
925000 6.75907
937500 6.72140
950000 6.68443
962500 6.64815
975000 6.61253
987500 6.57756
1.00000E+06 6.54322
1.00358E+06 6.53294
1.00358E+06 6.53293
1.01454E+06 6.50178
1.02550E+06 6.47112
1.03646E+06 6.44093
1.04742E+06 6.41120
1.05838E+06 6.38192
1.06934E+06 6.35307
1.08030E+06 6.32464
1.09126E+06 6.29664
1.09127E+06 6.29660
1.09375E+06 6.28896
1.09623E+06 6.28137
1.10119E+06 6.26637
1.11111E+06 6.23710
1.12103E+06 6.20874
1.13095E+06 6.18128
1.14087E+06 6.15468
1.15079E+06 6.12892
1.16071E+06 6.10397
1.17063E+06 6.07980
1.18055E+06 6.05640
1.19047E+06 6.03373
1.20039E+06 6.01179
1.21032E+06 5.99053
1.22024E+06 5.96995
1.23016E+06 5.95003
1.24008E+06 5.93073
1.25000E+06 5.91206
1.25781E+06 5.89296
1.26563E+06 5.87410
1.27344E+06 5.85549
1.28125E+06 5.83711
1.28906E+06 5.81897
1.29688E+06 5.80106
1.30469E+06 5.78337
1.31250E+06 5.76590
1.32031E+06 5.74864
1.32813E+06 5.73161
1.33594E+06 5.71478
1.34375E+06 5.69815
1.35156E+06 5.68173
1.35938E+06 5.66551
1.36719E+06 5.64948
1.37500E+06 5.63365
1.38281E+06 5.61800
1.39063E+06 5.60254
1.39844E+06 5.58727
1.40625E+06 5.57217
1.41406E+06 5.55725
1.42188E+06 5.54251
1.42969E+06 5.52794
1.43750E+06 5.51353
1.44531E+06 5.49929
1.45313E+06 5.48522
1.46094E+06 5.47130
1.46875E+06 5.45755
1.47656E+06 5.44395
1.48438E+06 5.43050
1.49219E+06 5.41720
1.50000E+06 5.40406
1.50781E+06 5.38942
1.51563E+06 5.37492
1.52344E+06 5.36055
1.53125E+06 5.34632
1.53906E+06 5.33221
1.54688E+06 5.31824
1.55469E+06 5.30440
1.56250E+06 5.29068
1.57031E+06 5.27708
1.57813E+06 5.26361
1.58594E+06 5.25025
1.59375E+06 5.23702
1.60156E+06 5.22390
1.60938E+06 5.21091
1.61719E+06 5.19802
1.62500E+06 5.18525
1.63281E+06 5.17258
1.64063E+06 5.16003
1.64844E+06 5.14759
1.65625E+06 5.13525
1.66406E+06 5.12302
1.67188E+06 5.11089
1.67969E+06 5.09887
1.68750E+06 5.08695
1.69531E+06 5.07512
1.70313E+06 5.06340
1.71094E+06 5.05177
1.71875E+06 5.04025
1.72656E+06 5.02881
1.73438E+06 5.01747
1.74219E+06 5.00623
1.75000E+06 4.99507
1.75787E+06 4.98349
1.76575E+06 4.97201
1.77362E+06 4.96061
1.78149E+06 4.94930
1.78937E+06 4.93808
1.79724E+06 4.92695
1.80511E+06 4.91591
1.81299E+06 4.90495
1.82086E+06 4.89407
1.82873E+06 4.88328
1.83661E+06 4.87257
1.84448E+06 4.86194
1.85235E+06 4.85139
1.86022E+06 4.84092
1.86810E+06 4.83053
1.87597E+06 4.82022
1.87597E+06 4.82021
1.87985E+06 4.81487
1.88372E+06 4.80956
1.89148E+06 4.79906
1.89923E+06 4.78868
1.90698E+06 4.77845
1.91473E+06 4.76835
1.92248E+06 4.75838
1.93023E+06 4.74854
1.93799E+06 4.73884
1.94574E+06 4.72925
1.95349E+06 4.71980
1.96124E+06 4.71046
1.96899E+06 4.70125
1.97675E+06 4.69216
1.98450E+06 4.68318
1.99225E+06 4.67433
2.00000E+06 4.66559
2.00400E+06 4.66072
2.00800E+06 4.65587
2.01200E+06 4.65105
2.01599E+06 4.64625
2.01999E+06 4.64147
2.02399E+06 4.63671
2.02799E+06 4.63198
2.03199E+06 4.62726
2.03598E+06 4.62257
2.03998E+06 4.61790
2.04398E+06 4.61325
2.04798E+06 4.60862
2.05198E+06 4.60402
2.05597E+06 4.59943
2.05997E+06 4.59487
2.06397E+06 4.59032
2.06797E+06 4.58580
2.07197E+06 4.58130
2.07597E+06 4.57681
2.07996E+06 4.57235
2.08396E+06 4.56791
2.08796E+06 4.56348
2.09196E+06 4.55908
2.09596E+06 4.55470
2.09995E+06 4.55033
2.10395E+06 4.54599
2.10795E+06 4.54166
2.11195E+06 4.53736
2.11595E+06 4.53307
2.11994E+06 4.52881
2.12394E+06 4.52456
2.12794E+06 4.52033
2.13194E+06 4.51612
2.13594E+06 4.51192
2.13994E+06 4.50775
2.14393E+06 4.50359
2.14793E+06 4.49946
2.15193E+06 4.49534
2.15593E+06 4.49124
2.15993E+06 4.48715
2.16392E+06 4.48309
2.16792E+06 4.47904
2.17192E+06 4.47501
2.17592E+06 4.47100
2.17992E+06 4.46700
2.18391E+06 4.46303
2.18791E+06 4.45907
2.19191E+06 4.45512
2.19591E+06 4.45120
2.19991E+06 4.44729
2.20391E+06 4.44339
2.20790E+06 4.43952
2.21190E+06 4.43566
2.21590E+06 4.43182
2.21990E+06 4.42799
2.22390E+06 4.42418
2.22789E+06 4.42039
2.23189E+06 4.41661
2.23589E+06 4.41285
2.23989E+06 4.40911
2.24389E+06 4.40538
2.24788E+06 4.40166
2.25188E+06 4.39797
2.25588E+06 4.39429
2.25987E+06 4.39045
2.26385E+06 4.38663
2.26784E+06 4.38283
2.27183E+06 4.37904
2.27582E+06 4.37526
2.27980E+06 4.37150
2.28379E+06 4.36776
2.28778E+06 4.36403
2.29176E+06 4.36032
2.29575E+06 4.35662
2.29974E+06 4.35293
2.30372E+06 4.34926
2.30771E+06 4.34561
2.31170E+06 4.34197
2.31568E+06 4.33834
2.31967E+06 4.33473
2.32366E+06 4.33113
2.32764E+06 4.32755
2.33163E+06 4.32398
2.33562E+06 4.32043
2.33961E+06 4.31688
2.34359E+06 4.31336
2.34758E+06 4.30984
2.35157E+06 4.30634
2.35555E+06 4.30286
2.35954E+06 4.29939
2.36353E+06 4.29593
2.36751E+06 4.29248
2.37150E+06 4.28905
2.37549E+06 4.28563
2.37947E+06 4.28223
2.38346E+06 4.27884
2.38745E+06 4.27546
2.39143E+06 4.27209
2.39542E+06 4.26874
2.39941E+06 4.26540
2.40340E+06 4.26207
2.40738E+06 4.25876
2.41137E+06 4.25546
2.41536E+06 4.25217
2.41934E+06 4.24889
2.42333E+06 4.24563
2.42732E+06 4.24238
2.43130E+06 4.23914
2.43529E+06 4.23591
2.43928E+06 4.23270
2.44326E+06 4.22950
2.44725E+06 4.22631
2.45124E+06 4.22313
2.45522E+06 4.21997
2.45921E+06 4.21681
2.46320E+06 4.21367
2.46719E+06 4.21054
2.47117E+06 4.20743
2.47516E+06 4.20432
2.47915E+06 4.20123
2.48313E+06 4.19814
2.48712E+06 4.19507
2.49111E+06 4.19201
2.49509E+06 4.18897
2.49908E+06 4.18593
2.50307E+06 4.18290
2.50705E+06 4.17989
2.51104E+06 4.17689
2.51104E+06 4.17689
2.51611E+06 4.17301
2.52118E+06 4.16916
2.52626E+06 4.16533
2.53133E+06 4.16152
2.53640E+06 4.15772
2.54147E+06 4.15395
2.54654E+06 4.15019
2.55161E+06 4.14645
2.55668E+06 4.14273
2.56175E+06 4.13903
2.56683E+06 4.13535
2.57190E+06 4.13168
2.57697E+06 4.12803
2.58204E+06 4.12441
2.58711E+06 4.12080
2.59218E+06 4.11720
2.59725E+06 4.11363
2.60232E+06 4.11007
2.60739E+06 4.10653
2.61247E+06 4.10300
2.61754E+06 4.09950
2.62261E+06 4.09601
2.62768E+06 4.09254
2.63275E+06 4.08908
2.63782E+06 4.08564
2.64289E+06 4.08222
2.64796E+06 4.07881
2.65304E+06 4.07543
2.65811E+06 4.07205
2.66318E+06 4.06870
2.66825E+06 4.06536
2.67332E+06 4.06203
2.67332E+06 4.06203
2.67718E+06 4.05950
2.68104E+06 4.05698
2.68490E+06 4.05447
2.68875E+06 4.05197
2.69261E+06 4.04948
2.69647E+06 4.04700
2.70032E+06 4.04453
2.70418E+06 4.04207
2.70418E+06 4.04206
2.70782E+06 4.03975
2.71147E+06 4.03744
2.71511E+06 4.03515
2.71875E+06 4.03286
2.72239E+06 4.03057
2.72603E+06 4.02830
2.72968E+06 4.02603
2.73332E+06 4.02377
2.73696E+06 4.02152
2.74060E+06 4.01927
2.74425E+06 4.01704
2.74789E+06 4.01481
2.75153E+06 4.01259
2.75517E+06 4.01037
2.75881E+06 4.00817
2.76246E+06 4.00597
2.76610E+06 4.00377
2.76974E+06 4.00159
2.77338E+06 3.99941
2.77702E+06 3.99724
2.78067E+06 3.99508
2.78431E+06 3.99292
2.78795E+06 3.99077
2.79159E+06 3.98863
2.79524E+06 3.98650
2.79888E+06 3.98437
2.80252E+06 3.98225
2.80616E+06 3.98014
2.80980E+06 3.97803
2.81345E+06 3.97593
2.81709E+06 3.97384
2.82073E+06 3.97175
2.82074E+06 3.97175
2.82509E+06 3.96928
2.82945E+06 3.96682
2.83381E+06 3.96437
2.83816E+06 3.96193
2.84252E+06 3.95950
2.84688E+06 3.95708
2.85123E+06 3.95467
2.85559E+06 3.95228
2.85995E+06 3.94989
2.86430E+06 3.94751
2.86866E+06 3.94515
2.87301E+06 3.94279
2.87737E+06 3.94044
2.88173E+06 3.93811
2.88608E+06 3.93578
2.89044E+06 3.93346
2.89044E+06 3.93346
2.89315E+06 3.93203
2.89586E+06 3.93060
2.89856E+06 3.92918
2.90127E+06 3.92776
2.90397E+06 3.92635
2.90668E+06 3.92493
2.90939E+06 3.92353
2.91209E+06 3.92212
2.91210E+06 3.92212
2.91698E+06 3.91960
2.92186E+06 3.91710
2.92674E+06 3.91461
2.93162E+06 3.91213
2.93650E+06 3.90967
2.94138E+06 3.90722
2.94626E+06 3.90478
2.95115E+06 3.90235
2.95603E+06 3.89994
2.96091E+06 3.89753
2.96579E+06 3.89514
2.97067E+06 3.89276
2.97556E+06 3.89040
2.98044E+06 3.88804
2.98532E+06 3.88570
2.99020E+06 3.88337
2.99020E+06 3.88337
2.99510E+06 3.88105
3.00000E+06 3.87874
3.00812E+06 3.87496
3.01625E+06 3.87120
3.03249E+06 3.86377
3.03249E+06 3.86377
3.03988E+06 3.86047
3.04726E+06 3.85720
3.06204E+06 3.85071
3.07681E+06 3.84431
3.09158E+06 3.83799
3.09977E+06 3.83468
3.10796E+06 3.83139
3.12434E+06 3.82487
3.14071E+06 3.81843
3.15709E+06 3.81205
3.17347E+06 3.80575
3.18985E+06 3.79953
3.20622E+06 3.79337
3.22260E+06 3.78729
3.22930E+06 3.78503
3.23599E+06 3.78279
3.24939E+06 3.77832
3.26278E+06 3.77389
3.27617E+06 3.76950
3.28956E+06 3.76514
3.30296E+06 3.76082
3.31635E+06 3.75653
3.32974E+06 3.75228
3.32974E+06 3.75228
3.33974E+06 3.75054
3.34973E+06 3.74882
3.35972E+06 3.74710
3.36971E+06 3.74540
3.37971E+06 3.74371
3.38970E+06 3.74203
3.39969E+06 3.74036
3.40969E+06 3.73870
3.41968E+06 3.73705
3.42967E+06 3.73541
3.43967E+06 3.73378
3.44966E+06 3.73216
3.45965E+06 3.73056
3.46964E+06 3.72896
3.47964E+06 3.72737
3.48963E+06 3.72580
3.49962E+06 3.72423
3.50962E+06 3.72267
3.51961E+06 3.72112
3.52960E+06 3.71958
3.53960E+06 3.71806
3.54959E+06 3.71654
3.55958E+06 3.71503
3.56958E+06 3.71353
3.57957E+06 3.71204
3.58956E+06 3.71055
3.59956E+06 3.70908
3.60955E+06 3.70762
3.61954E+06 3.70617
3.62953E+06 3.70472
3.63953E+06 3.70328
3.64952E+06 3.70186
3.66047E+06 3.70014
3.67143E+06 3.69843
3.68238E+06 3.69673
3.69333E+06 3.69504
3.70428E+06 3.69337
3.71524E+06 3.69171
3.72619E+06 3.69005
3.73714E+06 3.68841
3.74809E+06 3.68678
3.75905E+06 3.68516
3.77000E+06 3.68355
3.78095E+06 3.68195
3.79190E+06 3.68037
3.80286E+06 3.67879
3.81381E+06 3.67722
3.82476E+06 3.67567
3.83571E+06 3.67412
3.84667E+06 3.67258
3.85762E+06 3.67106
3.86857E+06 3.66954
3.87952E+06 3.66804
3.89048E+06 3.66654
3.90143E+06 3.66506
3.91238E+06 3.66358
3.92333E+06 3.66211
3.93429E+06 3.66066
3.94524E+06 3.65921
3.95619E+06 3.65777
3.96714E+06 3.65635
3.97810E+06 3.65493
3.98905E+06 3.65352
4.00000E+06 3.65212
4.01434E+06 3.65414
4.02869E+06 3.65616
4.04303E+06 3.65816
4.05737E+06 3.66016
4.07172E+06 3.66215
4.08606E+06 3.66414
4.10040E+06 3.66612
4.11475E+06 3.66810
4.12909E+06 3.67007
4.14343E+06 3.67203
4.15778E+06 3.67399
4.17212E+06 3.67594
4.18646E+06 3.67789
4.20080E+06 3.67983
4.21515E+06 3.68177
4.22949E+06 3.68369
4.24466E+06 3.68573
4.25982E+06 3.68776
4.27499E+06 3.68978
4.29015E+06 3.69180
4.30532E+06 3.69381
4.32048E+06 3.69582
4.33565E+06 3.69781
4.35082E+06 3.69981
4.36598E+06 3.70180
4.38115E+06 3.70378
4.39631E+06 3.70575
4.41148E+06 3.70773
4.42664E+06 3.70969
4.44181E+06 3.71165
4.45698E+06 3.71360
4.47214E+06 3.71555
4.48818E+06 3.71760
4.50421E+06 3.71964
4.52025E+06 3.72168
4.53628E+06 3.72371
4.55232E+06 3.72574
4.56835E+06 3.72776
4.58439E+06 3.72977
4.60043E+06 3.73178
4.61646E+06 3.73379
4.63250E+06 3.73578
4.64853E+06 3.73778
4.66457E+06 3.73977
4.68060E+06 3.74175
4.69664E+06 3.74373
4.71268E+06 3.74570
4.72871E+06 3.74767
4.74543E+06 3.74971
4.76215E+06 3.75174
4.77887E+06 3.75377
4.79559E+06 3.75579
4.81230E+06 3.75781
4.82902E+06 3.75982
4.84574E+06 3.76184
4.86246E+06 3.76384
4.87965E+06 3.76588
4.89685E+06 3.76792
4.91404E+06 3.76996
4.93123E+06 3.77199
4.94842E+06 3.77402
4.96562E+06 3.77604
4.98281E+06 3.77806
5.00000E+06 3.78008
5.02915E+06 3.78806
5.05830E+06 3.79603
5.08744E+06 3.80397
5.11659E+06 3.81191
5.14574E+06 3.81982
5.17489E+06 3.82772
5.20403E+06 3.83561
5.23318E+06 3.84348
5.26369E+06 3.85159
5.29419E+06 3.85969
5.32470E+06 3.86777
5.35521E+06 3.87583
5.38571E+06 3.88388
5.41622E+06 3.89192
5.44672E+06 3.89994
5.47723E+06 3.90794
5.50916E+06 3.91619
5.54109E+06 3.92441
5.57302E+06 3.93263
5.60495E+06 3.94083
5.63687E+06 3.94901
5.66880E+06 3.95718
5.70073E+06 3.96533
5.73266E+06 3.97348
5.76608E+06 3.98185
5.79950E+06 3.99021
5.83291E+06 3.99856
5.86633E+06 4.00690
5.89975E+06 4.01522
5.93317E+06 4.02353
5.96658E+06 4.03183
6.00000E+06 4.04012
6.02609E+06 4.04638
6.05218E+06 4.05263
6.07828E+06 4.05888
6.10437E+06 4.06513
6.13046E+06 4.07138
6.15655E+06 4.07762
6.18264E+06 4.08387
6.20874E+06 4.09011
6.23483E+06 4.09636
6.26092E+06 4.10260
6.28701E+06 4.10884
6.31310E+06 4.11508
6.33920E+06 4.12132
6.36529E+06 4.12756
6.39138E+06 4.13380
6.41747E+06 4.14004
6.45388E+06 4.14837
6.49029E+06 4.15669
6.52670E+06 4.16501
6.56310E+06 4.17332
6.59951E+06 4.18163
6.63592E+06 4.18994
6.67233E+06 4.19824
6.70874E+06 4.20653
6.74514E+06 4.21483
6.78155E+06 4.22311
6.81796E+06 4.23140
6.85437E+06 4.23968
6.89078E+06 4.24795
6.92718E+06 4.25623
6.96359E+06 4.26449
7.00000E+06 4.27276
7.05287E+06 4.28053
7.10574E+06 4.28831
7.15861E+06 4.29609
7.21148E+06 4.30387
7.26435E+06 4.31166
7.31722E+06 4.31945
7.37009E+06 4.32723
7.42296E+06 4.33503
7.48331E+06 4.34370
7.54790E+06 4.35271
7.61248E+06 4.36173
7.67707E+06 4.37075
7.74166E+06 4.37976
7.80624E+06 4.38877
7.87083E+06 4.39779
7.93541E+06 4.40680
8.00000E+06 4.41580
8.06066E+06 4.41962
8.12132E+06 4.42344
8.18198E+06 4.42726
8.24264E+06 4.43108
8.30330E+06 4.43491
8.36396E+06 4.43873
8.42462E+06 4.44256
8.48528E+06 4.44639
8.54962E+06 4.45023
8.61396E+06 4.45407
8.67830E+06 4.45792
8.74264E+06 4.46177
8.80698E+06 4.46562
8.87132E+06 4.46947
8.93566E+06 4.47333
9.00000E+06 4.47718
9.00512E+06 4.47722
9.01024E+06 4.47725
9.01536E+06 4.47728
9.02048E+06 4.47731
9.02559E+06 4.47735
9.03071E+06 4.47738
9.03583E+06 4.47741
9.04095E+06 4.47744
9.04792E+06 4.47748
9.05488E+06 4.47753
9.06185E+06 4.47757
9.06882E+06 4.47761
9.07579E+06 4.47765
9.08275E+06 4.47769
9.08972E+06 4.47774
9.09669E+06 4.47778
9.10365E+06 4.47782
9.11062E+06 4.47786
9.11759E+06 4.47790
9.12455E+06 4.47795
9.13152E+06 4.47799
9.13849E+06 4.47803
9.14545E+06 4.47807
9.15242E+06 4.47812
9.15939E+06 4.47816
9.16635E+06 4.47820
9.17332E+06 4.47825
9.18029E+06 4.47829
9.18726E+06 4.47833
9.19422E+06 4.47837
9.20119E+06 4.47842
9.20816E+06 4.47846
9.21512E+06 4.47851
9.22209E+06 4.47855
9.22906E+06 4.47859
9.23602E+06 4.47864
9.24299E+06 4.47868
9.24996E+06 4.47872
9.25692E+06 4.47877
9.26389E+06 4.47881
9.27086E+06 4.47886
9.27782E+06 4.47890
9.28479E+06 4.47894
9.29176E+06 4.47899
9.29873E+06 4.47903
9.30569E+06 4.47908
9.31266E+06 4.47912
9.31963E+06 4.47917
9.32659E+06 4.47921
9.33356E+06 4.47926
9.34053E+06 4.47930
9.34749E+06 4.47935
9.35446E+06 4.47939
9.36143E+06 4.47943
9.36839E+06 4.47948
9.37536E+06 4.47952
9.38233E+06 4.47957
9.38929E+06 4.47962
9.39626E+06 4.47966
9.40323E+06 4.47971
9.41020E+06 4.47975
9.41716E+06 4.47980
9.42413E+06 4.47984
9.43110E+06 4.47989
9.43806E+06 4.47994
9.44503E+06 4.47998
9.45200E+06 4.48003
9.45896E+06 4.48007
9.46593E+06 4.48012
9.47290E+06 4.48017
9.47986E+06 4.48021
9.48683E+06 4.48026
9.49236E+06 4.48029
9.49788E+06 4.48033
9.50341E+06 4.48036
9.50893E+06 4.48039
9.51445E+06 4.48043
9.51998E+06 4.48046
9.52550E+06 4.48049
9.53103E+06 4.48053
9.53655E+06 4.48056
9.54208E+06 4.48059
9.54760E+06 4.48063
9.55313E+06 4.48066
9.55865E+06 4.48069
9.56418E+06 4.48073
9.56970E+06 4.48076
9.57523E+06 4.48080
9.58075E+06 4.48083
9.58628E+06 4.48086
9.59180E+06 4.48090
9.59732E+06 4.48093
9.60285E+06 4.48097
9.60837E+06 4.48100
9.61390E+06 4.48104
9.61942E+06 4.48107
9.62495E+06 4.48111
9.63047E+06 4.48114
9.63600E+06 4.48117
9.64152E+06 4.48121
9.64705E+06 4.48124
9.65257E+06 4.48128
9.65810E+06 4.48131
9.66362E+06 4.48135
9.67569E+06 4.48142
9.68777E+06 4.48149
9.69984E+06 4.48156
9.71192E+06 4.48163
9.72399E+06 4.48171
9.73606E+06 4.48178
9.74814E+06 4.48185
9.76021E+06 4.48192
9.77520E+06 4.48201
9.79018E+06 4.48210
9.80517E+06 4.48218
9.82016E+06 4.48227
9.83515E+06 4.48236
9.85013E+06 4.48245
9.86512E+06 4.48254
9.88011E+06 4.48262
9.89509E+06 4.48271
9.91008E+06 4.48280
9.92507E+06 4.48289
9.94005E+06 4.48298
9.95504E+06 4.48307
9.97003E+06 4.48316
9.98501E+06 4.48326
1.00000E+07 4.48335
1.00156E+07 4.48280
1.00313E+07 4.48226
1.00469E+07 4.48172
1.00625E+07 4.48118
1.00781E+07 4.48065
1.00938E+07 4.48011
1.01094E+07 4.47958
1.01250E+07 4.47904
1.01406E+07 4.47851
1.01563E+07 4.47798
1.01719E+07 4.47745
1.01875E+07 4.47692
1.02031E+07 4.47639
1.02188E+07 4.47586
1.02344E+07 4.47534
1.02500E+07 4.47481
1.02656E+07 4.47429
1.02813E+07 4.47376
1.02969E+07 4.47324
1.03125E+07 4.47272
1.03281E+07 4.47220
1.03438E+07 4.47169
1.03594E+07 4.47117
1.03750E+07 4.47065
1.03906E+07 4.47014
1.04063E+07 4.46963
1.04219E+07 4.46911
1.04375E+07 4.46860
1.04531E+07 4.46809
1.04688E+07 4.46758
1.04844E+07 4.46707
1.05000E+07 4.46657
1.05156E+07 4.46606
1.05313E+07 4.46556
1.05469E+07 4.46505
1.05625E+07 4.46455
1.05781E+07 4.46405
1.05938E+07 4.46355
1.06094E+07 4.46305
1.06250E+07 4.46255
1.06406E+07 4.46206
1.06563E+07 4.46156
1.06719E+07 4.46107
1.06875E+07 4.46057
1.07031E+07 4.46008
1.07188E+07 4.45959
1.07344E+07 4.45910
1.07500E+07 4.45861
1.07656E+07 4.45812
1.07813E+07 4.45763
1.07969E+07 4.45715
1.08125E+07 4.45666
1.08281E+07 4.45618
1.08438E+07 4.45570
1.08594E+07 4.45521
1.08750E+07 4.45473
1.08906E+07 4.45425
1.09063E+07 4.45378
1.09219E+07 4.45330
1.09375E+07 4.45282
1.09531E+07 4.45235
1.09688E+07 4.45188
1.09844E+07 4.45140
1.10000E+07 4.45093
1.10098E+07 4.45062
1.10196E+07 4.45032
1.10295E+07 4.45001
1.10393E+07 4.44970
1.10491E+07 4.44940
1.10589E+07 4.44909
1.10687E+07 4.44879
1.10785E+07 4.44848
1.10883E+07 4.44818
1.10982E+07 4.44788
1.11080E+07 4.44757
1.11178E+07 4.44727
1.11276E+07 4.44697
1.11374E+07 4.44667
1.11472E+07 4.44637
1.11570E+07 4.44607
1.11669E+07 4.44577
1.11767E+07 4.44547
1.11865E+07 4.44517
1.11963E+07 4.44487
1.12061E+07 4.44457
1.12159E+07 4.44427
1.12257E+07 4.44398
1.12355E+07 4.44368
1.12454E+07 4.44338
1.12552E+07 4.44309
1.12650E+07 4.44279
1.12748E+07 4.44250
1.12846E+07 4.44220
1.12944E+07 4.44191
1.13042E+07 4.44161
1.13141E+07 4.44132
1.13239E+07 4.44102
1.13337E+07 4.44073
1.13435E+07 4.44044
1.13533E+07 4.44015
1.13631E+07 4.43986
1.13729E+07 4.43957
1.13828E+07 4.43927
1.13926E+07 4.43898
1.14024E+07 4.43870
1.14122E+07 4.43841
1.14220E+07 4.43812
1.14318E+07 4.43783
1.14417E+07 4.43754
1.14515E+07 4.43725
1.14613E+07 4.43697
1.14711E+07 4.43668
1.14809E+07 4.43639
1.14907E+07 4.43611
1.15005E+07 4.43582
1.15103E+07 4.43554
1.15202E+07 4.43525
1.15300E+07 4.43497
1.15398E+07 4.43468
1.15496E+07 4.43440
1.15594E+07 4.43412
1.15692E+07 4.43384
1.15790E+07 4.43355
1.15889E+07 4.43327
1.15987E+07 4.43299
1.16085E+07 4.43271
1.16183E+07 4.43244
1.16281E+07 4.43216
1.16282E+07 4.43215
1.16371E+07 4.43189
1.16460E+07 4.43163
1.16550E+07 4.43137
1.16639E+07 4.43111
1.16729E+07 4.43085
1.16818E+07 4.43059
1.16907E+07 4.43033
1.16997E+07 4.43007
1.17086E+07 4.42981
1.17176E+07 4.42956
1.17265E+07 4.42930
1.17354E+07 4.42904
1.17444E+07 4.42879
1.17533E+07 4.42853
1.17623E+07 4.42828
1.17712E+07 4.42803
1.17855E+07 4.42754
1.17998E+07 4.42707
1.18141E+07 4.42661
1.18284E+07 4.42616
1.18427E+07 4.42571
1.18570E+07 4.42528
1.18713E+07 4.42486
1.18856E+07 4.42445
1.18999E+07 4.42405
1.19142E+07 4.42366
1.19285E+07 4.42329
1.19428E+07 4.42292
1.19571E+07 4.42256
1.19714E+07 4.42221
1.19857E+07 4.42187
1.20000E+07 4.42154
1.20313E+07 4.41934
1.20625E+07 4.41719
1.20938E+07 4.41509
1.21250E+07 4.41304
1.21563E+07 4.41104
1.21875E+07 4.40910
1.22188E+07 4.40720
1.22500E+07 4.40536
1.22813E+07 4.40357
1.23125E+07 4.40183
1.23438E+07 4.40014
1.23750E+07 4.39850
1.24063E+07 4.39691
1.24375E+07 4.39537
1.24688E+07 4.39388
1.25000E+07 4.39244
1.25313E+07 4.39105
1.25625E+07 4.38971
1.25938E+07 4.38842
1.26250E+07 4.38717
1.26563E+07 4.38598
1.26875E+07 4.38483
1.27188E+07 4.38374
1.27500E+07 4.38269
1.27813E+07 4.38169
1.28125E+07 4.38074
1.28438E+07 4.37983
1.28750E+07 4.37898
1.29063E+07 4.37817
1.29375E+07 4.37741
1.29688E+07 4.37669
1.30000E+07 4.37603
1.30078E+07 4.37557
1.30156E+07 4.37511
1.30234E+07 4.37465
1.30313E+07 4.37419
1.30391E+07 4.37374
1.30469E+07 4.37329
1.30547E+07 4.37284
1.30625E+07 4.37239
1.30703E+07 4.37194
1.30781E+07 4.37150
1.30859E+07 4.37106
1.30938E+07 4.37062
1.31016E+07 4.37018
1.31094E+07 4.36975
1.31172E+07 4.36931
1.31250E+07 4.36888
1.31328E+07 4.36845
1.31406E+07 4.36803
1.31484E+07 4.36760
1.31563E+07 4.36718
1.31641E+07 4.36676
1.31719E+07 4.36634
1.31797E+07 4.36593
1.31875E+07 4.36551
1.31953E+07 4.36510
1.32031E+07 4.36469
1.32109E+07 4.36428
1.32188E+07 4.36388
1.32266E+07 4.36348
1.32344E+07 4.36307
1.32422E+07 4.36267
1.32500E+07 4.36228
1.32578E+07 4.36188
1.32656E+07 4.36149
1.32734E+07 4.36110
1.32813E+07 4.36071
1.32891E+07 4.36032
1.32969E+07 4.35994
1.33047E+07 4.35956
1.33125E+07 4.35918
1.33203E+07 4.35880
1.33281E+07 4.35842
1.33359E+07 4.35805
1.33438E+07 4.35768
1.33516E+07 4.35731
1.33594E+07 4.35694
1.33672E+07 4.35658
1.33750E+07 4.35621
1.33828E+07 4.35585
1.33906E+07 4.35549
1.33984E+07 4.35514
1.34063E+07 4.35478
1.34141E+07 4.35443
1.34219E+07 4.35408
1.34297E+07 4.35373
1.34375E+07 4.35338
1.34453E+07 4.35304
1.34531E+07 4.35270
1.34609E+07 4.35236
1.34688E+07 4.35202
1.34766E+07 4.35169
1.34844E+07 4.35135
1.34922E+07 4.35102
1.35000E+07 4.35069
1.35078E+07 4.35037
1.35156E+07 4.35004
1.35234E+07 4.34972
1.35313E+07 4.34940
1.35391E+07 4.34908
1.35469E+07 4.34877
1.35547E+07 4.34845
1.35625E+07 4.34814
1.35703E+07 4.34783
1.35781E+07 4.34753
1.35859E+07 4.34722
1.35938E+07 4.34692
1.36016E+07 4.34662
1.36094E+07 4.34632
1.36172E+07 4.34602
1.36250E+07 4.34573
1.36328E+07 4.34544
1.36406E+07 4.34515
1.36484E+07 4.34486
1.36563E+07 4.34458
1.36641E+07 4.34429
1.36719E+07 4.34401
1.36797E+07 4.34373
1.36875E+07 4.34346
1.36953E+07 4.34319
1.37031E+07 4.34291
1.37109E+07 4.34264
1.37188E+07 4.34238
1.37266E+07 4.34211
1.37344E+07 4.34185
1.37422E+07 4.34159
1.37500E+07 4.34133
1.37578E+07 4.34108
1.37656E+07 4.34082
1.37734E+07 4.34057
1.37813E+07 4.34032
1.37891E+07 4.34008
1.37969E+07 4.33983
1.38047E+07 4.33959
1.38125E+07 4.33935
1.38203E+07 4.33911
1.38281E+07 4.33888
1.38359E+07 4.33865
1.38438E+07 4.33842
1.38516E+07 4.33819
1.38594E+07 4.33796
1.38672E+07 4.33774
1.38750E+07 4.33752
1.38828E+07 4.33730
1.38906E+07 4.33709
1.38984E+07 4.33687
1.39063E+07 4.33666
1.39141E+07 4.33645
1.39219E+07 4.33625
1.39297E+07 4.33604
1.39375E+07 4.33584
1.39453E+07 4.33564
1.39531E+07 4.33544
1.39609E+07 4.33525
1.39688E+07 4.33506
1.39766E+07 4.33487
1.39844E+07 4.33468
1.39922E+07 4.33450
1.40000E+07 4.33432
1.40078E+07 4.33361
1.40156E+07 4.33291
1.40234E+07 4.33221
1.40313E+07 4.33151
1.40391E+07 4.33082
1.40469E+07 4.33012
1.40547E+07 4.32943
1.40625E+07 4.32875
1.40703E+07 4.32806
1.40781E+07 4.32737
1.40859E+07 4.32669
1.40938E+07 4.32601
1.41016E+07 4.32534
1.41094E+07 4.32466
1.41172E+07 4.32399
1.41250E+07 4.32332
1.41328E+07 4.32265
1.41406E+07 4.32198
1.41484E+07 4.32132
1.41563E+07 4.32066
1.41641E+07 4.32000
1.41719E+07 4.31934
1.41797E+07 4.31869
1.41875E+07 4.31803
1.41953E+07 4.31738
1.42031E+07 4.31673
1.42109E+07 4.31609
1.42188E+07 4.31545
1.42266E+07 4.31480
1.42344E+07 4.31417
1.42422E+07 4.31353
1.42500E+07 4.31290
1.42578E+07 4.31226
1.42656E+07 4.31163
1.42734E+07 4.31101
1.42813E+07 4.31038
1.42891E+07 4.30976
1.42969E+07 4.30914
1.43047E+07 4.30852
1.43125E+07 4.30791
1.43203E+07 4.30729
1.43281E+07 4.30668
1.43359E+07 4.30607
1.43438E+07 4.30547
1.43516E+07 4.30486
1.43594E+07 4.30426
1.43672E+07 4.30366
1.43750E+07 4.30306
1.43828E+07 4.30247
1.43906E+07 4.30188
1.43984E+07 4.30129
1.44063E+07 4.30070
1.44141E+07 4.30011
1.44219E+07 4.29953
1.44297E+07 4.29895
1.44375E+07 4.29837
1.44453E+07 4.29780
1.44531E+07 4.29722
1.44609E+07 4.29665
1.44688E+07 4.29609
1.44766E+07 4.29552
1.44844E+07 4.29496
1.44922E+07 4.29439
1.45000E+07 4.29384
1.45156E+07 4.29252
1.45313E+07 4.29121
1.45469E+07 4.28990
1.45625E+07 4.28861
1.45781E+07 4.28732
1.45938E+07 4.28603
1.46094E+07 4.28476
1.46250E+07 4.28349
1.46406E+07 4.28222
1.46563E+07 4.28097
1.46719E+07 4.27972
1.46875E+07 4.27847
1.47031E+07 4.27724
1.47188E+07 4.27601
1.47344E+07 4.27478
1.47500E+07 4.27357
1.47656E+07 4.27236
1.47813E+07 4.27116
1.47969E+07 4.26996
1.48125E+07 4.26878
1.48281E+07 4.26759
1.48438E+07 4.26642
1.48594E+07 4.26525
1.48750E+07 4.26410
1.48906E+07 4.26294
1.49063E+07 4.26180
1.49219E+07 4.26066
1.49375E+07 4.25953
1.49531E+07 4.25841
1.49688E+07 4.25730
1.49844E+07 4.25619
1.50000E+07 4.25509
1.50156E+07 4.25286
1.50313E+07 4.25064
1.50469E+07 4.24843
1.50625E+07 4.24623
1.50781E+07 4.24403
1.50938E+07 4.24184
1.51094E+07 4.23966
1.51250E+07 4.23748
1.51406E+07 4.23531
1.51563E+07 4.23315
1.51719E+07 4.23099
1.51875E+07 4.22884
1.52031E+07 4.22670
1.52188E+07 4.22457
1.52344E+07 4.22244
1.52500E+07 4.22032
1.52656E+07 4.21820
1.52813E+07 4.21610
1.52969E+07 4.21400
1.53125E+07 4.21191
1.53281E+07 4.20982
1.53438E+07 4.20774
1.53594E+07 4.20567
1.53750E+07 4.20361
1.53906E+07 4.20155
1.54063E+07 4.19950
1.54219E+07 4.19746
1.54375E+07 4.19542
1.54531E+07 4.19340
1.54688E+07 4.19138
1.54844E+07 4.18936
1.55000E+07 4.18735
1.55156E+07 4.18536
1.55313E+07 4.18336
1.55469E+07 4.18138
1.55625E+07 4.17940
1.55781E+07 4.17743
1.55938E+07 4.17547
1.56094E+07 4.17352
1.56250E+07 4.17157
1.56406E+07 4.16963
1.56563E+07 4.16770
1.56719E+07 4.16577
1.56875E+07 4.16385
1.57031E+07 4.16194
1.57188E+07 4.16004
1.57344E+07 4.15815
1.57500E+07 4.15626
1.57656E+07 4.15438
1.57813E+07 4.15251
1.57969E+07 4.15064
1.58125E+07 4.14879
1.58281E+07 4.14694
1.58438E+07 4.14510
1.58594E+07 4.14326
1.58750E+07 4.14144
1.58906E+07 4.13962
1.59063E+07 4.13781
1.59219E+07 4.13600
1.59375E+07 4.13421
1.59531E+07 4.13242
1.59688E+07 4.13064
1.59844E+07 4.12887
1.60000E+07 4.12711
1.60313E+07 4.12086
1.60625E+07 4.11464
1.60938E+07 4.10845
1.61250E+07 4.10228
1.61563E+07 4.09614
1.61875E+07 4.09004
1.62188E+07 4.08396
1.62500E+07 4.07791
1.62813E+07 4.07189
1.63125E+07 4.06589
1.63438E+07 4.05993
1.63750E+07 4.05399
1.64063E+07 4.04809
1.64375E+07 4.04221
1.64688E+07 4.03636
1.65000E+07 4.03054
1.65313E+07 4.02474
1.65625E+07 4.01898
1.65938E+07 4.01324
1.66250E+07 4.00753
1.66563E+07 4.00185
1.66875E+07 3.99620
1.67188E+07 3.99058
1.67500E+07 3.98498
1.67813E+07 3.97942
1.68125E+07 3.97388
1.68438E+07 3.96837
1.68750E+07 3.96289
1.69063E+07 3.95744
1.69375E+07 3.95201
1.69688E+07 3.94662
1.70000E+07 3.94125
1.70313E+07 3.93572
1.70625E+07 3.93021
1.70938E+07 3.92472
1.71250E+07 3.91924
1.71563E+07 3.91379
1.71875E+07 3.90836
1.72188E+07 3.90294
1.72500E+07 3.89754
1.72813E+07 3.89217
1.73125E+07 3.88681
1.73438E+07 3.88147
1.73750E+07 3.87615
1.74063E+07 3.87085
1.74375E+07 3.86556
1.74688E+07 3.86030
1.75000E+07 3.85505
1.75313E+07 3.84983
1.75625E+07 3.84462
1.75938E+07 3.83943
1.76250E+07 3.83426
1.76563E+07 3.82911
1.76875E+07 3.82397
1.77188E+07 3.81886
1.77500E+07 3.81376
1.77813E+07 3.80869
1.78125E+07 3.80363
1.78438E+07 3.79859
1.78750E+07 3.79357
1.79063E+07 3.78857
1.79375E+07 3.78359
1.79688E+07 3.77863
1.80000E+07 3.77368
1.80289E+07 3.76828
1.80896E+07 3.75689
1.81503E+07 3.74558
1.82110E+07 3.73436
1.82717E+07 3.72322
1.83324E+07 3.71216
1.83931E+07 3.70119
1.84538E+07 3.69030
1.85145E+07 3.67949
1.85752E+07 3.66876
1.86358E+07 3.65811
1.86965E+07 3.64755
1.87572E+07 3.63706
1.88179E+07 3.62666
1.88786E+07 3.61633
1.89393E+07 3.60609
1.90000E+07 3.59592
1.90625E+07 3.58533
1.91250E+07 3.57481
1.91875E+07 3.56436
1.92500E+07 3.55398
1.93125E+07 3.54368
1.93750E+07 3.53345
1.94375E+07 3.52329
1.95000E+07 3.51320
1.95625E+07 3.50319
1.96250E+07 3.49324
1.96875E+07 3.48336
1.97500E+07 3.47356
1.98125E+07 3.46382
1.98750E+07 3.45415
1.99375E+07 3.44455
2.00000E+07 3.43502
