Y-89(n,tot) ENDFB-8.0
Energy(eV) XS(b)
1.00000E-05 111.838
1.03125E-05 110.146
1.06250E-05 108.531
1.09375E-05 106.985
1.12500E-05 105.504
1.15625E-05 104.084
1.18750E-05 102.720
1.21875E-05 101.410
1.25000E-05 100.149
1.28125E-05 98.9348
1.31250E-05 97.7644
1.34375E-05 96.6351
1.37500E-05 95.5448
1.43750E-05 93.4722
1.50000E-05 91.5311
1.56250E-05 89.7082
1.62500E-05 87.9920
1.68750E-05 86.3726
1.75000E-05 84.8411
1.81250E-05 83.3900
1.87500E-05 82.0124
1.93750E-05 80.7024
2.00000E-05 79.4547
2.09375E-05 77.6896
2.18750E-05 76.0400
2.28125E-05 74.4937
2.37500E-05 73.0406
2.46875E-05 71.6717
2.56250E-05 70.3791
2.65625E-05 69.1561
2.75000E-05 67.9967
2.84375E-05 66.8956
2.93750E-05 65.8481
3.03125E-05 64.8500
3.12500E-05 63.8976
3.21875E-05 62.9875
3.31250E-05 62.1166
3.40625E-05 61.2824
3.50000E-05 60.4822
3.59375E-05 59.7138
3.68750E-05 58.9753
3.78125E-05 58.2647
3.87500E-05 57.5803
3.96875E-05 56.9207
4.06250E-05 56.2842
4.25000E-05 55.0758
4.43750E-05 53.9459
4.62500E-05 52.8862
4.81250E-05 51.8899
5.00000E-05 50.9510
5.15625E-05 50.2085
5.31250E-05 49.4996
5.46875E-05 48.8217
5.62500E-05 48.1728
5.78125E-05 47.5507
5.93750E-05 46.9538
6.09375E-05 46.3804
6.25000E-05 45.8290
6.40625E-05 45.2982
6.56250E-05 44.7869
6.71875E-05 44.2938
6.87500E-05 43.8180
7.18750E-05 42.9142
7.50000E-05 42.0687
7.81250E-05 41.2754
8.12500E-05 40.5294
8.43750E-05 39.8261
8.75000E-05 39.1618
9.06250E-05 38.5329
9.37500E-05 37.9365
9.68750E-05 37.3699
0.000100000 36.8308
0.000103125 36.3171
0.000106250 35.8268
0.000109375 35.3583
0.000112500 34.9100
0.000115625 34.4805
0.000118750 34.0687
0.000121875 33.6732
0.000125000 33.2932
0.000128125 32.9276
0.000131250 32.5756
0.000134375 32.2363
0.000137500 31.9091
0.000143750 31.2880
0.000150000 30.7076
0.000156250 30.1637
0.000162500 29.6526
0.000168750 29.1714
0.000175000 28.7172
0.000181250 28.2877
0.000187500 27.8807
0.000193750 27.4945
0.000200000 27.1274
0.000209375 26.6092
0.000218750 26.1263
0.000228125 25.6749
0.000237500 25.2519
0.000246875 24.8544
0.000256250 24.4801
0.000265625 24.1269
0.000275000 23.7928
0.000284375 23.4764
0.000293750 23.1761
0.000303125 22.8907
0.000312500 22.6190
0.000321875 22.3600
0.000331250 22.1127
0.000340625 21.8763
0.000350000 21.6501
0.000359375 21.4334
0.000368750 21.2256
0.000378125 21.0260
0.000387500 20.8342
0.000396875 20.6497
0.000406250 20.4721
0.000425000 20.1358
0.000443750 19.8226
0.000462500 19.5300
0.000481250 19.2558
0.000500000 18.9984
0.000515625 18.7955
0.000531250 18.6022
0.000546875 18.4180
0.000562500 18.2420
0.000578125 18.0738
0.000593750 17.9128
0.000609375 17.7585
0.000625000 17.6104
0.000640625 17.4683
0.000656250 17.3316
0.000671875 17.2001
0.000687500 17.0735
0.000718750 16.8337
0.000750000 16.6103
0.000781250 16.4014
0.000812500 16.2057
0.000843750 16.0218
0.000875000 15.8487
0.000906250 15.6853
0.000937500 15.5307
0.000968750 15.3844
0.00100000 15.2454
0.00103125 15.1133
0.00106250 14.9876
0.00109375 14.8677
0.00112500 14.7532
0.00115625 14.6438
0.00118750 14.5390
0.00121875 14.4386
0.00125000 14.3423
0.00128125 14.2498
0.00131250 14.1608
0.00134375 14.0752
0.00137500 13.9928
0.00143750 13.8367
0.00150000 13.6911
0.00156250 13.5550
0.00162500 13.4273
0.00168750 13.3073
0.00175000 13.1943
0.00181250 13.0875
0.00187500 12.9865
0.00193750 12.8907
0.00200000 12.7998
0.00209375 12.6716
0.00218750 12.5522
0.00228125 12.4407
0.00237500 12.3363
0.00246875 12.2383
0.00256250 12.1460
0.00265625 12.0589
0.00275000 11.9766
0.00284375 11.8986
0.00293750 11.8246
0.00303125 11.7543
0.00312500 11.6873
0.00321875 11.6234
0.00331250 11.5624
0.00340625 11.5040
0.00350000 11.4482
0.00359375 11.3946
0.00368750 11.3433
0.00378125 11.2939
0.00387500 11.2464
0.00396875 11.2007
0.00406250 11.1567
0.00425000 11.0733
0.00443750 10.9954
0.00462500 10.9226
0.00481250 10.8543
0.00500000 10.7900
0.00515625 10.7392
0.00531250 10.6908
0.00546875 10.6446
0.00562500 10.6004
0.00578125 10.5581
0.00593750 10.5176
0.00609375 10.4786
0.00625000 10.4412
0.00640625 10.4053
0.00656250 10.3706
0.00671875 10.3373
0.00687500 10.3051
0.00718750 10.2440
0.00750000 10.1870
0.00781250 10.1335
0.00812500 10.0833
0.00843750 10.0360
0.00875000 9.99128
0.00906250 9.94902
0.00937500 9.90895
0.00968750 9.87091
0.0100000 9.83473
0.0103125 9.80025
0.0106250 9.76736
0.0109375 9.73593
0.0112500 9.70586
0.0115625 9.67706
0.0118750 9.64944
0.0121875 9.62292
0.0125000 9.59743
0.0128125 9.57290
0.0131250 9.54928
0.0134375 9.52652
0.0137500 9.50456
0.0143750 9.46286
0.0150000 9.42387
0.0156250 9.38730
0.0162500 9.35292
0.0168750 9.32051
0.0175000 9.28990
0.0181250 9.26093
0.0187500 9.23345
0.0193750 9.20735
0.0200000 9.18250
0.0206625 9.15744
0.0213250 9.13358
0.0219875 9.11083
0.0226500 9.08911
0.0233125 9.06834
0.0239750 9.04846
0.0246375 9.02940
0.0253000 9.01112
0.0264578 8.98086
0.0276156 8.95257
0.0287734 8.92603
0.0299313 8.90109
0.0310891 8.87757
0.0322469 8.85536
0.0334047 8.83434
0.0345625 8.81440
0.0355274 8.79854
0.0364922 8.78333
0.0374570 8.76872
0.0384219 8.75467
0.0393867 8.74115
0.0403516 8.72812
0.0413164 8.71556
0.0422813 8.70344
0.0442109 8.68041
0.0461406 8.65887
0.0480703 8.63865
0.0500000 8.61964
0.0515625 8.60504
0.0531250 8.59111
0.0546875 8.57778
0.0562500 8.56502
0.0578125 8.55278
0.0593750 8.54104
0.0609375 8.52976
0.0625000 8.51892
0.0640625 8.50848
0.0656250 8.49841
0.0671875 8.48871
0.0687500 8.47934
0.0718750 8.46154
0.0750000 8.44488
0.0781250 8.42923
0.0812500 8.41449
0.0843750 8.40059
0.0875000 8.38745
0.0906250 8.37500
0.0937500 8.36318
0.0968750 8.35195
0.100000 8.34125
0.103125 8.33104
0.106250 8.32129
0.109375 8.31196
0.112500 8.30303
0.115625 8.29446
0.118750 8.28624
0.121875 8.27834
0.125000 8.27074
0.128125 8.26342
0.131250 8.25636
0.134375 8.24956
0.137500 8.24299
0.143750 8.23050
0.150000 8.21880
0.156250 8.20780
0.162500 8.19744
0.168750 8.18767
0.175000 8.17842
0.181250 8.16965
0.187500 8.16133
0.193750 8.15342
0.200000 8.14588
0.209375 8.13521
0.218750 8.12523
0.228125 8.11586
0.237500 8.10705
0.246875 8.09874
0.256250 8.09089
0.265625 8.08345
0.275000 8.07640
0.284375 8.06969
0.293750 8.06331
0.303125 8.05722
0.312500 8.05140
0.321875 8.04583
0.331250 8.04050
0.340625 8.03539
0.350000 8.03048
0.359375 8.02576
0.368750 8.02122
0.378125 8.01684
0.387500 8.01262
0.396875 8.00856
0.406250 8.00463
0.425000 7.99716
0.443750 7.99014
0.462500 7.98355
0.500000 7.97147
0.531250 7.96236
0.562500 7.95398
0.593750 7.94624
0.625000 7.93906
0.687500 7.92613
0.750000 7.91476
0.812500 7.90465
0.875000 7.89559
0.937500 7.88737
1.00000 7.87984
1.06250 7.87293
1.12500 7.86654
1.18750 7.86060
1.25000 7.85505
1.37500 7.84497
1.50000 7.83600
1.62500 7.82790
1.75000 7.82055
1.87500 7.81380
2.00000 7.80753
2.18750 7.79892
2.37500 7.79110
2.56250 7.78391
2.75000 7.77725
2.93750 7.77103
3.12500 7.76518
3.31250 7.75965
3.50000 7.75439
3.68750 7.74938
3.87500 7.74458
4.25000 7.73553
4.62500 7.72708
5.00000 7.71912
5.31250 7.71281
5.62500 7.70674
5.93750 7.70088
6.25000 7.69520
6.87500 7.68434
7.50000 7.67400
8.12500 7.66411
8.75000 7.65458
9.37500 7.64535
10.0000 7.63639
10.6250 7.62766
11.2500 7.61914
11.8750 7.61079
12.5000 7.60261
13.7500 7.58667
15.0000 7.57123
16.2500 7.55621
17.5000 7.54155
18.7500 7.52723
20.0000 7.51319
21.8750 7.49264
23.7500 7.47262
25.6250 7.45307
27.5000 7.43398
29.3750 7.41528
31.2500 7.39696
33.1250 7.37900
35.0000 7.36137
36.8750 7.34406
38.7500 7.32706
40.6250 7.31034
42.5000 7.29390
44.3750 7.27774
46.2500 7.26183
50.0000 7.23076
53.1250 7.20559
56.2500 7.18103
59.3750 7.15707
62.5000 7.13367
65.6250 7.11082
68.7500 7.08849
71.8750 7.06666
75.0000 7.04531
78.1250 7.02442
81.2500 7.00399
84.3750 6.98398
87.5000 6.96440
90.6250 6.94521
93.7500 6.92643
100.000 6.88997
106.250 6.85493
112.500 6.82122
118.750 6.78876
125.000 6.75750
131.250 6.72735
137.500 6.69826
143.750 6.67018
150.000 6.64305
156.250 6.61681
162.500 6.59144
168.750 6.56688
175.000 6.54309
181.250 6.52005
187.500 6.49771
193.750 6.47604
200.000 6.45502
209.375 6.42462
218.750 6.39551
228.125 6.36761
237.500 6.34085
246.875 6.31515
256.250 6.29045
265.625 6.26670
275.000 6.24383
284.375 6.22180
293.750 6.20057
303.125 6.18009
312.500 6.16032
321.875 6.14122
331.250 6.12277
340.625 6.10491
350.000 6.08764
359.375 6.07091
368.750 6.05471
378.125 6.03900
387.500 6.02377
406.250 5.99464
425.000 5.96717
443.750 5.94121
462.500 5.91663
481.250 5.89333
500.000 5.87119
515.625 5.85358
531.250 5.83668
562.500 5.80481
593.750 5.77528
625.000 5.74784
656.250 5.72224
687.500 5.69831
718.750 5.67586
750.000 5.65476
781.250 5.63488
812.500 5.61609
843.750 5.59831
875.000 5.58144
937.500 5.55013
1000.00 5.52162
1062.50 5.49549
1125.00 5.47136
1187.50 5.44895
1250.00 5.42799
1343.75 5.39883
1437.50 5.37184
1500.00 5.35478
1562.50 5.33831
1625.00 5.32227
1687.50 5.30653
1750.00 5.29092
1796.88 5.27920
1843.75 5.26739
1882.81 5.25740
1921.88 5.24720
1960.94 5.23671
2000.00 5.22586
2056.02 5.20939
2084.03 5.20061
2112.03 5.19142
2137.71 5.18251
2163.38 5.17305
2189.06 5.16294
2214.73 5.15204
2242.74 5.13903
2270.75 5.12457
2291.75 5.11252
2312.76 5.09920
2333.77 5.08434
2354.77 5.06753
2368.78 5.05498
2382.78 5.04111
2395.62 5.02704
2408.45 5.01139
2421.29 4.99387
2434.13 4.97406
2440.25 4.96363
2446.38 4.95249
2452.51 4.94057
2458.64 4.92774
2464.76 4.91389
2470.89 4.89893
2477.02 4.88265
2483.14 4.86495
2489.56 4.84451
2495.98 4.82189
2502.40 4.79668
2505.61 4.78296
2508.82 4.76840
2512.03 4.75292
2515.24 4.73643
2518.44 4.71881
2521.65 4.69996
2524.86 4.67971
2528.07 4.65793
2531.28 4.63440
2534.49 4.60893
2536.53 4.59157
2538.58 4.57324
2540.62 4.55387
2542.66 4.53339
2544.70 4.51158
2546.74 4.48838
2548.79 4.46365
2550.83 4.43722
2552.43 4.41514
2554.04 4.39179
2555.64 4.36707
2557.25 4.34087
2558.85 4.31300
2560.46 4.28334
2562.06 4.25167
2563.67 4.21782
2565.05 4.18661
2566.44 4.15340
2567.82 4.11800
2569.21 4.08017
2570.60 4.03968
2571.98 3.99625
2572.67 3.97334
2573.37 3.94958
2574.06 3.92491
2574.75 3.89931
2575.56 3.86833
2576.36 3.83595
2577.16 3.80206
2577.96 3.76657
2578.76 3.72936
2579.57 3.69045
2580.37 3.64973
2581.17 3.60717
2581.90 3.56685
2582.63 3.52512
2583.36 3.48202
2583.72 3.46005
2584.09 3.43791
2584.45 3.41555
2584.82 3.39309
2585.18 3.37064
2585.55 3.34838
2585.91 3.32634
2586.28 3.30485
2586.64 3.28403
2587.01 3.26432
2587.41 3.24426
2587.81 3.22674
2588.21 3.21264
2588.61 3.20319
2589.01 3.20006
2589.41 3.20553
2589.61 3.21243
2589.81 3.22268
2590.02 3.23697
2590.22 3.25585
2590.51 3.29353
2590.80 3.34620
2591.09 3.41828
2591.24 3.46339
2591.38 3.51539
2591.62 3.61881
2591.74 3.68099
2591.86 3.75066
2591.98 3.83015
2592.09 3.91947
2592.21 4.02174
2592.33 4.13714
2592.45 4.26993
2592.57 4.42062
2592.69 4.59508
2592.80 4.79434
2592.86 4.90719
2592.92 5.02663
2592.98 5.15523
2593.04 5.29382
2593.10 5.44592
2593.16 5.60747
2593.22 5.78199
2593.28 5.97069
2593.34 6.19290
2593.41 6.43513
2593.47 6.69938
2593.53 6.98785
2593.60 7.30295
2593.66 7.64730
2593.73 8.02378
2593.79 8.42880
2593.85 8.87857
2593.92 9.37063
2593.98 9.90897
2594.04 10.4883
2594.11 11.1315
2594.17 11.8347
2594.24 12.6033
2594.30 13.4292
2594.35 14.1521
2594.40 14.9112
2594.45 15.7234
2594.50 16.5918
2594.55 17.5392
2594.60 18.5317
2594.65 19.5910
2594.70 20.7208
2594.75 21.9496
2594.80 23.2331
2594.85 24.5986
2594.90 26.0500
2594.95 27.5912
2595.00 29.2262
2595.05 30.9589
2595.10 32.7932
2595.14 34.3760
2595.18 36.0317
2595.23 37.7624
2595.27 39.5701
2595.31 41.4567
2595.35 43.4240
2595.43 47.6072
2595.51 52.1322
2595.59 57.0089
2595.68 62.2448
2595.76 67.8442
2595.81 71.5108
2595.86 75.2419
2595.96 83.1046
2596.06 91.5730
2596.16 100.453
2596.26 109.787
2596.36 119.526
2596.46 129.608
2596.56 139.960
2596.76 161.231
2596.96 182.433
2597.15 200.898
2597.24 209.545
2597.33 217.716
2597.41 224.759
2597.50 231.255
2597.58 237.143
2597.66 242.309
2597.75 246.878
2597.83 250.632
2597.92 253.626
2598.00 255.763
2598.03 256.342
2598.13 257.431
2598.23 257.330
2598.33 256.054
2598.43 253.634
2598.53 250.122
2598.63 245.634
2598.73 240.158
2598.83 233.894
2598.93 226.594
2599.03 218.691
2599.14 210.240
2599.24 201.360
2599.44 182.702
2599.65 163.719
2599.75 154.768
2599.84 146.002
2599.94 137.485
2600.04 129.354
2600.14 121.486
2600.24 114.002
2600.33 106.928
2600.43 100.346
2600.50 96.1129
2600.56 92.1384
2600.63 88.3570
2600.69 84.7672
2600.76 81.3159
2600.82 78.1043
2600.89 75.0745
2600.95 72.2217
2601.02 69.5007
2601.08 66.9882
2601.15 64.6354
2601.21 62.4359
2601.28 60.3832
2601.34 58.4707
2601.41 56.6916
2601.47 55.0393
2601.55 53.2818
2601.62 51.6950
2601.70 50.2266
2601.77 48.9067
2601.86 47.5532
2601.94 46.3423
2602.02 45.2634
2602.11 44.3064
2602.19 43.4621
2602.28 42.7223
2602.36 42.0794
2602.44 41.5327
2602.53 41.0631
2602.61 40.6724
2602.69 40.3561
2602.78 40.1127
2602.86 39.9332
2602.95 39.8181
2603.11 39.7725
2603.22 39.8623
2603.32 40.0382
2603.42 40.3039
2603.52 40.6549
2603.63 41.1002
2603.73 41.6340
2603.83 42.2709
2603.93 43.0033
2604.04 43.8516
2604.14 44.8065
2604.24 45.8951
2604.34 47.1055
2604.45 48.4723
2604.55 49.9807
2604.65 51.6739
2604.75 53.5335
2604.82 54.8412
2604.88 56.2144
2604.95 57.6769
2605.01 59.2335
2605.08 60.9155
2605.14 62.6773
2605.21 64.5487
2605.27 66.5354
2605.34 68.6764
2605.41 70.9127
2605.47 73.2815
2605.54 75.7887
2605.60 78.4401
2605.67 81.2416
2605.73 84.1989
2605.80 87.3174
2605.90 92.6024
2606.00 98.2675
2606.10 104.441
2606.21 111.016
2606.31 118.132
2606.41 125.655
2606.51 133.731
2606.62 142.197
2606.72 151.202
2606.82 160.550
2606.92 170.392
2607.03 180.495
2607.23 201.664
2607.43 223.431
2607.63 244.291
2607.82 264.523
2608.02 283.393
2608.12 292.039
2608.21 300.069
2608.31 307.541
2608.41 314.129
2608.51 319.892
2608.61 324.641
2608.71 328.416
2608.80 331.092
2608.90 332.679
2609.00 333.156
2609.10 332.505
2609.20 330.722
2609.30 327.829
2609.40 323.906
2609.49 318.923
2609.59 313.040
2609.69 306.205
2609.79 298.638
2609.93 286.611
2610.07 273.494
2610.21 259.372
2610.35 244.723
2610.87 188.883
2610.98 177.284
2611.09 166.052
2611.20 155.253
2611.31 145.027
2611.42 135.227
2611.54 125.974
2611.65 117.282
2611.76 109.227
2611.89 100.495
2611.95 96.4075
2612.02 92.5607
2612.08 88.8302
2612.15 85.3267
2612.21 81.9358
2612.28 78.7569
2612.34 75.6853
2612.41 72.7662
2612.47 69.9939
2612.54 67.4019
2612.60 64.9033
2612.66 62.5693
2612.73 60.3210
2612.79 58.2220
2612.86 56.2011
2612.92 54.2862
2612.99 52.4719
2613.05 50.7786
2613.12 49.1483
2613.18 47.6032
2613.31 44.7708
2613.44 42.2019
2613.57 39.9044
2613.70 37.8136
2613.83 35.9362
2613.95 34.2957
2614.08 32.8097
2614.20 31.4384
2614.32 30.1903
2614.45 29.0330
2614.57 27.9746
2614.69 26.9885
2614.82 26.0825
2614.94 25.2346
2615.06 24.4521
2615.19 23.7166
2615.31 23.0352
2615.44 22.3922
2615.56 21.7943
2615.68 21.2327
2615.80 20.7042
2615.93 20.1787
2616.06 19.6881
2616.19 19.2222
2616.32 18.7859
2616.45 18.3705
2616.58 17.9803
2616.84 17.2573
2617.10 16.6053
2617.36 16.0147
2617.62 15.4778
2617.88 14.9897
2618.06 14.6585
2618.25 14.3489
2618.44 14.0576
2618.63 13.7830
2618.82 13.5225
2619.01 13.2775
2619.19 13.0457
2619.38 12.8261
2619.57 12.6165
2619.76 12.4186
2620.13 12.0510
2620.51 11.7173
2620.89 11.4129
2621.15 11.2185
2621.40 11.0354
2621.66 10.8626
2621.92 10.7000
2622.18 10.5454
2622.44 10.3990
2622.70 10.2602
2622.96 10.1288
2623.22 10.0034
2623.47 9.88398
2623.99 9.66210
2624.51 9.45980
2625.03 9.27466
2625.54 9.10432
2626.06 8.94742
2626.58 8.80246
2627.10 8.66841
2627.61 8.54365
2628.13 8.42772
2628.65 8.31932
2629.17 8.21815
2629.66 8.12741
2630.15 8.04195
2630.65 7.96131
2631.14 7.88509
2631.64 7.81294
2632.13 7.74455
2632.62 7.67964
2633.12 7.61797
2633.61 7.55930
2634.11 7.50342
2635.09 7.39928
2636.08 7.30421
2637.07 7.21715
2638.11 7.13326
2639.14 7.05619
2640.18 6.98509
2641.21 6.91929
2642.25 6.85821
2643.28 6.80138
2644.32 6.74835
2645.35 6.69876
2646.95 6.62813
2648.55 6.56404
2650.15 6.50555
2651.75 6.45188
2653.35 6.40242
2654.95 6.35679
2656.55 6.31454
2658.15 6.27529
2660.22 6.22844
2662.29 6.18556
2664.36 6.14615
2666.43 6.10979
2668.50 6.07615
2670.57 6.04493
2672.64 6.01587
2674.71 5.98876
2676.78 5.96339
2678.85 5.93962
2680.92 5.91729
2682.99 5.89627
2687.13 5.85772
2691.27 5.82326
2695.41 5.79223
2699.55 5.76407
2703.69 5.73844
2707.83 5.71502
2711.97 5.69351
2716.11 5.67370
2720.25 5.65538
2724.39 5.63839
2728.53 5.62259
2732.67 5.60784
2740.95 5.58112
2749.23 5.55754
2757.51 5.53655
2763.91 5.52184
2770.30 5.50827
2776.70 5.49576
2783.10 5.48407
2795.90 5.46300
2808.69 5.44451
2820.74 5.42903
2832.78 5.41510
2844.82 5.40248
2856.87 5.39098
2873.43 5.37671
2889.99 5.36393
2906.55 5.35239
2923.11 5.34190
2953.22 5.32503
2983.33 5.31033
3016.45 5.29619
3049.57 5.28367
3082.69 5.27243
3115.81 5.26222
3157.96 5.25045
3200.11 5.23978
3228.72 5.23311
3243.02 5.22995
3257.32 5.22691
3271.62 5.22403
3285.93 5.22138
3300.23 5.21905
3307.38 5.21810
3314.53 5.21738
3319.05 5.21709
3323.56 5.21699
3328.08 5.21708
3332.60 5.21755
3337.11 5.21851
3341.63 5.22023
3343.89 5.22149
3346.15 5.22312
3348.40 5.22520
3350.66 5.22793
3352.36 5.23053
3354.05 5.23375
3355.74 5.23776
3357.44 5.24279
3359.13 5.24920
3360.82 5.25745
3362.52 5.26831
3364.21 5.28299
3365.91 5.30342
3366.75 5.31673
3367.60 5.33286
3368.45 5.35264
3369.29 5.37729
3370.14 5.40856
3370.99 5.44905
3371.43 5.47549
3371.88 5.50648
3372.33 5.54316
3372.77 5.58707
3373.22 5.64037
3373.67 5.70625
3374.12 5.78967
3374.34 5.84026
3374.56 5.89882
3374.82 5.97983
3375.08 6.07979
3375.34 6.20658
3375.60 6.37228
3375.73 6.47559
3375.86 6.59535
3375.99 6.73721
3376.12 6.90356
3376.25 7.10252
3376.37 7.33760
3376.50 7.61793
3376.63 7.95254
3376.70 8.16361
3376.77 8.39277
3376.84 8.64863
3376.91 8.92614
3376.99 9.23556
3377.06 9.57062
3377.13 9.94351
3377.20 10.3464
3377.27 10.7937
3377.34 11.2757
3377.41 11.8092
3377.48 12.3824
3377.55 13.0148
3377.62 13.6918
3377.69 14.4359
3377.76 15.2295
3377.82 15.9092
3377.87 16.6305
3377.93 17.3949
3377.98 18.2038
3378.04 19.0585
3378.10 19.9603
3378.15 20.9104
3378.21 21.8915
3378.26 22.9402
3378.32 24.0398
3378.38 25.1909
3378.43 26.3939
3378.49 27.6489
3378.54 28.9560
3378.65 31.6993
3378.72 33.3982
3378.78 35.1634
3378.91 38.8540
3379.04 42.7730
3379.17 46.8881
3379.30 51.1915
3379.43 55.5666
3379.69 64.4242
3379.84 69.5222
3380.00 74.3683
3380.12 78.1647
3380.25 81.6167
3380.38 84.5442
3380.50 87.0122
3380.63 89.0808
3380.76 90.5813
3380.85 91.2696
3380.94 91.6388
3381.00 91.7054
3381.09 91.5671
3381.17 91.1469
3381.31 89.9532
3381.42 88.3777
3381.53 86.5320
3381.64 84.3286
3381.75 81.5488
3381.87 78.4295
3381.99 74.9934
3382.11 71.3546
3382.33 63.9518
3382.55 56.3366
3382.79 48.4316
3382.91 44.6155
3383.02 40.9796
3383.11 38.4171
3383.19 35.9856
3383.28 33.6617
3383.36 31.4505
3383.45 29.3317
3383.54 27.3568
3383.62 25.5014
3383.71 23.7651
3383.76 22.6293
3383.82 21.5494
3383.88 20.5246
3383.94 19.5697
3384.00 18.6506
3384.06 17.7969
3384.12 16.9778
3384.17 16.2195
3384.23 15.4940
3384.29 14.8132
3384.35 14.1752
3384.41 13.5878
3384.47 13.0291
3384.53 12.5160
3384.59 12.0292
3384.64 11.5833
3384.75 10.8397
3384.86 10.1897
3384.96 9.62333
3385.07 9.13529
3385.18 8.70768
3385.28 8.34059
3385.39 8.01981
3385.50 7.74486
3385.60 7.50470
3385.71 7.29688
3385.82 7.11680
3385.92 6.96181
3386.03 6.82554
3386.14 6.70757
3386.35 6.51200
3386.50 6.40054
3386.65 6.30642
3386.95 6.15492
3387.25 6.03878
3387.54 5.94682
3387.84 5.87136
3388.14 5.80846
3388.44 5.75479
3388.74 5.70868
3389.25 5.64278
3389.76 5.58963
3390.27 5.54598
3390.79 5.50970
3391.30 5.47904
3391.81 5.45291
3392.83 5.41100
3393.60 5.38625
3394.37 5.36574
3395.14 5.34853
3395.90 5.33395
3397.44 5.31068
3398.97 5.29311
3400.34 5.28084
3402.39 5.26654
3404.43 5.25564
3406.99 5.24530
3409.55 5.23745
3412.11 5.23131
3414.67 5.22641
3417.23 5.22237
3419.79 5.21897
3422.35 5.21608
3424.91 5.21359
3427.98 5.21101
3431.05 5.20878
3437.19 5.20511
3443.33 5.20211
3449.47 5.19958
3455.62 5.19738
3461.76 5.19542
3467.90 5.19364
3474.04 5.19200
3489.74 5.18825
3505.43 5.18491
3521.13 5.18182
3536.83 5.17891
3552.52 5.17613
3568.22 5.17344
3599.61 5.16828
3629.64 5.16355
3659.66 5.15896
3719.72 5.15011
3779.77 5.14158
3839.82 5.13330
3905.33 5.12447
4036.36 5.10728
4167.39 5.09044
4298.41 5.07372
4429.44 5.05694
4516.79 5.04563
4560.46 5.03993
4604.14 5.03418
4635.53 5.03004
4651.23 5.02796
4666.92 5.02588
4682.62 5.02380
4690.47 5.02277
4698.32 5.02174
4706.16 5.02072
4714.01 5.01972
4721.86 5.01874
4725.78 5.01826
4729.71 5.01780
4733.46 5.01737
4737.21 5.01696
4740.97 5.01659
4744.72 5.01627
4748.47 5.01602
4750.35 5.01594
4752.23 5.01589
4754.10 5.01590
4755.98 5.01597
4757.86 5.01613
4759.73 5.01642
4761.10 5.01676
4762.46 5.01723
4763.83 5.01789
4765.19 5.01884
4766.56 5.02020
4767.24 5.02111
4767.92 5.02223
4768.61 5.02364
4769.29 5.02542
4769.97 5.02773
4770.65 5.03083
4771.29 5.03490
4771.61 5.03762
4771.93 5.04108
4772.25 5.04564
4772.57 5.05192
4772.89 5.06094
4773.05 5.06694
4773.21 5.07424
4773.37 5.08326
4773.53 5.09437
4773.69 5.10808
4773.85 5.12497
4774.01 5.14576
4774.17 5.17125
4774.33 5.20238
4774.49 5.24019
4774.65 5.28586
4774.81 5.34065
4774.97 5.40589
4775.13 5.48297
4775.29 5.57329
4775.45 5.67818
4775.61 5.79889
4775.77 5.93555
4775.88 6.04224
4775.99 6.15776
4776.11 6.28219
4776.22 6.41551
4776.33 6.55755
4776.44 6.70804
4776.55 6.86654
4776.67 7.03247
4776.78 7.20509
4776.89 7.38350
4777.11 7.75334
4777.56 8.50654
4777.73 8.78165
4777.90 9.03872
4778.07 9.27439
4778.24 9.47981
4778.40 9.64190
4778.56 9.76960
4778.67 9.83103
4778.77 9.87683
4778.88 9.90918
4779.00 9.92062
4779.13 9.90668
4779.27 9.86218
4779.36 9.81418
4779.46 9.75324
4779.55 9.68452
4779.63 9.60508
4779.72 9.51549
4779.81 9.41761
4779.97 9.21314
4780.13 8.98545
4780.24 8.82164
4780.46 8.47465
4780.89 7.74767
4781.10 7.39091
4781.21 7.21853
4781.32 7.05298
4781.43 6.89198
4781.53 6.73778
4781.64 6.59094
4781.75 6.45311
4781.86 6.32201
4781.97 6.19913
4782.07 6.08454
4782.18 5.97915
4782.33 5.84563
4782.48 5.72775
4782.63 5.62317
4782.77 5.53236
4782.92 5.45305
4783.07 5.38523
4783.22 5.32721
4783.37 5.27791
4783.52 5.23601
4783.66 5.20108
4783.81 5.17190
4783.96 5.14762
4784.11 5.12738
4784.26 5.11078
4784.41 5.09709
4784.55 5.08580
4784.70 5.07644
4784.85 5.06877
4785.00 5.06242
4785.15 5.05714
4785.44 5.04899
4785.74 5.04316
4786.04 5.03880
4786.33 5.03544
4786.93 5.03052
4787.33 5.02803
4787.73 5.02598
4788.54 5.02279
4789.35 5.02040
4790.16 5.01856
4790.97 5.01709
4791.78 5.01590
4792.59 5.01491
4793.40 5.01407
4795.01 5.01273
4796.63 5.01169
4798.25 5.01086
4799.86 5.01017
4801.81 5.00946
4803.75 5.00886
4805.69 5.00833
4807.63 5.00786
4809.57 5.00742
4811.51 5.00701
4815.39 5.00626
4819.27 5.00556
4823.16 5.00490
4827.04 5.00427
4830.92 5.00366
4835.34 5.00298
4839.76 5.00231
4848.61 5.00100
4857.45 4.99970
4866.29 4.99842
4875.13 4.99714
4883.97 4.99586
4901.66 4.99331
4919.34 4.99075
4937.03 4.98817
4972.40 4.98299
5000.00 4.97890
5078.18 4.96708
5156.37 4.95487
5178.71 4.95130
5223.38 4.94405
5346.24 4.92326
5407.67 4.91233
5469.10 4.90102
5512.38 4.89281
5534.02 4.88862
5555.66 4.88438
5577.30 4.88009
5588.12 4.87793
5598.94 4.87577
5609.76 4.87360
5620.58 4.87143
5625.99 4.87035
5631.40 4.86927
5636.81 4.86820
5642.22 4.86713
5647.81 4.86605
5653.39 4.86500
5658.98 4.86397
5664.56 4.86301
5670.15 4.86212
5672.94 4.86171
5675.73 4.86136
5678.52 4.86106
5681.32 4.86084
5684.11 4.86074
5686.90 4.86078
5688.91 4.86094
5690.91 4.86126
5692.92 4.86180
5694.93 4.86266
5696.94 4.86399
5697.94 4.86492
5698.94 4.86607
5699.95 4.86752
5700.95 4.86936
5701.95 4.87173
5702.96 4.87485
5703.83 4.87843
5704.70 4.88319
5705.57 4.88973
5706.01 4.89400
5706.45 4.89925
5706.88 4.90597
5707.32 4.91494
5707.76 4.92771
5707.97 4.93633
5708.19 4.94710
5708.41 4.96083
5708.63 4.97834
5708.85 5.00094
5709.06 5.03022
5709.28 5.06822
5709.50 5.11744
5709.72 5.18094
5709.94 5.26234
5710.11 5.34346
5710.29 5.44064
5710.46 5.55759
5710.63 5.69573
5710.81 5.85946
5710.98 6.04970
5711.07 6.15720
5711.16 6.27134
5711.25 6.39361
5711.33 6.52427
5711.42 6.66520
5711.51 6.81341
5711.59 6.97061
5711.68 7.13692
5711.77 7.31448
5711.86 7.49926
5711.94 7.69318
5712.03 7.89612
5712.12 8.11039
5712.21 8.33085
5712.29 8.55956
5712.38 8.79611
5712.55 9.29358
5712.73 9.81262
5713.00 10.6606
5713.27 11.5226
5713.55 12.3624
5713.68 12.7602
5713.82 13.1374
5713.94 13.4492
5714.06 13.7378
5714.18 14.0000
5714.30 14.2328
5714.42 14.4336
5714.54 14.5999
5714.63 14.6989
5714.71 14.7768
5714.83 14.8510
5714.98 14.8880
5715.00 14.8886
5715.01 14.8885
5715.02 14.8877
5715.04 14.8861
5715.08 14.8805
5715.14 14.8594
5715.27 14.7856
5715.42 14.6513
5715.55 14.4835
5715.68 14.2746
5715.80 14.0377
5715.92 13.7708
5716.05 13.4728
5716.17 13.1519
5716.31 12.7727
5716.45 12.3756
5716.72 11.5395
5716.99 10.6806
5717.26 9.83483
5717.38 9.47682
5717.50 9.13210
5717.62 8.79937
5717.74 8.48011
5717.85 8.17301
5717.97 7.88415
5718.09 7.61157
5718.21 7.35566
5718.30 7.16190
5718.40 6.97907
5718.49 6.80712
5718.59 6.64752
5718.68 6.49666
5718.78 6.35604
5718.87 6.22533
5718.97 6.10541
5719.06 5.99333
5719.16 5.89000
5719.25 5.79499
5719.35 5.70873
5719.54 5.55610
5719.72 5.43011
5719.91 5.32592
5720.10 5.24134
5720.29 5.17243
5720.48 5.11720
5720.67 5.07268
5720.86 5.03729
5721.05 5.00890
5721.24 4.98638
5721.43 4.96828
5721.62 4.95382
5721.81 4.94214
5722.00 4.93262
5722.38 4.91822
5722.76 4.90802
5723.13 4.90040
5723.51 4.89445
5724.27 4.88560
5725.03 4.87921
5725.83 4.87408
5726.64 4.87009
5727.44 4.86691
5728.25 4.86432
5729.05 4.86217
5729.86 4.86035
5731.47 4.85745
5733.08 4.85523
5734.69 4.85346
5736.30 4.85201
5737.91 4.85079
5740.28 4.84930
5742.64 4.84804
5745.01 4.84695
5747.38 4.84597
5749.75 4.84508
5752.11 4.84426
5754.48 4.84349
5756.85 4.84275
5761.59 4.84136
5766.32 4.84006
5771.06 4.83879
5775.79 4.83757
5781.09 4.83622
5786.40 4.83489
5791.70 4.83357
5797.00 4.83226
5807.61 4.82965
5818.22 4.82704
5828.83 4.82443
5839.43 4.82180
5860.65 4.81650
5884.89 4.81035
5909.14 4.80407
5933.38 4.79766
5957.62 4.79112
6006.11 4.77759
6054.60 4.76342
6133.40 4.73886
6212.19 4.71217
6290.99 4.68296
6369.78 4.65093
6503.13 4.58845
6569.80 4.55255
6636.47 4.51288
6700.12 4.47079
6763.76 4.42412
6827.40 4.37212
6891.04 4.31410
6957.72 4.24632
6991.05 4.20981
7024.39 4.17180
7056.21 4.13454
7088.03 4.09717
7119.85 4.06108
7151.67 4.02879
7175.92 4.00946
7188.04 4.00256
7200.16 3.99825
7212.28 3.99721
7218.34 3.99827
7224.41 4.00056
7231.60 4.00516
7235.20 4.00836
7238.80 4.01226
7242.40 4.01698
7246.00 4.02270
7247.80 4.02603
7249.60 4.02975
7251.40 4.03403
7253.20 4.03907
7254.29 4.04266
7255.37 4.04683
7256.46 4.05188
7257.01 4.05492
7257.55 4.05849
7258.10 4.06291
7258.64 4.06878
7258.91 4.07262
7259.19 4.07737
7259.46 4.08338
7259.73 4.09114
7260.00 4.10137
7260.28 4.11487
7260.55 4.13286
7260.82 4.15682
7261.09 4.18874
7261.36 4.23065
7261.64 4.28529
7261.91 4.35568
7262.10 4.41592
7262.29 4.48620
7262.48 4.56840
7262.67 4.66275
7262.86 4.77125
7263.05 4.89361
7263.24 5.03174
7263.42 5.18456
7263.61 5.35370
7263.80 5.53700
7263.99 5.73556
7264.18 5.94599
7264.37 6.16866
7264.56 6.39890
7264.94 6.87364
7265.22 7.22884
7265.51 7.56759
7265.65 7.72626
7265.79 7.87535
7265.93 8.01312
7266.08 8.13786
7266.19 8.22680
7266.30 8.30578
7266.41 8.37416
7266.53 8.43093
7266.64 8.47836
7266.76 8.51267
7266.90 8.53521
7267.00 8.54077
7267.14 8.53172
7267.26 8.50694
7267.39 8.46892
7267.51 8.41720
7267.63 8.35231
7267.75 8.27486
7267.87 8.18560
7267.99 8.08535
7268.13 7.95785
7268.27 7.81861
7268.41 7.66923
7268.55 7.51141
7268.82 7.17729
7269.10 6.82981
7269.49 6.34757
7269.68 6.11469
7269.88 5.89291
7270.07 5.68226
7270.26 5.48669
7270.46 5.30539
7270.65 5.14092
7270.84 4.99181
7271.04 4.85941
7271.23 4.74184
7271.42 4.63953
7271.62 4.55043
7271.81 4.47433
7272.01 4.40925
7272.20 4.35464
7272.48 4.29113
7272.76 4.24297
7273.03 4.20683
7273.31 4.18009
7273.59 4.16048
7273.87 4.14635
7274.15 4.13622
7274.42 4.12900
7274.70 4.12388
7274.98 4.12029
7275.26 4.11778
7275.54 4.11604
7276.09 4.11409
7276.65 4.11338
7277.21 4.11341
7277.76 4.11392
7278.87 4.11592
7279.99 4.11879
7281.10 4.12226
7282.55 4.12749
7284.00 4.13333
7285.45 4.13970
7286.90 4.14651
7289.81 4.16132
7292.71 4.17761
7298.51 4.21472
7304.32 4.25820
7312.83 4.33534
7321.35 4.43120
7329.86 4.55021
7338.37 4.69802
7342.63 4.78497
7346.89 4.88206
7351.14 4.99057
7355.40 5.11194
7359.66 5.24795
7363.91 5.40050
7368.17 5.57195
7372.43 5.76490
7376.68 5.98256
7380.94 6.22856
7385.20 6.50720
7389.45 6.82353
7393.71 7.18374
7397.97 7.59499
7400.10 7.82245
7402.22 8.06594
7404.35 8.32690
7406.48 8.60684
7409.96 9.11030
7413.45 9.67720
7416.93 10.3171
7418.67 10.6680
7420.41 11.0413
7422.15 11.4392
7423.90 11.8629
7425.64 12.3147
7427.38 12.7955
7429.12 13.3087
7430.86 13.8576
7432.60 14.4458
7434.34 15.0757
7436.47 15.9072
7438.60 16.8117
7440.73 17.7976
7442.86 18.8721
7444.99 20.0450
7447.11 21.3250
7449.24 22.7232
7451.37 24.2511
7453.62 26.0235
7455.88 27.9693
7458.13 30.1049
7460.38 32.4464
7462.63 35.0109
7464.88 37.8113
7467.14 40.8586
7469.39 44.1572
7470.92 46.5470
7472.45 49.0519
7473.99 51.6675
7475.52 54.3873
7478.59 60.0929
7481.65 66.0078
7484.72 71.9382
7487.78 77.6168
7489.32 80.2598
7490.85 82.7134
7492.38 84.9351
7493.91 86.8838
7495.96 89.0007
7498.00 90.5054
7500.04 91.3590
7502.09 91.5492
7503.75 91.2265
7505.41 90.4997
7507.07 89.4011
7508.73 87.9718
7510.39 86.2543
7512.05 84.2964
7515.37 79.8394
7522.02 70.0078
7525.34 65.1002
7528.66 60.4150
7531.21 57.0160
7533.76 53.8188
7536.32 50.8291
7538.87 48.0488
7541.43 45.4697
7543.98 43.0848
7546.53 40.8810
7549.09 38.8476
7551.61 36.9890
7554.14 35.2723
7556.67 33.6860
7559.20 32.2192
7561.73 30.8617
7564.25 29.6040
7566.78 28.4376
7569.31 27.3549
7572.76 25.9993
7576.20 24.7690
7579.65 23.6504
7583.10 22.6331
7586.54 21.7014
7589.99 20.8459
7593.44 20.0601
7596.88 19.3368
7601.94 18.3758
7607.00 17.5183
7612.05 16.7499
7617.11 16.0586
7622.16 15.4341
7627.22 14.8681
7632.28 14.3533
7637.33 13.8836
7642.39 13.4537
7647.44 13.0590
7652.50 12.6958
7657.55 12.3607
7667.66 11.7633
7677.78 11.2475
7686.05 10.8758
7694.32 10.5438
7702.59 10.2434
7710.87 9.97125
7719.14 9.72387
7727.41 9.49819
7743.96 9.10214
7754.07 8.89088
7764.18 8.69888
7784.40 8.36396
7804.63 8.08178
7824.85 7.84128
7850.59 7.58256
7876.33 7.36520
7902.06 7.18091
7927.80 7.02153
7968.25 6.81235
8008.69 6.64098
8049.14 6.49794
8089.58 6.37691
8141.06 6.24757
8192.54 6.13909
8244.01 6.04726
8295.49 5.96759
8376.38 5.86275
8457.27 5.77603
8538.16 5.70281
8619.05 5.63993
8677.88 5.59943
8744.07 5.55818
8810.25 5.52071
8876.43 5.48645
8942.61 5.45500
8979.38 5.43868
9016.15 5.42312
9052.92 5.40837
9089.69 5.39443
9124.62 5.38210
9159.55 5.37085
9177.02 5.36574
9194.48 5.36111
9211.95 5.35703
9229.41 5.35375
9247.79 5.35147
9266.18 5.35095
9275.37 5.35165
9284.56 5.35321
9293.75 5.35589
9302.95 5.36003
9313.06 5.36706
9323.17 5.37773
9333.28 5.39396
9338.34 5.40511
9343.39 5.41907
9348.91 5.43846
9354.42 5.46399
9359.94 5.49820
9365.45 5.54516
9368.90 5.58384
9372.35 5.63254
9375.80 5.69503
9379.24 5.77713
9381.77 5.85476
9384.30 5.95291
9386.83 6.07944
9389.35 6.24631
9390.73 6.36089
9392.11 6.49763
9393.49 6.66273
9394.87 6.86452
9396.13 7.09211
9396.76 7.22516
9397.40 7.37376
9398.03 7.54047
9398.66 7.72844
9399.29 7.94151
9399.92 8.18448
9400.41 8.39680
9400.90 8.63356
9401.39 8.89998
9401.88 9.20013
9402.37 9.54171
9402.86 9.93141
9403.34 10.3802
9403.83 10.9011
9404.15 11.2849
9404.46 11.7117
9404.78 12.1886
9405.10 12.7237
9405.41 13.3268
9405.73 14.0098
9406.04 14.7864
9406.36 15.6702
9406.52 16.1606
9406.67 16.6860
9406.83 17.2493
9406.99 17.8537
9407.15 18.5023
9407.31 19.1989
9407.46 19.9470
9407.62 20.7507
9407.78 21.6139
9407.94 22.5411
9408.10 23.5367
9408.25 24.6050
9408.41 25.7508
9408.57 26.9787
9408.73 28.2932
9408.89 29.6988
9409.07 31.4862
9409.26 33.4140
9409.45 35.4884
9409.63 37.7021
9409.82 40.0830
9410.01 42.6221
9410.19 45.3205
9410.38 48.1614
9410.54 50.6954
9410.70 53.3369
9411.01 58.9232
9411.33 64.8667
9411.64 71.0696
9412.28 83.9215
9412.59 90.2800
9412.91 96.3836
9413.27 102.810
9413.45 105.737
9413.63 108.418
9413.81 110.855
9413.99 113.005
9414.17 114.845
9414.35 116.345
9414.51 117.416
9414.67 118.187
9414.84 118.650
9415.00 118.800
9415.18 118.610
9415.36 118.052
9415.53 117.133
9415.71 115.871
9415.89 114.267
9416.07 112.345
9416.25 110.126
9416.42 107.649
9416.66 103.906
9416.90 99.7866
9417.14 95.3633
9417.38 90.7118
9418.33 71.4630
9418.77 62.9412
9418.99 58.8749
9419.20 54.9967
9419.42 51.2895
9419.64 47.8007
9419.85 44.5213
9420.07 41.4555
9420.29 38.5912
9420.51 35.9517
9420.72 33.5071
9420.94 31.2720
9421.16 29.2161
9421.38 27.3478
9421.59 25.6456
9421.81 24.0978
9422.05 22.5635
9422.29 21.1905
9422.52 19.9522
9422.76 18.8449
9423.00 17.8461
9423.24 16.9520
9423.47 16.1470
9423.71 15.4213
9423.93 14.8159
9424.14 14.2660
9424.36 13.7610
9424.58 13.3006
9424.80 12.8759
9425.01 12.4871
9425.23 12.1270
9425.45 11.7958
9425.88 11.2034
9426.32 10.6915
9426.75 10.2458
9427.19 9.85592
9427.62 9.51103
9428.06 9.20494
9428.49 8.93185
9428.93 8.68703
9429.36 8.46660
9429.80 8.26734
9430.67 7.92232
9431.38 7.68293
9432.09 7.47502
9432.80 7.29319
9433.51 7.13340
9434.23 6.99177
9434.94 6.86579
9436.36 6.65228
9438.10 6.44481
9439.84 6.28071
9441.58 6.14860
9443.32 6.04070
9446.17 5.90220
9449.01 5.79740
9451.86 5.71603
9454.71 5.65160
9458.50 5.58455
9462.30 5.53293
9466.10 5.49230
9469.89 5.45974
9473.37 5.43510
9476.85 5.41437
9483.81 5.38162
9490.77 5.35708
9497.72 5.33811
9500.26 5.33226
9502.79 5.32689
9509.11 5.31508
9515.44 5.30517
9528.09 5.28956
9542.01 5.27686
9555.93 5.26730
9569.84 5.26004
9583.76 5.25464
9596.41 5.25124
9609.07 5.24932
9622.98 5.24927
9636.90 5.25209
9650.82 5.25925
9657.78 5.26528
9664.74 5.27362
9671.69 5.28524
9678.65 5.30162
9685.61 5.32507
9689.09 5.34061
9692.57 5.35962
9696.37 5.38551
9700.16 5.41881
9703.96 5.46256
9707.75 5.52137
9710.44 5.57619
9713.13 5.64656
9715.82 5.73896
9718.51 5.86386
9720.25 5.96985
9721.99 6.10381
9723.73 6.27688
9724.60 6.38303
9725.47 6.50589
9726.50 6.67844
9727.52 6.88839
9728.55 7.14801
9729.07 7.30163
9729.58 7.47481
9730.01 7.63928
9730.45 7.82292
9730.88 8.02890
9731.32 8.26109
9731.75 8.52417
9732.19 8.82390
9732.62 9.16733
9733.06 9.56213
9733.41 9.93216
9733.77 10.3511
9734.13 10.8270
9734.48 11.3691
9734.84 11.9877
9735.19 12.6946
9735.37 13.0851
9735.55 13.5024
9735.73 13.9484
9735.91 14.4220
9736.12 15.0490
9736.34 15.7240
9736.56 16.4563
9736.78 17.2418
9736.99 18.0905
9737.21 18.9965
9737.43 19.9651
9737.64 20.9973
9737.86 22.0984
9738.08 23.2574
9738.30 24.4831
9738.51 25.7613
9738.95 28.4797
9739.38 31.3548
9740.24 37.1774
9740.66 39.9802
9741.09 42.5499
9741.33 43.8478
9741.57 45.0165
9741.81 46.0373
9742.05 46.8927
9742.28 47.5682
9742.52 48.0518
9742.76 48.3348
9743.00 48.4121
9743.24 48.2827
9743.48 47.9480
9743.72 47.4140
9743.96 46.6898
9744.20 45.7879
9744.43 44.7235
9744.67 43.5142
9744.91 42.1850
9745.27 39.9893
9745.63 37.6280
9746.35 32.6874
9746.69 30.3414
9747.03 28.0732
9747.37 25.9103
9747.72 23.8784
9747.95 22.5782
9748.18 21.3501
9748.42 20.1961
9748.65 19.1165
9748.88 18.1108
9749.11 17.1772
9749.35 16.3135
9749.58 15.5166
9749.75 14.9723
9749.92 14.4606
9750.09 13.9801
9750.26 13.5292
9750.61 12.7100
9750.95 11.9905
9751.29 11.3588
9751.63 10.8040
9751.97 10.3161
9752.32 9.88604
9752.66 9.50602
9753.00 9.16919
9753.34 8.86963
9753.68 8.60230
9754.03 8.36287
9754.37 8.14766
9754.71 7.95354
9755.05 7.77785
9755.58 7.53722
9756.11 7.32880
9756.64 7.14638
9757.17 6.98632
9757.70 6.84455
9758.22 6.71880
9759.28 6.50579
9759.96 6.39003
9760.65 6.28836
9762.02 6.11884
9763.38 5.98407
9764.75 5.87521
9766.06 5.78955
9767.36 5.71787
9769.97 5.60539
9772.58 5.52216
9775.19 5.45886
9779.17 5.38804
9783.15 5.33761
9787.13 5.30023
9791.11 5.27173
9794.84 5.25070
9798.57 5.23370
9802.30 5.21972
9806.03 5.20810
9813.49 5.18974
9820.95 5.17591
9828.91 5.16447
9838.86 5.15329
9848.80 5.14441
9864.72 5.13308
9874.67 5.12715
9884.61 5.12182
9904.51 5.11235
9928.38 5.10228
9952.25 5.09293
9976.13 5.08404
10000.0 5.07538
10042.7 5.06019
10085.4 5.04504
10170.7 5.01431
10237.8 4.98925
10304.8 4.96309
10439.0 4.90637
10506.0 4.87513
10573.1 4.84146
10640.1 4.80489
10707.2 4.76484
10771.2 4.72256
10835.2 4.67567
10899.2 4.62312
10963.3 4.56364
11030.3 4.49215
11063.9 4.45227
11097.4 4.40926
11130.9 4.36280
11164.5 4.31272
11198.0 4.25894
11231.5 4.20168
11257.4 4.15558
11283.3 4.10887
11309.2 4.06331
11322.2 4.04195
11335.2 4.02236
11350.4 4.00281
11365.6 3.98905
11382.4 3.98437
11399.2 3.99689
11407.6 4.01258
11415.9 4.03679
11424.3 4.07184
11432.7 4.12039
11441.1 4.18660
11449.5 4.27596
11457.8 4.39517
11462.0 4.46878
11466.2 4.55362
11470.4 4.65168
11474.6 4.76453
11478.8 4.89481
11483.0 5.04540
11487.2 5.21974
11491.4 5.42198
11495.6 5.65706
11499.7 5.93103
11503.4 6.20545
11507.0 6.51934
11510.6 6.88022
11512.4 7.08078
11514.2 7.29626
11516.0 7.52795
11517.9 7.77724
11519.7 8.04555
11521.5 8.33437
11523.3 8.64533
11525.1 8.98074
11526.9 9.34341
11528.7 9.73612
11530.8 10.2328
11532.9 10.7753
11535.0 11.3741
11537.1 12.0295
11539.2 12.7544
11541.3 13.5498
11543.4 14.4316
11545.5 15.4010
11547.6 16.4727
11549.6 17.6525
11551.7 18.9650
11553.8 20.4120
11555.9 22.0239
11556.9 22.8905
11558.0 23.8031
11559.0 24.7739
11560.1 25.7872
11561.1 26.8548
11562.2 27.9801
11564.0 30.0985
11565.8 32.4118
11567.6 34.9567
11569.4 37.7656
11570.3 39.2908
11571.2 40.9006
11572.1 42.6037
11573.0 44.3900
11573.9 46.3124
11574.8 48.3445
11575.8 50.5515
11576.7 52.9090
11577.7 55.7976
11578.7 58.9554
11579.7 62.4608
11580.7 66.3642
11581.7 70.7504
11582.7 75.5423
11583.7 80.7358
11584.7 86.2036
11586.1 93.8610
11586.8 97.4292
11587.5 100.594
11588.2 103.304
11588.9 105.382
11589.6 106.729
11590.3 107.286
11590.7 107.255
11591.0 106.980
11591.4 106.475
11591.8 105.753
11592.6 103.710
11593.4 101.082
11594.2 98.0028
11595.0 94.7437
11596.5 88.1563
11597.7 83.8137
11598.8 79.9654
11599.9 76.5602
11601.0 73.6141
11602.1 71.0029
11603.2 68.7002
11604.3 66.5995
11605.5 64.6860
11606.6 62.8846
11607.7 61.1827
11608.8 59.5586
11609.9 58.0109
11612.2 55.0503
11614.4 52.2551
11616.6 49.6071
11618.8 47.1002
11621.1 44.7329
11623.3 42.5047
11625.2 40.7517
11627.0 39.0932
11628.9 37.5267
11630.7 36.0569
11632.6 34.6642
11634.5 33.3528
11636.3 32.1188
11638.2 30.9639
11641.0 29.3061
11643.9 27.7988
11646.8 26.4269
11649.6 25.1746
11652.5 24.0301
11655.4 22.9835
11658.3 22.0249
11661.1 21.1484
11664.8 20.1129
11668.5 19.1841
11672.3 18.3461
11676.0 17.5876
11679.7 16.8973
11683.4 16.2706
11687.1 15.6984
11690.8 15.1746
11694.5 14.6925
11698.2 14.2502
11702.0 13.8411
11705.7 13.4640
11713.1 12.7892
11720.5 12.2060
11726.6 11.7843
11732.7 11.4073
11738.8 11.0659
11744.8 10.7566
11750.9 10.4749
11757.0 10.2183
11769.1 9.76718
11776.6 9.52604
11784.0 9.30706
11798.8 8.92512
11813.7 8.60345
11828.5 8.32928
11844.7 8.07326
11860.9 7.85328
11877.1 7.66242
11893.3 7.49578
11923.0 7.23824
11952.7 7.02912
11982.4 6.85592
12012.1 6.71027
12041.8 6.58616
12071.5 6.47905
12130.9 6.30340
12182.3 6.18252
12233.6 6.08213
12284.9 5.99731
12336.2 5.92449
12384.8 5.86466
12433.4 5.81195
12482.0 5.76521
12530.6 5.72376
12595.4 5.67603
12627.8 5.65535
12660.2 5.63698
12689.9 5.62246
12719.6 5.61066
12749.3 5.60239
12779.0 5.59907
12793.9 5.60002
12808.7 5.60337
12823.6 5.60982
12838.4 5.62041
12850.6 5.63321
12862.7 5.65103
12874.9 5.67562
12887.0 5.70963
12894.4 5.73683
12901.9 5.77039
12909.3 5.81225
12916.7 5.86486
12923.8 5.92855
12930.9 6.00999
12938.0 6.11591
12945.1 6.25606
12948.8 6.34865
12952.5 6.45818
12956.2 6.58911
12959.9 6.74722
12963.6 6.94094
12967.3 7.18013
12969.2 7.32193
12971.0 7.48066
12972.9 7.66104
12974.8 7.86481
12976.1 8.03135
12977.5 8.21521
12978.8 8.41881
12980.2 8.64497
12981.5 8.89710
12982.9 9.17930
12984.2 9.49645
12985.6 9.85435
12986.5 10.1282
12987.4 10.4273
12988.3 10.7547
12989.3 11.1139
12990.2 11.5089
12991.1 11.9443
12992.1 12.4254
12993.0 12.9523
12993.9 13.5434
12994.8 14.2013
12995.8 14.9354
12996.7 15.7468
12997.6 16.6650
12998.6 17.6953
12999.5 18.8523
13000.4 20.1374
13001.3 21.5450
13002.2 23.0981
13003.1 24.8243
13004.0 26.7331
13004.9 28.8286
13005.8 31.1061
13006.6 33.5488
13007.5 36.1244
13009.4 41.7155
13010.3 44.4269
13011.3 46.8833
13011.7 47.9970
13012.2 49.0022
13012.7 49.8831
13013.1 50.6105
13013.6 51.2034
13014.1 51.6267
13014.5 51.8909
13015.0 51.9802
13015.3 51.9496
13015.7 51.7698
13016.2 51.4320
13016.6 50.9418
13017.1 50.3076
13017.5 49.5395
13018.0 48.6498
13018.9 46.5604
13019.8 44.1561
13020.7 41.5563
13022.5 36.2255
13023.4 33.4630
13024.4 30.8566
13025.4 28.4446
13026.3 26.2665
13026.8 25.2463
13027.3 24.2792
13027.8 23.3639
13028.2 22.5165
13028.7 21.6990
13029.2 20.9278
13029.7 20.2008
13030.1 19.5296
13030.6 18.8442
13031.2 18.2010
13031.7 17.5972
13032.2 17.0304
13033.2 15.9981
13034.2 15.0861
13035.2 14.2786
13036.3 13.5616
13037.3 12.9234
13038.3 12.3535
13039.3 11.8432
13040.3 11.3848
13041.4 10.9718
13042.4 10.5988
13043.4 10.2608
13044.4 9.95383
13045.4 9.67426
13046.4 9.42143
13047.7 9.12698
13049.0 8.86308
13050.3 8.62573
13051.6 8.41312
13052.9 8.21906
13054.2 8.04279
13056.8 7.73650
13058.9 7.53042
13060.9 7.34987
13062.9 7.19085
13065.0 7.05072
13069.1 6.81352
13073.1 6.62312
13077.2 6.46721
13081.3 6.33848
13085.4 6.23040
13089.4 6.13918
13096.8 6.00555
13104.2 5.90218
13111.7 5.82051
13119.1 5.75468
13127.2 5.69573
13135.4 5.64747
13143.5 5.60720
13151.7 5.57316
13164.3 5.52973
13176.9 5.49458
13189.5 5.46524
13202.1 5.44033
13219.9 5.41058
13237.6 5.38544
13255.4 5.36355
13273.2 5.34405
13294.0 5.32338
13314.7 5.30433
13356.2 5.26916
13397.7 5.23572
13439.2 5.20202
13480.7 5.16623
13522.2 5.12618
13547.4 5.09845
13572.6 5.06684
13597.8 5.02981
13623.0 4.98451
13637.0 4.95405
13651.1 4.91842
13665.2 4.87583
13679.3 4.82368
13687.4 4.78737
13695.6 4.74515
13703.7 4.69527
13711.9 4.63524
13717.8 4.58312
13723.7 4.52169
13729.7 4.44817
13735.6 4.35826
13739.7 4.28354
13743.8 4.19507
13747.8 4.08859
13749.9 4.02678
13751.9 3.95830
13754.7 3.85096
13757.5 3.72411
13758.9 3.65164
13760.2 3.57193
13761.6 3.48389
13763.0 3.38698
13764.0 3.30839
13765.1 3.22316
13766.1 3.13054
13767.1 3.02977
13768.1 2.92017
13769.1 2.80131
13770.2 2.67366
13771.2 2.54139
13772.0 2.43290
13772.8 2.33941
13773.3 2.30449
13773.7 2.28439
13774.1 2.28646
13774.3 2.29882
13774.5 2.31944
13774.7 2.35210
13774.9 2.39803
13775.1 2.45953
13775.3 2.53920
13775.6 2.63994
13775.8 2.76497
13776.0 2.91785
13776.2 3.09291
13776.4 3.31168
13776.6 3.57071
13776.8 3.87479
13777.0 4.21087
13777.1 4.41670
13777.2 4.61757
13777.3 4.85437
13777.4 5.08467
13777.5 5.35525
13777.6 5.61754
13777.7 5.89595
13777.8 6.19106
13778.0 6.63330
13778.1 7.11081
13778.3 7.62498
13778.4 8.17710
13778.5 8.72482
13778.6 9.26111
13778.8 9.82746
13778.9 10.4244
13779.0 11.0522
13779.1 11.7113
13779.2 12.4018
13779.4 13.1236
13779.5 13.9409
13779.6 14.7276
13779.7 15.5449
13779.9 16.3921
13780.1 18.1731
13780.3 20.0624
13780.6 22.2184
13780.8 24.3820
13781.4 28.9856
13781.7 32.3890
13782.1 35.7433
13782.4 38.0179
13782.6 40.1037
13782.8 41.9836
13783.1 43.7173
13783.3 44.9701
13783.5 46.0485
13783.6 47.0629
13783.8 47.8991
13784.0 48.6075
13784.2 49.2114
13784.4 49.6637
13784.6 49.9500
13784.8 50.1017
13784.9 50.1037
13785.2 49.7909
13785.5 49.1249
13785.8 48.1290
13786.1 46.8385
13786.4 45.6748
13786.6 44.3817
13787.1 41.5579
13787.6 37.4905
13787.9 35.3610
13788.2 33.3125
13788.5 31.2360
13788.8 29.2962
13789.1 27.3811
13789.4 25.6341
13789.7 24.0003
13790.0 22.5361
13790.3 21.1856
13790.5 19.9481
13790.8 18.7826
13791.1 17.7648
13791.4 16.8463
13791.7 16.0204
13792.0 15.2298
13792.3 14.5497
13792.6 13.9241
13792.9 13.3864
13793.2 12.8915
13793.4 12.4651
13793.7 12.0710
13794.0 11.7296
13794.3 11.4424
13794.6 11.1809
13795.1 10.7233
13795.7 10.3363
13796.2 10.0102
13796.7 9.72136
13797.3 9.46765
13797.8 9.24263
13798.3 9.04489
13798.9 8.84411
13799.5 8.66680
13800.7 8.36051
13801.9 8.10477
13803.1 7.88770
13804.3 7.69949
13805.4 7.53721
13806.6 7.39463
13807.8 7.26832
13810.2 7.05362
13812.5 6.87946
13815.1 6.72191
13817.7 6.59130
13820.3 6.48087
13822.9 6.38621
13827.6 6.24319
13832.3 6.12981
13837.1 6.03749
13841.8 5.96079
13848.2 5.87483
13854.7 5.80488
13861.1 5.74660
13867.6 5.69718
13877.1 5.63680
13886.5 5.58727
13896.0 5.54570
13905.4 5.51022
13920.9 5.46196
13936.4 5.42240
13955.3 5.38253
13974.2 5.34942
13993.2 5.32130
14012.1 5.29711
14025.9 5.28157
14039.6 5.26762
14053.4 5.25523
14067.1 5.24447
14083.5 5.23412
14099.8 5.22720
14108.0 5.22548
14116.2 5.22533
14124.3 5.22712
14132.5 5.23167
14141.5 5.24116
14150.6 5.25749
14155.1 5.26934
14159.6 5.28450
14164.1 5.30397
14168.6 5.32894
14173.4 5.36342
14178.1 5.40948
14182.8 5.47215
14187.6 5.55939
14190.4 5.62766
14193.2 5.71290
14196.0 5.82190
14198.7 5.96278
14201.0 6.10952
14203.3 6.29673
14204.4 6.41019
14205.5 6.54027
14206.7 6.69033
14207.8 6.86294
14209.0 7.07830
14210.1 7.33232
14211.3 7.63721
14211.9 7.81298
14212.5 8.00711
14213.1 8.22602
14213.7 8.46547
14214.3 8.73246
14214.9 9.03116
14215.5 9.36647
14216.1 9.74417
14216.6 10.1710
14217.2 10.6550
14217.8 11.1557
14218.3 11.7200
14218.9 12.3568
14219.4 13.0617
14219.9 13.8718
14220.5 14.7853
14221.0 15.8129
14221.5 16.9418
14221.8 17.6366
14222.1 18.3730
14222.4 19.1515
14222.7 19.9443
14223.3 21.6770
14223.9 23.5609
14224.6 25.8550
14225.2 28.2260
14225.9 30.6345
14226.6 32.9879
14227.0 34.4733
14227.4 35.8226
14227.9 37.0385
14228.3 38.0906
14228.7 38.9515
14229.1 39.5978
14229.6 40.0116
14230.0 40.1815
14230.5 40.0832
14230.9 39.6925
14231.4 39.0238
14231.9 38.1224
14232.3 36.9795
14232.8 35.6486
14233.3 34.1697
14233.7 32.6185
14235.1 27.7176
14235.8 25.3208
14236.5 23.0636
14236.8 22.0478
14237.2 21.0780
14237.5 20.1563
14237.8 19.3095
14238.1 18.4850
14238.5 17.7322
14238.8 17.0033
14239.1 16.3410
14239.6 15.4806
14240.0 14.7149
14240.5 14.0033
14240.9 13.3718
14241.3 12.7857
14241.8 12.2658
14242.2 11.7931
14242.7 11.3631
14243.3 10.7966
14244.0 10.3014
14244.6 9.86672
14245.3 9.48373
14245.9 9.14485
14246.6 8.84379
14247.2 8.57523
14247.9 8.33475
14248.5 8.11545
14249.2 7.92080
14249.8 7.74462
14250.5 7.58466
14251.8 7.30594
14253.1 7.07223
14254.2 6.89839
14255.3 6.74812
14256.5 6.61503
14257.6 6.49856
14259.8 6.30203
14262.1 6.14496
14264.7 5.99837
14267.3 5.88042
14269.9 5.78399
14272.5 5.70404
14277.7 5.57952
14282.9 5.48798
14288.1 5.41814
14293.3 5.36348
14297.3 5.32867
14301.3 5.29900
14309.4 5.25085
14317.4 5.21319
14325.5 5.18283
14332.1 5.16175
14338.7 5.14338
14352.0 5.11249
14365.2 5.08709
14378.4 5.06521
14394.5 5.04189
14410.6 5.02097
14426.7 5.00166
14442.8 4.98348
14458.9 4.96595
14475.0 4.94889
14507.1 4.91547
14552.6 4.86821
14598.0 4.81914
14643.4 4.76679
14688.8 4.70985
14719.1 4.66865
14760.7 4.60680
14802.4 4.53771
14844.0 4.45992
14885.7 4.37183
14927.3 4.27186
14948.1 4.21727
14968.9 4.15991
14990.7 4.09778
15012.5 4.03539
15034.2 3.97659
15056.0 3.92925
15067.3 3.91414
15077.8 3.91004
15088.2 3.91980
15098.6 3.94993
15103.8 3.97553
15109.0 4.01013
15113.7 4.05125
15118.5 4.10330
15123.2 4.16865
15127.9 4.25012
15132.6 4.35121
15137.4 4.47624
15142.1 4.63018
15144.5 4.72021
15146.8 4.82003
15149.4 4.94370
15152.0 5.08235
15154.6 5.23834
15157.2 5.41399
15159.9 5.61274
15162.5 5.83614
15165.1 6.08846
15167.7 6.37378
15170.3 6.69816
15172.9 7.06461
15175.5 7.48067
15178.1 7.95370
15179.4 8.21419
15180.7 8.49222
15182.0 8.78905
15183.3 9.10605
15184.6 9.44467
15185.9 9.80648
15187.2 10.1931
15188.5 10.6064
15189.8 11.0482
15191.1 11.5166
15192.3 12.0172
15193.6 12.5519
15194.9 13.1230
15196.2 13.7328
15197.5 14.3836
15198.8 15.0778
15200.1 15.8236
15201.4 16.6120
15202.7 17.4506
15204.0 18.3414
15205.3 19.2863
15206.5 20.2866
15207.8 21.3433
15209.1 22.4566
15210.4 23.6074
15211.7 24.8017
15214.2 27.3472
15216.7 30.0598
15219.2 32.8720
15221.8 35.7254
15224.3 38.4930
15226.8 41.0746
15228.1 42.2467
15229.3 43.3225
15231.2 44.6916
15233.0 45.7833
15234.4 46.4120
15235.8 46.8658
15237.1 47.1423
15238.5 47.2433
15239.9 47.1746
15241.3 46.9455
15242.7 46.5682
15244.0 46.0569
15245.4 45.4276
15246.8 44.6966
15249.6 43.0025
15252.3 41.0885
15255.1 39.0778
15260.6 35.0489
15264.3 32.5022
15268.0 30.1571
15271.7 28.0341
15275.4 26.1315
15278.3 24.7777
15281.2 23.5448
15284.1 22.4214
15287.0 21.4003
15290.0 20.4656
15292.9 19.6153
15295.8 18.8353
15298.7 18.1236
15302.3 17.3302
15305.8 16.6163
15309.4 15.9686
15313.0 15.3825
15316.5 14.8477
15320.1 14.3610
15323.7 13.9144
15327.2 13.5059
15330.8 13.1291
15334.4 12.7827
15341.5 12.1659
15348.6 11.6338
15355.7 11.1722
15361.6 10.8372
15367.4 10.5368
15373.2 10.2642
15379.1 10.0167
15390.7 9.58437
15402.4 9.22082
15416.7 8.84830
15430.9 8.53762
15445.2 8.27464
15459.4 8.04975
15477.6 7.80659
15495.7 7.60172
15513.9 7.42720
15532.0 7.27610
15560.5 7.07659
15589.0 6.91267
15617.5 6.77553
15646.1 6.65924
15684.9 6.52642
15723.8 6.41665
15762.7 6.32373
15801.6 6.24439
15858.6 6.14691
15915.6 6.06632
15972.7 5.99843
16029.7 5.94044
16081.5 5.89462
16133.4 5.85396
16190.4 5.81434
16247.4 5.77910
16276.0 5.76287
16304.5 5.74753
16333.0 5.73299
16361.5 5.71918
16382.2 5.70961
16403.0 5.70042
16423.7 5.69163
16444.4 5.68326
16455.5 5.67900
16466.5 5.67490
16477.5 5.67099
16488.5 5.66730
16499.5 5.66391
16505.0 5.66234
16510.6 5.66089
16516.1 5.65961
16521.6 5.65852
16527.1 5.65769
16532.6 5.65721
16537.1 5.65716
16541.7 5.65757
16546.2 5.65858
16550.7 5.66046
16553.0 5.66190
16555.3 5.66377
16557.5 5.66622
16559.8 5.66939
16562.1 5.67356
16564.3 5.67909
16566.6 5.68655
16568.9 5.69683
16570.4 5.70628
16572.0 5.71866
16573.5 5.73542
16574.3 5.74619
16575.0 5.75922
16575.8 5.77540
16576.6 5.79625
16577.3 5.82447
16577.7 5.84300
16578.1 5.86496
16578.5 5.89278
16578.9 5.92665
16579.3 5.97060
16579.7 6.02515
16580.0 6.09684
16580.4 6.18646
16580.8 6.30436
16581.2 6.45106
16581.5 6.59922
16581.8 6.77162
16582.1 6.98459
16582.4 7.22936
16582.7 7.52759
16583.0 7.86519
16583.3 8.25588
16583.6 8.70409
16583.9 9.23168
16584.2 9.80751
16584.5 10.4717
16584.8 11.1813
16585.2 11.9817
16585.5 12.8171
16585.8 13.7061
16586.1 14.6399
16586.5 16.1660
16587.0 17.6881
16587.5 19.2089
16587.7 19.9191
16587.9 20.5951
16588.1 21.2283
16588.4 21.7862
16588.6 22.2903
16588.8 22.7340
16589.0 23.1114
16589.2 23.4176
16589.4 23.6027
16589.6 23.7411
16589.7 23.8278
16589.9 23.8716
16590.0 23.8769
16590.3 23.8163
16590.5 23.6149
16590.7 23.4211
16590.9 23.1766
16591.2 22.7008
16591.5 22.1180
16591.8 21.3889
16592.1 20.5682
16592.4 19.6746
16592.7 18.7595
16593.8 15.0654
16594.1 14.1710
16594.3 13.3107
16594.6 12.4928
16594.9 11.7237
16595.1 11.1318
16595.3 10.6010
16595.6 10.1057
16595.8 9.64620
16596.0 9.20387
16596.2 8.81652
16596.5 8.46311
16596.7 8.14231
16596.9 7.84009
16597.1 7.58091
16597.3 7.34905
16597.6 7.14253
16597.8 6.95935
16598.0 6.79753
16598.4 6.53019
16598.9 6.32176
16599.3 6.16815
16599.8 6.05068
16600.2 5.96520
16600.7 5.90013
16601.1 5.85260
16601.6 5.81664
16602.0 5.78907
16602.5 5.76375
16603.1 5.74445
16603.6 5.72928
16604.1 5.71723
16605.2 5.69858
16606.2 5.68481
16607.3 5.67415
16608.3 5.66558
16609.4 5.65866
16611.1 5.64974
16612.8 5.64296
16614.5 5.63761
16616.2 5.63331
16617.9 5.62977
16619.6 5.62680
16623.1 5.62210
16626.5 5.61850
16629.9 5.61562
16633.3 5.61321
16636.7 5.61112
16641.2 5.60874
16645.7 5.60663
16650.2 5.60471
16654.7 5.60294
16659.1 5.60126
16663.6 5.59966
16672.6 5.59661
16681.5 5.59371
16690.5 5.59091
16699.4 5.58818
16708.4 5.58551
16723.1 5.58120
16737.8 5.57700
16752.6 5.57288
16767.3 5.56883
16782.1 5.56485
16796.8 5.56094
16826.3 5.55333
16860.0 5.54494
16893.7 5.53688
16911.6 5.53274
16929.5 5.52871
16947.4 5.52480
16965.3 5.52102
16983.2 5.51740
17001.1 5.51397
17010.1 5.51236
17019.0 5.51084
17028.0 5.50943
17036.9 5.50817
17044.0 5.50731
17051.2 5.50661
17058.3 5.50614
17065.4 5.50597
17068.9 5.50605
17072.5 5.50628
17076.0 5.50670
17079.6 5.50734
17083.2 5.50829
17086.7 5.50963
17090.3 5.51150
17093.8 5.51411
17096.4 5.51676
17099.1 5.52022
17101.7 5.52483
17104.3 5.53112
17105.7 5.53514
17107.0 5.53995
17108.3 5.54575
17109.6 5.55278
17110.9 5.56156
17112.2 5.57258
17113.6 5.58704
17114.9 5.60650
17116.0 5.62986
17116.5 5.64536
17117.1 5.66480
17117.7 5.68995
17118.2 5.72354
17118.8 5.76969
17119.3 5.83451
17119.6 5.87655
17119.9 5.92682
17120.2 5.98696
17120.5 6.05890
17120.7 6.14480
17121.0 6.24716
17121.3 6.36874
17121.6 6.51257
17121.9 6.68196
17122.1 6.88041
17122.4 7.11158
17122.7 7.37921
17123.0 7.68697
17123.3 8.03842
17123.5 8.43677
17123.8 8.88478
17124.0 9.25468
17124.2 9.65429
17124.5 10.0839
17124.7 10.5209
17124.9 11.0085
17125.1 11.4995
17125.3 12.0417
17125.5 12.5818
17125.9 13.7526
17126.3 14.9892
17127.1 17.5329
17127.4 18.4982
17127.7 19.3890
17128.1 20.2165
17128.4 20.9617
17128.7 21.6443
17128.9 21.9452
17129.0 22.1941
17129.2 22.4557
17129.4 22.6508
17129.6 22.7797
17129.8 22.8643
17130.0 22.9070
17130.3 22.8518
17130.5 22.6665
17130.7 22.4647
17130.9 22.2051
17131.1 21.9577
17131.3 21.6766
17131.6 21.0440
17131.9 20.3336
17132.2 19.5704
17132.5 18.7476
17132.7 17.8812
17133.4 15.7675
17133.8 14.7129
17134.1 13.7168
17134.4 12.7355
17134.8 11.8392
17135.1 10.9833
17135.4 10.2243
17135.6 9.77960
17135.8 9.38420
17136.0 9.01609
17136.2 8.67490
17136.5 8.34495
17136.7 8.05681
17136.9 7.79312
17137.1 7.55275
17137.3 7.32411
17137.5 7.12762
17137.9 6.79138
17138.3 6.52166
17138.7 6.30786
17139.1 6.13645
17139.5 6.00681
17139.9 5.90661
17140.3 5.82947
17140.7 5.76885
17141.1 5.72342
17141.5 5.68820
17141.9 5.66066
17142.6 5.62456
17143.3 5.59970
17144.0 5.58164
17144.8 5.56802
17145.5 5.55704
17146.2 5.54805
17147.6 5.53422
17149.1 5.52394
17150.5 5.51613
17151.9 5.50995
17153.4 5.50502
17154.8 5.50098
17156.2 5.49764
17159.1 5.49242
17162.0 5.48854
17164.8 5.48553
17167.7 5.48314
17170.6 5.48117
17174.5 5.47897
17178.5 5.47718
17182.4 5.47564
17186.4 5.47429
17190.3 5.47309
17194.3 5.47199
17202.2 5.47000
17210.0 5.46822
17217.9 5.46655
17225.8 5.46498
17233.7 5.46345
17244.5 5.46144
17255.2 5.45947
17266.0 5.45755
17276.8 5.45565
17287.5 5.45378
17298.3 5.45194
17319.8 5.44828
17341.3 5.44469
17362.8 5.44115
17384.4 5.43767
17405.9 5.43423
17437.5 5.42928
17469.0 5.42442
17500.6 5.41963
17532.1 5.41496
17595.3 5.40584
17658.4 5.39705
17721.5 5.38855
17784.7 5.38034
17910.9 5.36467
17956.8 5.35921
18065.9 5.34674
18120.4 5.34074
18174.9 5.33489
18229.4 5.32921
18284.0 5.32373
18311.2 5.32107
18338.5 5.31845
18365.7 5.31593
18393.0 5.31350
18408.8 5.31216
18424.6 5.31086
18440.4 5.30964
18456.1 5.30852
18471.9 5.30754
18479.8 5.30713
18487.7 5.30677
18495.6 5.30649
18503.5 5.30632
18511.4 5.30627
18519.3 5.30641
18525.4 5.30669
18531.5 5.30718
18537.6 5.30796
18543.7 5.30913
18549.8 5.31089
18552.8 5.31207
18555.9 5.31352
18558.9 5.31536
18562.0 5.31769
18565.0 5.32069
18568.0 5.32460
18570.4 5.32847
18572.7 5.33337
18575.0 5.33974
18577.4 5.34829
18578.5 5.35375
18579.7 5.36027
18580.9 5.36815
18582.0 5.37775
18583.2 5.38993
18584.4 5.40563
18585.5 5.42741
18586.1 5.44180
18586.7 5.45992
18587.2 5.47981
18587.7 5.50476
18588.2 5.53804
18588.7 5.58141
18589.2 5.64100
18589.7 5.72010
18590.2 5.82704
18590.7 5.97104
18591.2 6.16790
18591.6 6.42317
18591.9 6.58195
18592.1 6.75506
18592.4 6.95895
18592.6 7.17921
18592.9 7.43612
18593.1 7.72292
18593.4 8.04130
18593.6 8.37795
18593.9 8.76199
18594.1 9.16329
18594.4 9.61547
18594.6 10.0820
18594.9 10.7956
18595.3 11.5665
18595.6 12.3876
18595.9 13.2235
18597.3 16.7405
18597.6 17.5305
18597.9 18.2454
18598.2 18.8954
18598.5 19.4661
18598.9 19.9582
18599.2 20.3294
18599.4 20.5095
18599.6 20.6406
18599.7 20.7126
18599.9 20.7477
18600.0 20.7510
18600.3 20.7030
18600.4 20.6248
18600.6 20.5181
18600.8 20.3202
18601.0 20.0780
18601.2 19.8163
18601.4 19.5167
18601.6 19.1816
18601.8 18.8140
18602.0 18.3953
18602.2 17.9709
18602.6 17.0332
18602.9 16.0313
18603.3 15.0221
18603.9 13.4789
18604.2 12.7282
18604.5 12.0032
18604.8 11.3109
18605.1 10.6570
18605.4 10.0455
18605.6 9.49810
18605.9 8.97726
18606.2 8.50376
18606.5 8.07705
18606.8 7.70814
18607.1 7.36870
18607.4 7.07007
18607.7 6.80931
18607.9 6.59050
18608.2 6.40106
18608.5 6.23802
18608.8 6.09849
18609.0 5.98360
18609.3 5.88231
18609.6 5.79681
18609.9 5.72489
18610.2 5.66654
18610.4 5.61573
18610.7 5.57326
18611.3 5.50909
18611.8 5.46312
18612.4 5.43100
18612.9 5.40726
18613.5 5.38991
18614.0 5.37636
18614.6 5.36585
18615.7 5.35006
18616.8 5.33875
18618.2 5.32847
18619.6 5.32082
18620.9 5.31492
18622.3 5.31032
18623.7 5.30659
18625.0 5.30356
18627.8 5.29897
18630.5 5.29567
18633.2 5.29322
18636.0 5.29135
18638.7 5.28989
18641.8 5.28857
18644.8 5.28752
18647.9 5.28665
18651.0 5.28593
18657.1 5.28475
18663.3 5.28381
18669.4 5.28301
18675.6 5.28232
18681.7 5.28168
18687.9 5.28109
18697.5 5.28022
18707.0 5.27938
18716.6 5.27856
18726.2 5.27776
18735.7 5.27696
18745.3 5.27617
18764.4 5.27459
18783.6 5.27300
18802.7 5.27142
18821.8 5.26983
18841.0 5.26825
18865.6 5.26621
18890.2 5.26418
18914.8 5.26215
18939.4 5.26013
18988.6 5.25611
19037.8 5.25213
19125.3 5.24516
19212.7 5.23836
19333.0 5.22932
19453.3 5.22075
19573.6 5.21286
19633.7 5.20929
19693.8 5.20606
19759.5 5.20316
19825.1 5.20122
19857.9 5.20081
19890.7 5.20088
19923.5 5.20169
19956.3 5.20342
19978.1 5.20530
20000.0 5.20795
20026.6 5.21258
20053.1 5.21935
20079.7 5.22929
20106.2 5.24407
20123.1 5.25730
20140.0 5.27477
20156.9 5.29857
20173.8 5.33173
20184.6 5.36031
20195.5 5.39697
20206.4 5.44490
20217.2 5.50910
20223.9 5.55976
20230.5 5.62223
20237.1 5.70037
20243.8 5.79962
20248.6 5.88987
20253.4 5.99987
20258.2 6.13632
20263.1 6.30785
20266.4 6.45309
20269.7 6.62697
20273.0 6.83735
20276.3 7.09405
20278.0 7.24485
20279.7 7.41339
20281.3 7.60247
20283.0 7.81547
20284.6 8.05640
20286.3 8.33014
20288.0 8.64257
20289.6 8.99861
20290.6 9.23755
20291.6 9.49539
20292.6 9.77688
20293.5 10.0848
20294.5 10.4222
20295.5 10.7927
20296.5 11.2001
20297.5 11.6489
20298.3 12.0650
20299.1 12.5176
20299.9 13.0102
20300.8 13.5466
20301.6 14.1308
20302.4 14.7669
20303.3 15.4592
20304.1 16.2023
20305.0 17.0590
20305.8 17.9784
20306.7 18.9843
20307.5 20.0543
20308.4 21.2115
20309.3 22.4247
20310.1 23.6981
20311.0 25.0192
20313.3 28.5721
20314.4 30.2773
20315.5 31.8214
20316.1 32.5254
20316.6 33.1498
20317.2 33.6981
20317.8 34.1616
20318.3 34.5387
20318.9 34.8098
20319.4 34.9778
20320.0 35.0400
20320.6 34.9934
20321.1 34.8408
20321.7 34.5793
20322.3 34.2229
20322.8 33.7650
20323.4 33.2292
20324.0 32.6054
20324.5 31.9249
20325.7 30.3882
20326.8 28.7015
20329.0 25.1947
20330.0 23.7774
20330.9 22.4295
20331.8 21.1371
20332.7 19.9378
20333.7 18.8103
20334.6 17.7801
20335.5 16.8233
20336.4 15.9570
20337.4 15.1659
20338.3 14.4445
20339.2 13.7875
20340.1 13.1953
20341.0 12.6497
20341.9 12.1525
20342.9 11.6990
20343.8 11.2891
20344.7 10.9099
20345.6 10.5663
20346.5 10.2476
20347.4 9.95794
20348.4 9.68839
20349.3 9.44260
20351.1 9.00326
20352.9 8.62435
20354.8 8.29903
20356.6 8.01640
20358.4 7.76951
20360.3 7.55164
20362.1 7.36054
20363.9 7.19118
20365.8 7.04043
20369.4 6.78420
20373.1 6.57714
20376.7 6.40707
20380.4 6.26572
20385.4 6.10827
20390.4 5.98242
20395.4 5.87972
20400.4 5.79504
20407.7 5.69514
20415.0 5.61684
20422.4 5.55430
20429.7 5.50358
20441.0 5.44201
20452.3 5.39518
20463.7 5.35849
20475.0 5.32923
20492.3 5.29465
20509.6 5.26862
20526.9 5.24853
20544.3 5.23246
20570.9 5.21336
20597.5 5.19887
20616.2 5.19064
20634.8 5.18359
20672.1 5.17205
20693.5 5.16660
20722.8 5.16009
20752.1 5.15442
20810.7 5.14495
20869.3 5.13713
20927.9 5.13039
21013.2 5.12185
21098.4 5.11430
21183.7 5.10742
21268.9 5.10105
21386.2 5.09293
21503.4 5.08549
21620.6 5.07870
21737.8 5.07268
21844.4 5.06804
21951.0 5.06441
22057.6 5.06223
22164.1 5.06200
22222.7 5.06310
22281.4 5.06536
22340.0 5.06910
22398.6 5.07483
22446.5 5.08151
22494.5 5.09056
22542.5 5.10277
22590.4 5.11932
22619.7 5.13238
22649.0 5.14838
22678.3 5.16814
22707.6 5.19282
22731.6 5.21784
22755.6 5.24857
22779.6 5.28680
22803.5 5.33507
22832.9 5.41394
22847.5 5.46480
22862.2 5.52604
22876.8 5.60085
22891.5 5.69353
22906.1 5.81048
22920.8 5.96122
22928.8 6.06246
22936.8 6.18145
22944.8 6.32269
22952.7 6.49207
22960.1 6.67918
22967.4 6.90553
22971.1 7.03720
22974.7 7.18316
22978.4 7.34605
22982.1 7.52863
22984.9 7.68599
22987.7 7.85845
22990.6 8.04869
22993.4 8.25919
22996.2 8.49288
22999.0 8.75342
23001.9 9.04542
23004.7 9.37432
23006.5 9.61094
23008.4 9.86646
23010.2 10.1445
23012.0 10.4477
23013.9 10.7793
23015.7 11.1429
23017.5 11.5428
23019.4 11.9841
23021.2 12.4752
23023.0 13.0181
23024.9 13.6233
23026.7 14.3009
23028.5 15.0626
23030.3 15.9228
23032.2 16.8987
23033.1 17.4396
23034.0 18.0117
23035.2 18.8068
23036.3 19.6689
23037.5 20.6220
23038.7 21.6607
23039.8 22.8152
23041.0 24.0801
23042.2 25.4938
23043.3 27.0511
23044.2 28.4107
23045.2 29.8940
23046.1 31.5146
23047.0 33.2680
23047.9 35.2096
23048.8 37.3400
23049.8 39.6800
23050.7 42.2226
23051.6 45.0475
23052.5 48.1173
23053.4 51.5244
23054.3 55.2177
23055.2 59.2993
23056.2 63.6959
23057.1 68.4573
23058.0 73.5798
23059.1 80.1628
23060.2 87.1658
23062.3 101.834
23063.4 109.164
23064.5 116.052
23065.6 122.314
23066.1 125.059
23066.7 127.516
23067.5 130.683
23068.3 132.928
23069.2 134.218
23070.0 134.471
23070.6 134.069
23071.1 133.239
23071.6 131.962
23072.2 130.304
23072.7 128.229
23073.3 125.843
23073.8 123.145
23074.4 120.172
23075.4 113.497
23076.5 106.193
23078.7 90.9965
23079.6 84.8805
23080.5 79.0499
23081.4 73.5012
23082.2 68.2785
23083.1 63.3531
23084.0 58.8449
23084.9 54.6934
23085.8 50.8869
23086.6 47.4455
23087.5 44.3035
23088.4 41.4387
23089.2 38.8284
23090.1 36.4503
23091.0 34.2830
23091.9 32.3066
23092.7 30.5223
23093.6 28.8721
23094.5 27.3623
23095.3 25.9789
23096.2 24.7096
23097.1 23.5431
23097.9 22.4696
23098.8 21.4800
23099.7 20.5763
23100.5 19.7306
23101.4 18.9473
23102.3 18.2206
23103.1 17.5456
23104.0 16.9175
23104.9 16.3323
23105.8 15.7863
23106.6 15.2820
23107.5 14.8046
23108.4 14.3575
23110.1 13.5449
23111.8 12.8273
23113.6 12.1944
23115.3 11.6274
23117.0 11.1205
23118.8 10.6658
23120.5 10.2564
23122.3 9.88673
23124.0 9.55184
23125.7 9.24763
23127.5 8.97204
23129.8 8.63261
23132.2 8.33142
23134.6 8.06311
23137.0 7.82314
23139.3 7.60758
23141.7 7.41319
23144.1 7.23733
23146.4 7.07847
23149.9 6.86991
23153.4 6.68803
23156.9 6.52766
23160.3 6.38641
23163.8 6.26071
23167.3 6.14903
23174.2 5.95943
23181.2 5.80543
23188.1 5.67900
23195.1 5.57408
23202.0 5.48619
23214.7 5.35963
23227.3 5.26391
23239.9 5.19011
23252.6 5.13227
23266.5 5.08206
23280.4 5.04238
23294.3 5.01055
23308.2 4.98470
23332.2 4.95049
23356.2 4.92545
23380.2 4.90679
23404.2 4.89268
23432.0 4.88047
23459.8 4.87152
23487.6 4.86510
23515.4 4.86078
23535.6 4.85885
23562.1 4.85797
23588.7 4.85941
23601.9 4.86136
23615.2 4.86453
23628.5 4.86950
23641.7 4.87716
23652.5 4.88687
23657.9 4.89353
23663.2 4.90194
23668.6 4.91268
23674.0 4.92666
23679.3 4.94549
23684.7 4.97166
23689.8 5.00675
23692.3 5.02994
23694.8 5.05825
23697.3 5.09367
23699.9 5.13866
23702.4 5.19710
23704.9 5.27457
23707.5 5.38133
23708.7 5.45070
23710.0 5.53391
23711.3 5.63677
23712.5 5.76398
23713.8 5.92540
23714.4 6.02296
23715.0 6.13461
23715.7 6.28081
23716.5 6.45332
23717.2 6.65821
23717.9 6.90289
23718.6 7.19625
23718.9 7.36685
23719.3 7.54868
23719.7 7.75363
23720.0 7.97186
23720.4 8.21745
23720.7 8.47830
23721.2 8.83943
23721.6 9.23053
23722.0 9.67217
23722.5 10.1461
23722.9 10.6755
23723.3 11.2365
23723.8 11.8544
23724.2 12.4990
23724.7 13.3765
23725.3 14.3032
23726.4 16.2394
23727.3 17.8894
23727.8 18.6542
23728.3 19.3611
23728.6 19.8264
23729.0 20.2460
23729.3 20.6139
23729.6 20.9247
23730.0 21.1741
23730.3 21.3581
23730.7 21.4742
23731.0 21.5204
23731.4 21.4945
23731.7 21.3983
23732.0 21.2338
23732.4 21.0035
23732.7 20.7109
23733.1 20.3606
23733.4 19.9577
23733.7 19.5079
23734.3 18.6348
23734.9 17.6909
23736.1 15.6794
23736.7 14.6542
23737.2 13.6622
23737.8 12.7228
23738.4 11.8643
23738.9 11.1692
23739.4 10.5332
23739.9 9.95670
23740.4 9.44804
23741.0 8.98424
23741.5 8.58002
23742.0 8.21505
23742.5 7.89931
23742.9 7.67378
23743.3 7.46998
23743.7 7.28582
23744.1 7.11937
23744.9 6.83247
23745.7 6.59654
23746.5 6.40114
23747.3 6.23796
23748.1 6.10047
23748.9 5.98493
23750.2 5.81933
23751.6 5.69043
23753.0 5.58657
23754.4 5.50267
23755.8 5.43290
23757.2 5.37500
23759.9 5.28418
23762.7 5.21665
23765.5 5.16521
23768.2 5.12512
23771.0 5.09332
23773.8 5.06771
23776.5 5.04680
23782.1 5.01505
23787.2 4.99396
23792.3 4.97829
23797.4 4.96647
23802.5 4.95749
23809.3 4.94878
23816.1 4.94279
23825.5 4.93762
23834.9 4.93517
23853.6 4.93590
23872.4 4.94217
23891.1 4.95296
23897.9 4.95797
23916.7 4.97490
23935.4 4.99701
23954.2 5.02550
23972.9 5.06220
23989.1 5.10270
24005.3 5.15425
24021.5 5.22118
24037.7 5.30982
24047.0 5.37555
24056.4 5.45546
24065.8 5.55423
24075.1 5.67861
24082.0 5.79085
24088.8 5.92726
24095.6 6.09604
24099.0 6.19616
24102.4 6.30890
24107.1 6.49004
24111.8 6.70850
24114.1 6.83544
24116.5 6.97576
24118.8 7.13219
24121.2 7.30737
24123.1 7.46735
24125.0 7.64423
24126.9 7.84055
24128.8 8.05811
24130.7 8.30281
24132.7 8.57653
24134.6 8.88764
24136.5 9.23970
24137.7 9.48198
24138.8 9.74365
24140.0 10.0293
24141.2 10.3421
24142.3 10.6855
24143.5 11.0638
24144.7 11.4819
24145.9 11.9458
24147.0 12.4671
24148.2 13.0454
24149.4 13.6952
24150.5 14.4287
24151.7 15.2610
24152.3 15.7238
24152.9 16.2106
24153.5 16.7411
24154.1 17.3006
24154.6 17.9124
24155.2 18.5598
24155.9 19.3328
24156.5 20.1740
24157.1 21.0914
24157.8 22.0940
24158.4 23.1919
24159.1 24.3967
24159.7 25.7212
24160.3 27.1560
24160.9 28.6310
24161.5 30.2471
24162.1 32.0190
24162.7 33.9279
24163.3 36.0558
24163.9 38.3878
24164.5 40.9403
24165.0 43.6791
24165.6 46.7118
24166.2 49.9454
24166.8 53.4967
24167.4 57.2449
24168.0 61.3113
24168.5 65.5411
24169.1 69.9741
24169.7 74.5722
24171.0 85.4447
24171.7 90.8062
24172.4 95.9770
24173.0 100.815
24173.7 105.174
24174.3 108.910
24175.0 111.889
24175.5 113.602
24176.0 114.737
24176.5 115.306
24177.0 115.294
24177.6 114.490
24178.2 112.840
24178.8 110.392
24179.4 107.277
24180.0 103.484
24180.6 99.2399
24181.3 94.5187
24181.9 89.5898
24184.1 70.2182
24184.7 65.5491
24185.3 61.1454
24185.8 56.8845
24186.4 52.9389
24187.0 49.1184
24187.5 45.6333
24188.1 42.4142
24188.7 39.4544
24189.2 36.7431
24189.8 34.2665
24190.4 32.0092
24191.0 29.9549
24191.5 28.0555
24192.1 26.3603
24192.7 24.8190
24193.2 23.4171
24193.8 22.1408
24194.4 20.9777
24195.0 19.9163
24195.5 18.9463
24196.0 18.2390
24196.4 17.5930
24196.9 16.9884
24197.3 16.4220
24197.7 15.8909
24198.2 15.3924
24199.1 14.4834
24199.9 13.6690
24200.8 12.9528
24201.7 12.3132
24202.6 11.7398
24203.7 11.0763
24204.9 10.5003
24206.0 9.99311
24207.2 9.54444
24208.3 9.14256
24209.4 8.78741
24210.6 8.46945
24211.7 8.18381
24213.0 7.90288
24214.2 7.65128
24215.5 7.42521
24216.7 7.22296
24218.0 7.03855
24219.2 6.87262
24221.7 6.58286
24224.0 6.35869
24226.3 6.16799
24228.6 6.00328
24230.8 5.86145
24233.1 5.73761
24235.4 5.62989
24237.7 5.53494
24240.0 5.45165
24245.0 5.30103
24249.9 5.18429
24254.9 5.09236
24259.9 5.01951
24269.1 4.92081
24278.2 4.85387
24287.3 4.80832
24296.5 4.77775
24306.5 4.75677
24309.8 4.75211
24316.4 4.74556
24329.7 4.74174
24348.0 4.75319
24366.3 4.78125
24384.6 4.82596
24402.8 4.89000
24417.8 4.96056
24432.8 5.05259
24447.7 5.17333
24455.2 5.24753
24462.7 5.33369
24471.8 5.45869
24480.9 5.61062
24490.1 5.79717
24494.7 5.90658
24499.2 6.02893
24503.8 6.16620
24508.4 6.32082
24512.9 6.49567
24517.5 6.69429
24522.1 6.92097
24526.6 7.18103
24531.2 7.48103
24535.8 7.82889
24538.3 8.04290
24540.8 8.27536
24543.3 8.52964
24545.8 8.80851
24548.3 9.11631
24550.7 9.45409
24553.2 9.82719
24555.7 10.2405
24558.0 10.6610
24560.3 11.1257
24562.6 11.6405
24564.9 12.2102
24567.2 12.8480
24569.4 13.5585
24571.7 14.3597
24574.0 15.2587
24576.0 16.1344
24578.0 17.1069
24579.9 18.2014
24581.9 19.4247
24582.9 20.0965
24583.9 20.8104
24584.9 21.5698
24585.9 22.3699
24586.9 23.2311
24587.8 24.1402
24588.8 25.1205
24589.8 26.1574
24591.0 27.4661
24592.1 28.8703
24593.2 30.3916
24594.4 32.0412
24595.5 33.8480
24596.7 35.7941
24597.8 37.9093
24598.9 40.2093
24600.1 42.7335
24601.2 45.4554
24602.4 48.4136
24603.5 51.6253
24604.7 55.1066
24605.8 58.8714
24606.9 62.9299
24608.1 67.2867
24608.9 70.5622
24609.7 73.9826
24611.3 81.1792
24612.9 88.8614
24614.5 96.7603
24616.2 104.719
24617.8 112.311
24619.4 119.198
24620.2 122.266
24621.0 124.969
24622.0 127.844
24623.0 130.026
24624.0 131.496
24625.0 132.183
24625.8 132.160
24626.7 131.610
24627.5 130.536
24628.3 128.987
24629.1 126.961
24630.0 124.548
24630.8 121.775
24631.6 118.691
24633.2 111.765
24634.9 104.275
24638.2 88.8782
24639.4 83.3889
24640.6 78.1774
24641.8 73.2002
24643.0 68.5636
24644.3 64.2015
24645.5 60.1852
24646.7 56.4698
24647.9 53.0420
24649.0 50.0360
24650.2 47.2596
24651.3 44.6967
24652.5 42.3313
24653.6 40.1480
24654.8 38.1318
24655.9 36.2688
24657.1 34.5605
24658.6 32.4122
24660.2 30.4875
24661.8 28.7374
24663.3 27.1627
24664.9 25.7241
24666.5 24.4235
24668.0 23.2297
24669.6 22.1456
24670.7 21.4051
24671.9 20.7102
24674.2 19.4433
24676.5 18.3203
24678.8 17.3248
24681.1 16.4312
24683.4 15.6331
24685.7 14.9113
24688.0 14.2621
24690.3 13.6711
24692.6 13.1341
24694.9 12.6445
24697.2 12.1990
24699.5 11.7888
24701.7 11.4136
24704.0 11.0666
24706.3 10.7478
24710.3 10.2508
24714.3 9.81414
24718.2 9.42772
24722.2 9.08493
24726.2 8.77813
24730.1 8.50379
24734.1 8.25622
24738.1 8.03308
24742.7 7.79978
24747.3 7.59102
24751.8 7.40301
24756.4 7.23303
24765.6 6.93837
24774.8 6.69263
24780.6 6.55659
24786.5 6.43418
24798.2 6.22269
24809.9 6.04735
24821.6 5.89934
24839.9 5.70961
24858.3 5.55885
24876.7 5.43651
24895.0 5.33549
24913.4 5.25064
24931.8 5.17839
24968.5 5.06179
25003.6 4.97507
25038.6 4.90447
25073.7 4.84537
25108.8 4.79459
25145.5 4.74792
25182.2 4.70617
25255.7 4.63256
25329.2 4.56682
25402.7 4.50455
25476.1 4.44280
25549.6 4.37924
25629.7 4.30523
25709.9 4.22356
25766.7 4.15925
25823.4 4.08803
25880.2 4.00848
25937.0 3.91856
25973.7 3.85407
26010.5 3.78428
26047.2 3.70934
26083.9 3.63042
26110.7 3.57228
26137.4 3.51654
26164.1 3.46875
26190.8 3.43984
26206.7 3.43968
26222.5 3.46107
26230.5 3.48338
26238.4 3.51601
26246.3 3.56121
26254.3 3.62297
26258.9 3.66805
26263.5 3.72099
26268.0 3.78305
26272.6 3.85563
26277.2 3.94055
26281.8 4.03933
26286.4 4.15438
26291.0 4.28830
26295.6 4.44452
26300.2 4.62601
26304.8 4.83732
26309.4 5.08349
26311.7 5.22177
26314.0 5.37043
26316.3 5.53167
26318.6 5.70507
26320.9 5.89320
26323.1 6.09555
26325.4 6.31512
26327.7 6.55131
26330.0 6.79948
26332.2 7.06574
26334.4 7.35392
26336.6 7.66296
26338.9 7.99725
26341.1 8.35542
26343.3 8.74241
26345.5 9.15643
26347.8 9.60294
26350.0 10.0796
26352.2 10.5924
26354.4 11.1382
26356.7 11.7233
26358.9 12.3435
26361.1 13.0048
26363.3 13.7016
26365.4 14.3989
26367.5 15.1257
26371.7 16.6701
26375.9 18.3146
26380.1 20.0206
26384.4 21.7378
26388.6 23.3896
26392.8 24.9032
26394.9 25.5840
26397.0 26.2022
26400.0 26.9728
26403.1 27.5781
26406.1 28.0037
26409.2 28.2463
26412.2 28.3101
26414.8 28.2357
26417.3 28.0559
26419.8 27.7820
26422.4 27.4260
26424.9 26.9989
26427.4 26.5164
26432.5 25.4287
26442.6 23.0441
26447.7 21.8573
26452.7 20.7199
26458.0 19.6042
26463.3 18.5705
26468.6 17.6212
26473.9 16.7559
26479.1 15.9666
26484.4 15.2492
26489.7 14.5974
26495.0 14.0060
26500.2 13.4667
26505.5 12.9752
26510.8 12.5264
26516.1 12.1159
26521.4 11.7396
26526.6 11.3939
26531.9 11.0756
26537.2 10.7824
26547.8 10.2591
26558.3 9.80839
26568.9 9.41662
26579.4 9.07356
26589.0 8.79750
26598.6 8.54967
26608.2 8.32564
26617.8 8.12286
26637.0 7.76922
26656.2 7.47093
26677.3 7.19146
26698.4 6.95079
26719.5 6.73940
26740.6 6.54985
26771.3 6.29988
26790.5 6.15188
26809.7 6.00416
26828.9 5.84971
26838.5 5.76698
26848.1 5.67798
26857.7 5.57989
26867.2 5.46888
26872.0 5.40662
26876.8 5.33857
26881.6 5.26343
26886.4 5.17954
26891.7 5.07368
26897.0 4.94943
26899.6 4.87849
26902.3 4.80027
26904.9 4.71345
26907.5 4.61674
26911.1 4.46402
26912.9 4.37698
26914.7 4.28143
26916.5 4.17618
26918.3 4.05991
26920.1 3.93149
26921.9 3.79133
26923.2 3.68620
26924.5 3.57855
26925.7 3.47497
26926.3 3.42882
26927.0 3.39020
26927.6 3.36350
26928.2 3.35479
26928.9 3.37238
26929.2 3.39481
26929.5 3.42734
26929.8 3.47401
26930.1 3.53400
26930.4 3.61361
26930.8 3.71043
26931.1 3.83364
26931.4 3.97860
26931.7 4.15198
26932.0 4.35715
26932.2 4.54006
26932.5 4.74584
26932.7 4.97620
26933.0 5.23288
26933.2 5.51759
26933.4 5.83202
26933.7 6.17781
26933.9 6.55652
26934.1 6.89830
26934.3 7.24580
26934.5 7.63624
26934.7 8.03113
26934.9 8.47250
26935.1 8.91656
26935.3 9.41029
26935.5 9.90444
26935.7 10.4510
26935.9 10.9951
26936.1 11.5937
26936.3 12.1864
26936.7 13.4737
26937.0 14.8495
26937.4 16.3030
26937.8 17.8208
26938.6 20.9808
26939.3 23.6835
26939.9 26.2925
26940.5 28.2391
26941.0 29.9574
26941.2 30.7288
26941.5 31.4339
26941.8 32.0676
26942.0 32.6054
26942.2 33.0526
26942.5 33.4155
26942.9 33.8797
26943.2 34.1462
26943.6 34.2293
26944.0 34.1289
26944.3 33.9112
26944.6 33.5908
26945.0 33.1696
26945.3 32.6561
26945.7 31.8080
26946.1 30.8262
26946.6 29.7382
26947.0 28.5718
26947.9 25.9069
26948.8 23.2396
26949.3 22.0579
26949.7 20.9276
26950.1 19.8580
26950.6 18.8557
26951.0 17.9243
26951.4 17.0652
26951.9 16.2777
26952.3 15.5756
26952.8 14.8079
26953.3 14.1264
26953.8 13.5234
26954.3 13.0005
26954.8 12.5287
26955.3 12.1192
26955.8 11.7485
26956.3 11.4250
26957.2 10.9459
26958.0 10.5454
26958.9 10.2062
26959.8 9.91814
26960.6 9.66476
26961.5 9.44471
26962.3 9.24725
26963.2 9.07275
26964.5 8.83344
26965.8 8.62878
26967.2 8.44897
26968.5 8.29181
26971.1 8.02623
26973.8 7.81163
26977.2 7.58610
26980.6 7.40408
26984.1 7.25373
26987.5 7.12719
26990.8 7.02365
26994.0 6.93325
27000.6 6.78245
27007.1 6.66113
27013.6 6.56084
27022.4 6.45049
27031.1 6.35971
27039.8 6.28301
27048.5 6.21681
27062.3 6.12859
27076.0 6.05466
27089.7 5.99104
27103.4 5.93531
27128.3 5.84882
27153.2 5.77595
27203.1 5.65731
27257.9 5.55364
27312.7 5.46753
27422.4 5.32823
27462.2 5.28495
27547.0 5.20188
27631.7 5.12770
27716.5 5.05958
27801.2 4.99581
27873.5 4.94372
27909.6 4.91818
27945.7 4.89291
27981.9 4.86782
28018.0 4.84292
28036.1 4.83053
28054.2 4.81822
28072.2 4.80602
28090.3 4.79402
28102.7 4.78598
28115.2 4.77827
28127.7 4.77114
28133.9 4.76793
28140.1 4.76503
28146.0 4.76273
28152.0 4.76108
28157.9 4.76037
28163.8 4.76105
28169.7 4.76389
28172.7 4.76651
28175.6 4.77023
28178.6 4.77538
28181.6 4.78249
28184.5 4.79239
28187.5 4.80622
28189.7 4.82001
28191.9 4.83793
28194.0 4.86170
28196.2 4.89394
28198.4 4.93904
28199.5 4.96864
28200.6 5.00488
28201.7 5.05007
28202.8 5.10784
28203.8 5.18414
28204.9 5.28903
28205.8 5.40913
28206.3 5.48543
28206.7 5.57371
28207.2 5.68116
28207.6 5.80981
28208.1 5.96432
28208.5 6.14566
28209.0 6.36833
28209.4 6.63588
28209.9 6.95651
28210.1 7.13528
28210.3 7.32999
28210.5 7.55185
28210.8 7.78278
28211.0 8.04508
28211.2 8.31718
28211.4 8.62512
28211.7 8.94331
28211.9 9.28577
28212.1 9.65355
28212.3 10.0477
28212.5 10.4492
28212.7 10.8972
28213.0 11.3516
28213.2 11.8560
28213.4 12.3650
28213.6 12.9272
28213.8 13.4914
28214.2 14.7293
28214.7 16.0739
28215.1 17.5159
28215.5 19.0055
28216.0 20.7464
28216.5 22.4981
28217.4 26.0419
28218.0 28.1706
28218.3 29.1818
28218.6 30.0988
28219.0 31.3266
28219.4 32.3469
28219.9 33.2139
28220.3 33.8111
28220.7 34.0974
28221.0 34.2105
28221.0 34.2122
28221.2 34.2053
28221.3 34.1810
28221.5 34.0807
28221.9 33.6769
28222.3 33.1182
28222.7 32.3780
28223.1 31.4724
28223.4 30.4502
28223.8 29.4378
28224.1 28.3804
28224.7 26.1001
28225.7 22.2524
28226.3 20.3431
28226.8 18.5384
28227.2 17.0313
28227.6 15.6180
28228.1 14.3103
28228.3 13.6985
28228.5 13.1155
28228.7 12.5616
28229.0 12.0367
28229.2 11.5407
28229.4 11.0732
28229.6 10.6337
28229.8 10.2215
28230.1 9.83579
28230.3 9.49148
28230.5 9.15484
28230.7 8.84179
28230.9 8.55121
28231.1 8.28197
28231.4 8.03292
28231.6 7.80288
28231.8 7.59071
28232.0 7.39525
28232.5 7.05006
28232.9 6.75877
28233.3 6.51354
28233.8 6.30728
28234.2 6.13375
28234.7 5.98749
28235.1 5.86384
28235.5 5.75887
28236.0 5.66928
28236.4 5.59234
28237.3 5.46785
28238.3 5.36538
28239.2 5.28553
28240.2 5.22145
28241.1 5.16925
28243.0 5.08726
28244.9 5.02673
28246.8 4.97978
28248.7 4.94269
28250.6 4.91240
28252.5 4.88745
28254.9 4.86097
28257.3 4.83934
28259.8 4.82136
28262.2 4.80621
28267.1 4.78171
28272.0 4.76272
28276.8 4.74741
28281.7 4.73473
28286.6 4.72392
28291.5 4.71455
28300.1 4.70024
28308.8 4.68799
28317.5 4.67718
28326.1 4.66739
28334.8 4.65833
28343.4 4.64983
28360.8 4.63393
28378.1 4.61899
28395.4 4.60470
28412.8 4.59084
28430.1 4.57727
28464.8 4.55071
28499.4 4.52462
28564.4 4.47656
28629.4 4.42981
28694.4 4.38540
28759.4 4.34588
28802.7 4.32444
28846.0 4.30937
28880.7 4.30431
28915.3 4.30832
28950.0 4.32517
28984.6 4.36116
29008.5 4.40149
29032.3 4.45934
29056.1 4.54073
29068.0 4.59278
29079.9 4.65419
29090.2 4.71609
29100.5 4.78755
29110.8 4.87015
29121.1 4.96578
29131.4 5.07675
29141.7 5.20584
29152.0 5.35564
29162.3 5.53171
29168.2 5.64764
29174.2 5.77500
29180.1 5.91561
29186.1 6.07062
29192.0 6.24243
29198.0 6.43263
29204.0 6.64440
29209.9 6.87997
29215.9 7.14362
29221.8 7.43907
29227.8 7.77119
29233.7 8.14510
29239.7 8.56897
29245.7 9.05056
29251.6 9.59995
29254.6 9.90379
29257.6 10.2283
29261.4 10.6779
29265.2 11.1691
29268.9 11.7073
29272.7 12.2989
29276.5 12.9517
29280.3 13.6736
29284.1 14.4731
29287.9 15.3602
29290.9 16.1268
29293.9 16.9611
29296.8 17.8702
29299.8 18.8621
29302.8 19.9453
29305.8 21.1293
29308.8 22.4245
29311.7 23.8369
29314.8 25.4257
29317.8 27.1617
29320.9 29.0626
29323.9 31.1406
29326.9 33.4063
29330.0 35.8670
29333.0 38.5254
29336.1 41.3767
29340.0 45.3427
29343.9 49.5214
29351.8 57.9971
29355.8 61.8756
29357.7 63.6056
29359.7 65.1462
29361.7 66.4614
29363.6 67.5182
29365.6 68.2881
29367.6 68.7492
29370.0 68.8730
29372.0 68.6064
29374.0 68.0183
29375.9 67.1233
29377.9 65.9440
29379.9 64.5095
29381.8 62.8538
29383.8 61.0136
29385.8 59.0270
29389.7 54.7626
29393.7 50.3313
29397.6 45.9421
29401.5 41.7428
29403.5 39.7475
29405.5 37.8328
29407.4 36.0030
29409.4 34.2688
29411.4 32.6125
29413.3 31.0500
29415.3 29.5636
29417.3 28.1661
29419.2 26.8403
29421.2 25.5903
29423.2 24.4126
29425.1 23.3090
29427.1 22.2645
29429.1 21.2862
29431.0 20.3604
29433.0 19.4931
29435.1 18.6278
29437.2 17.8154
29439.2 17.0525
29441.3 16.3358
29443.4 15.6622
29445.5 15.0287
29447.6 14.4327
29449.6 13.8717
29451.7 13.3433
29453.8 12.8455
29455.9 12.3762
29458.0 11.9335
29460.0 11.5159
29462.1 11.1218
29466.3 10.3998
29470.4 9.75400
29474.6 9.17761
29478.7 8.66338
29482.9 8.20629
29487.1 7.79912
29491.2 7.43971
29495.4 7.12302
29499.5 6.84797
29502.5 6.67182
29505.6 6.51635
29508.6 6.38016
29511.6 6.26397
29514.6 6.16696
29517.7 6.08992
29520.7 6.03279
29523.7 5.99607
29526.7 5.98041
29530.9 5.99495
29535.0 6.05404
29537.1 6.10141
29539.2 6.16140
29541.3 6.23461
29543.4 6.32128
29545.4 6.42299
29547.5 6.54020
29549.6 6.67382
29551.7 6.82487
29553.8 6.99443
29555.8 7.18372
29557.9 7.39406
29560.0 7.62569
29562.8 7.98253
29565.7 8.38691
29568.5 8.84636
29571.3 9.36298
29574.2 9.94686
29577.0 10.6012
29579.8 11.3382
29582.7 12.1608
29584.7 12.8267
29586.8 13.5486
29588.9 14.3306
29591.0 15.1727
29593.1 16.0873
29595.1 17.0752
29597.2 18.1408
29599.3 19.2832
29600.7 20.1284
29602.2 21.0169
29603.6 21.9502
29605.0 22.9295
29606.5 23.9559
29607.9 25.0304
29610.8 27.3170
29613.7 29.8070
29616.6 32.4900
29619.4 35.3571
29622.3 38.3793
29625.5 41.9306
29628.7 45.5841
29635.2 52.9101
29638.4 56.3947
29641.6 59.5953
29644.8 62.4147
29646.4 63.6547
29648.0 64.7583
29650.9 66.3863
29653.7 67.5478
29656.6 68.2320
29659.4 68.4484
29661.6 68.3202
29663.7 67.9623
29665.9 67.3952
29668.0 66.6414
29670.2 65.7204
29672.3 64.6648
29676.6 62.2334
29680.9 59.5189
29685.1 56.6826
29693.7 51.0164
29700.3 46.9244
29703.6 45.0135
29706.9 43.1987
29710.2 41.4817
29713.5 39.8618
29716.7 38.3366
29720.0 36.9025
29723.9 35.3187
29727.8 33.8485
29731.7 32.4842
29735.6 31.2180
29739.5 30.0431
29743.4 28.9519
29747.3 27.9355
29751.1 26.9899
29757.7 25.5258
29764.3 24.2222
29770.9 23.0553
29777.5 22.0069
29784.1 21.0616
29790.6 20.2061
29797.2 19.4293
29803.8 18.7216
29810.4 18.0748
29817.0 17.4819
29823.5 16.9369
29830.1 16.4345
29836.7 15.9703
29843.3 15.5402
29856.4 14.7692
29867.2 14.2156
29878.0 13.7186
29888.7 13.2700
29899.5 12.8642
29910.3 12.4956
29921.1 12.1597
29931.8 11.8527
29942.6 11.5715
29956.9 11.2304
29971.3 10.9258
29985.7 10.6524
30000.0 10.4073
30012.8 10.2114
30025.5 10.0359
30038.3 9.88119
30051.1 9.75007
30062.7 9.65582
30068.5 9.62004
30074.3 9.59422
30080.7 9.58040
30087.0 9.58700
30093.4 9.62235
30099.8 9.70035
30103.6 9.77584
30107.3 9.88222
30111.1 10.0318
30114.9 10.2430
30117.6 10.4532
30120.4 10.7289
30121.8 10.9002
30123.2 11.0994
30124.5 11.3327
30125.9 11.6054
30127.5 11.9894
30128.3 12.2138
30129.1 12.4610
30129.9 12.7411
30130.7 13.0562
30131.5 13.4121
30132.3 13.8106
30133.1 14.2706
30133.9 14.7981
30134.7 15.4063
30135.5 16.1019
30136.3 16.9220
30136.7 17.3829
30137.1 17.8822
30137.5 18.4236
30137.9 19.0110
30138.3 19.6489
30138.7 20.3237
30139.1 21.0748
30139.5 21.8908
30139.9 22.7770
30140.3 23.7389
30140.7 24.7819
30141.1 25.9114
30141.5 27.1328
30141.9 28.4167
30142.3 29.8333
30142.7 31.3547
30143.1 32.9835
30143.5 34.7215
30143.9 36.5688
30144.3 38.5241
30144.7 40.5841
30145.0 42.6882
30145.8 47.2676
30146.6 52.1217
30148.2 62.0291
30149.2 67.4568
30149.6 69.9555
30150.1 72.2069
30150.5 74.2712
30151.0 76.0225
30151.4 77.5051
30151.9 78.6271
30152.4 79.5382
30153.0 79.8868
30153.5 79.7448
30153.9 79.2350
30154.4 78.3456
30154.8 77.1329
30155.3 75.5674
30155.7 73.7467
30156.2 71.6248
30156.6 69.3309
30157.1 66.8601
30157.5 64.3111
30158.4 58.9024
30159.3 53.3888
30160.2 48.0710
30160.7 45.3500
30161.1 42.7939
30161.6 40.3070
30162.1 38.0057
30162.5 35.7970
30163.0 33.7781
30163.5 31.8614
30163.9 30.1263
30164.4 28.4929
30164.8 27.0248
30165.3 25.6511
30165.8 24.4224
30166.2 23.2770
30166.7 22.2554
30167.2 21.3239
30167.6 20.4748
30168.2 19.4789
30168.8 18.6090
30169.4 17.8342
30170.0 17.1427
30170.6 16.5239
30171.2 15.9688
30171.8 15.4691
30172.4 15.0180
30173.3 14.3915
30174.2 13.8515
30175.1 13.3827
30176.1 12.9729
30177.0 12.6123
30177.9 12.2931
30178.9 12.0091
30179.8 11.7576
30180.9 11.4897
30182.0 11.2522
30184.2 10.8524
30186.4 10.5269
30188.6 10.2597
30190.4 10.0673
30192.3 9.90021
30196.0 9.62548
30199.7 9.40806
30203.4 9.23262
30209.5 9.00734
30215.6 8.83430
30221.7 8.69599
30227.7 8.58216
30235.8 8.45652
30243.9 8.35226
30252.0 8.26306
30260.1 8.18494
30267.6 8.12052
30275.0 8.06167
30289.9 7.95681
30304.7 7.86474
30319.6 7.78214
30338.5 7.68730
30357.4 7.60150
30376.3 7.52301
30395.2 7.45036
30424.9 7.34608
30454.6 7.25189
30484.4 7.16601
30514.1 7.08723
30554.6 6.98950
30595.1 6.90143
30635.6 6.82125
30676.1 6.74806
30735.6 6.65144
30795.0 6.56553
30854.4 6.48855
30913.9 6.41917
31016.5 6.31424
31119.2 6.22438
31221.8 6.14648
31324.4 6.07816
31443.3 6.00915
31562.2 5.94883
31681.0 5.89573
31799.9 5.84882
31972.8 5.79025
32080.8 5.75903
32188.9 5.73182
32307.7 5.70741
32367.1 5.69788
32426.6 5.69074
32472.5 5.68739
32518.4 5.68665
32564.3 5.68948
32610.3 5.69783
32640.0 5.70764
32669.7 5.72264
32699.4 5.74538
32714.3 5.76094
32729.1 5.78023
32744.0 5.80451
32758.8 5.83556
32773.7 5.87576
32788.5 5.92884
32798.7 5.97537
32808.8 6.03332
32818.9 6.10676
32829.1 6.20209
32836.5 6.29114
32843.9 6.40248
32851.3 6.54431
32858.8 6.72861
32863.2 6.86501
32867.5 7.02853
32871.9 7.22718
32876.3 7.47180
32880.0 7.72631
32881.9 7.87398
32883.8 8.03701
32885.6 8.21966
32887.5 8.42407
32889.3 8.65385
32891.2 8.91186
32892.6 9.13635
32894.1 9.38294
32895.5 9.65855
32896.9 9.96344
32898.4 10.3068
32899.8 10.6897
32901.2 11.1247
32902.7 11.6143
32903.6 11.9682
32904.5 12.3540
32905.5 12.7755
32906.4 13.2370
32907.3 13.7432
32908.2 14.2999
32909.2 14.9133
32910.1 15.5828
32911.0 16.3312
32912.0 17.1604
32912.9 18.0805
32913.8 19.1025
32914.7 20.2379
32915.7 21.4992
32916.6 22.8985
32917.5 24.4302
32918.4 26.0990
32919.3 27.9277
32920.3 29.9193
32921.2 32.0465
32922.1 34.3467
32923.0 36.7509
32924.8 41.8476
32926.7 47.2701
32927.7 49.7983
32928.6 52.0615
32929.6 54.0159
32930.0 54.8405
32930.5 55.5367
32931.0 56.1257
32931.5 56.5843
32932.0 56.9064
32932.4 57.0857
32933.0 57.1176
32933.5 56.9851
32934.0 56.7100
32934.4 56.2955
32934.9 55.7462
32935.4 55.0686
32935.9 54.2703
32936.8 52.3709
32937.8 50.0901
32938.7 47.5657
32940.7 42.0513
32942.0 38.0938
32943.4 34.2970
32944.0 32.4864
32944.7 30.7834
32945.4 29.1440
32946.1 27.6207
32946.7 26.2728
32947.3 25.0262
32947.9 23.8393
32948.6 22.7474
32949.2 21.7122
32949.8 20.7633
32950.4 19.8661
32951.1 19.0452
32951.6 18.3773
32952.1 17.7505
32952.7 17.1622
32953.2 16.6102
32954.3 15.6052
32955.4 14.7181
32956.5 13.9334
32957.5 13.2374
32958.6 12.6185
32959.7 12.0713
32960.9 11.5039
32962.2 11.0032
32963.4 10.5595
32964.7 10.1649
32965.9 9.81262
32967.2 9.49705
32968.4 9.21339
32969.7 8.95954
32970.9 8.72797
32972.2 8.51791
32973.4 8.32682
32974.7 8.15255
32977.2 7.84719
32979.7 7.59057
32982.1 7.38022
32984.4 7.19937
32986.8 7.04153
32989.2 6.90411
32991.6 6.78283
32994.0 6.67618
32998.7 6.49690
33003.7 6.34734
33008.7 6.22713
33013.7 6.12919
33018.7 6.04863
33028.7 5.92457
33038.7 5.83494
33048.7 5.76831
33058.7 5.71755
33066.9 5.68446
33075.0 5.65728
33091.4 5.61520
33107.7 5.58466
33124.1 5.56179
33138.6 5.54591
33153.2 5.53308
33160.4 5.52760
33189.5 5.50982
33218.5 5.49683
33245.8 5.48744
33273.0 5.47987
33300.3 5.47359
33327.5 5.46828
33382.0 5.45954
33436.5 5.45266
33494.7 5.44679
33552.8 5.44216
33610.9 5.43870
33669.1 5.43643
33749.0 5.43551
33828.9 5.43766
33908.9 5.44378
33988.8 5.45534
34046.9 5.46844
34105.0 5.48691
34163.2 5.51256
34221.3 5.54832
34261.3 5.58093
34301.2 5.62234
34341.2 5.67544
34381.2 5.74438
34412.1 5.81240
34442.9 5.89766
34473.8 6.00561
34504.7 6.14547
34524.7 6.25870
34544.7 6.39529
34564.6 6.56195
34584.6 6.76782
34594.6 6.88942
34604.6 7.02590
34614.6 7.17989
34624.6 7.35442
34634.6 7.55319
34644.6 7.78076
34654.6 8.04277
34664.6 8.34545
34674.6 8.69877
34684.5 9.11429
34689.5 9.34990
34694.5 9.60628
34699.5 9.88699
34704.5 10.1938
34709.5 10.5313
34714.5 10.9020
34719.5 11.3118
34724.5 11.7642
34729.5 12.2671
34734.5 12.8254
34739.5 13.4482
34744.5 14.1450
34749.5 14.9287
34754.5 15.8109
34759.5 16.8069
34762.0 17.3531
34764.5 17.9323
34767.0 18.5517
34769.5 19.2121
34772.0 19.9164
34774.5 20.6649
34777.0 21.4669
34779.5 22.3232
34782.0 23.2376
34784.4 24.2100
34787.0 25.2780
34789.6 26.4149
34792.1 27.6337
34794.7 28.9288
34797.2 30.3135
34799.8 31.7798
34802.3 33.3349
34804.9 34.9796
34807.4 36.7204
34810.0 38.5406
34815.1 42.4157
34825.3 50.6127
34828.1 52.8343
34831.0 54.9396
34833.8 56.8699
34836.7 58.5592
34839.5 59.9609
34842.3 61.0167
34845.2 61.6850
34848.0 61.9387
34850.3 61.8335
34852.6 61.4510
34854.9 60.8026
34857.2 59.9110
34859.5 58.7924
34861.8 57.4845
34864.2 56.0069
34866.5 54.4043
34871.1 50.9235
34875.7 47.2748
34880.3 43.6386
34884.9 40.1420
34888.2 37.7889
34891.4 35.5755
34894.7 33.5027
34898.0 31.5730
34901.3 29.7792
34904.5 28.1273
34907.8 26.6045
34911.1 25.2029
34914.1 24.0009
34917.2 22.8894
34920.2 21.8616
34923.2 20.9138
34926.3 20.0338
34929.3 19.2215
34932.3 18.4663
34935.4 17.7684
34938.0 17.2035
34940.6 16.6759
34945.9 15.7146
34951.1 14.8610
34956.3 14.1039
34961.6 13.4283
34966.8 12.8257
34972.1 12.2856
34977.3 11.8000
34983.4 11.2966
34989.5 10.8484
34995.5 10.4477
35001.6 10.0883
35007.7 9.76479
35013.7 9.47276
35019.8 9.20833
35025.9 8.96820
35032.5 8.73037
35039.1 8.51535
35045.8 8.31980
35052.4 8.14202
35065.6 7.83118
35078.9 7.57078
35091.0 7.36604
35103.2 7.18918
35115.3 7.03549
35127.4 6.90138
35139.6 6.78391
35151.7 6.68076
35176.0 6.51014
35200.3 6.37820
35224.6 6.27769
35248.9 6.20424
35273.1 6.15599
35282.0 6.14472
35290.8 6.13696
35307.4 6.13258
35323.9 6.14318
35340.5 6.17206
35357.0 6.22517
35368.1 6.27829
35379.1 6.35034
35390.2 6.44772
35401.2 6.58006
35407.3 6.67386
35413.3 6.78798
35419.4 6.92924
35422.4 7.01346
35425.5 7.10896
35429.3 7.25243
35431.3 7.33558
35433.2 7.42871
35435.1 7.53429
35437.1 7.65596
35439.0 7.79933
35440.9 7.97385
35442.0 8.09445
35443.1 8.23443
35444.2 8.40352
35445.3 8.60843
35445.9 8.73100
35446.5 8.86582
35447.0 9.01698
35447.6 9.18657
35448.1 9.37669
35448.7 9.58935
35449.2 9.82626
35449.8 10.0887
35450.3 10.3994
35450.9 10.7400
35452.1 11.4951
35453.3 12.3313
35454.5 13.1678
35455.1 13.6082
35455.8 13.9965
35456.4 14.3250
35457.1 14.5660
35457.5 14.6628
35457.8 14.7237
35458.2 14.7471
35458.6 14.7324
35459.1 14.6437
35459.7 14.4796
35460.0 14.3308
35460.6 13.9877
35461.3 13.5589
35461.9 13.0608
35462.5 12.5217
35463.8 11.3673
35464.4 10.7999
35465.0 10.2584
35465.5 9.85782
35466.0 9.48705
35466.5 9.14988
35467.0 8.84876
35467.5 8.58485
35467.9 8.35818
35468.4 8.16781
35468.9 8.01200
35469.4 7.88842
35469.9 7.79431
35470.4 7.72669
35470.9 7.68246
35471.4 7.65856
35471.9 7.65208
35472.8 7.68024
35473.8 7.74909
35474.8 7.84450
35475.8 7.95656
35476.8 8.07882
35477.7 8.20734
35478.7 8.33998
35480.7 8.61406
35482.6 8.89913
35484.6 9.19711
35488.5 9.84178
35490.5 10.1962
35492.4 10.5756
35494.4 10.9830
35496.3 11.4190
35498.3 11.8912
35500.3 12.4000
35502.2 12.9482
35504.2 13.5346
35506.9 14.4405
35509.7 15.4282
35512.5 16.4945
35515.2 17.6242
35520.7 19.9552
35523.5 21.0648
35526.3 22.0566
35528.4 22.7149
35530.6 23.2247
35532.8 23.5595
35533.9 23.6550
35535.0 23.7014
35536.4 23.6870
35537.9 23.5880
35539.3 23.4073
35540.7 23.1518
35542.1 22.8242
35543.6 22.4340
35545.0 21.9898
35546.4 21.5044
35549.3 20.4297
35552.1 19.2874
35557.8 17.0048
35559.9 16.2408
35561.9 15.5150
35563.9 14.8314
35566.0 14.1920
35568.0 13.5971
35570.0 13.0458
35572.1 12.5365
35574.1 12.0692
35577.3 11.4031
35580.5 10.8185
35583.7 10.3051
35586.9 9.85508
35590.1 9.45746
35593.3 9.10646
35596.5 8.79575
35599.7 8.52066
35603.0 8.26396
35606.4 8.03575
35609.7 7.83216
35613.1 7.64993
35616.4 7.48625
35619.8 7.33878
35626.5 7.08466
35633.8 6.85736
35641.1 6.67038
35648.4 6.51489
35655.7 6.38438
35662.4 6.28171
35669.1 6.19255
35682.5 6.04613
35695.9 5.93158
35709.3 5.84009
35726.3 5.74752
35743.4 5.67442
35760.4 5.61549
35777.5 5.56670
35804.3 5.50523
35831.1 5.45698
35857.9 5.41792
35884.7 5.38552
35931.0 5.34058
35977.2 5.30497
36023.5 5.27567
36069.8 5.25075
36147.8 5.21557
36225.7 5.18605
36303.7 5.16015
36381.6 5.13667
36488.8 5.10693
36596.0 5.07886
36703.2 5.05143
36810.3 5.02390
36917.5 4.99543
37024.7 4.96520
37131.9 4.93219
37239.1 4.89499
37365.8 4.84253
37429.1 4.81116
37492.4 4.77484
37538.7 4.74411
37585.0 4.70877
37631.3 4.66732
37677.6 4.61774
37704.4 4.58401
37731.2 4.54559
37758.0 4.50126
37784.8 4.44942
37807.9 4.39684
37831.0 4.33490
37854.2 4.26063
37877.3 4.17004
37890.7 4.10748
37904.1 4.03548
37917.5 3.95169
37930.9 3.85297
37942.5 3.75225
37954.1 3.63312
37965.6 3.49017
37971.4 3.40752
37977.2 3.31589
37983.9 3.19621
37990.6 3.05942
37997.3 2.90201
38000.7 2.81428
38004.0 2.71975
38007.4 2.61783
38010.7 2.50792
38014.1 2.38954
38017.4 2.26243
38020.8 2.12686
38024.1 1.98410
38027.5 1.83740
38030.8 1.69403
38032.2 1.63949
38033.5 1.58963
38034.9 1.54678
38036.3 1.51416
38037.7 1.49620
38038.3 1.49458
38039.0 1.49911
38039.7 1.51109
38040.4 1.53155
38041.1 1.56276
38041.8 1.60575
38042.6 1.67905
38043.4 1.77956
38043.9 1.84196
38044.3 1.91366
38044.7 1.99566
38045.1 2.08673
38045.5 2.19251
38046.0 2.31227
38046.4 2.44747
38046.8 2.59588
38047.2 2.76643
38047.6 2.95757
38048.0 3.17131
38048.5 3.40380
38049.0 3.74953
38049.5 4.13710
38050.1 4.57754
38050.3 4.82394
38050.6 5.07612
38050.9 5.35418
38051.1 5.64943
38051.4 5.96256
38051.7 6.28163
38051.9 6.63186
38052.2 6.98789
38052.5 7.37770
38052.7 7.77298
38053.1 8.45396
38053.6 9.18894
38054.0 9.97931
38054.4 10.8261
38054.8 11.7296
38055.2 12.6898
38055.7 13.7058
38056.1 14.7761
38056.4 15.6806
38056.8 16.6175
38057.4 18.5798
38058.1 20.6422
38058.8 22.7779
38059.8 26.0146
38060.8 29.1854
38061.8 32.1881
38062.3 33.5839
38062.8 34.8877
38063.4 36.3096
38064.0 37.5547
38064.5 38.4598
38065.0 39.2012
38065.5 39.7922
38066.0 40.2294
38066.6 40.5537
38067.2 40.6522
38067.8 40.5339
38068.5 40.2126
38069.1 39.7060
38069.7 39.0349
38070.3 38.2221
38070.9 37.2914
38071.5 36.1971
38072.2 35.0432
38073.5 32.5888
38074.8 30.1062
38076.0 27.7434
38077.3 25.5445
38078.0 24.5199
38078.6 23.5688
38079.3 22.6617
38079.9 21.8258
38080.6 21.0447
38081.2 20.3162
38081.8 19.6271
38082.5 18.9956
38083.1 18.4075
38083.8 17.8597
38085.1 16.8657
38086.3 16.0062
38087.5 15.3141
38088.7 14.6981
38089.8 14.1472
38091.0 13.6524
38092.2 13.2058
38093.4 12.8012
38094.5 12.4332
38095.7 12.0998
38097.0 11.7614
38098.3 11.4530
38099.6 11.1707
38100.8 10.9135
38103.4 10.4556
38106.0 10.0627
38107.8 9.81019
38109.7 9.58157
38113.5 9.18372
38117.2 8.84952
38120.9 8.56509
38126.1 8.23683
38131.2 7.96588
38136.4 7.73810
38141.5 7.54508
38149.0 7.31204
38156.5 7.12259
38164.0 6.96655
38171.4 6.83725
38181.7 6.69452
38192.0 6.58516
38202.3 6.50446
38212.6 6.45055
38220.1 6.42850
38228.5 6.42291
38236.9 6.44167
38245.3 6.49200
38249.5 6.53279
38253.7 6.58727
38258.9 6.67779
38264.0 6.80337
38266.6 6.88376
38269.2 6.97925
38271.7 7.09337
38274.3 7.23084
38277.1 7.41563
38279.9 7.64749
38281.3 7.78768
38282.7 7.94632
38284.1 8.12825
38285.5 8.33844
38286.7 8.53123
38287.8 8.74838
38288.9 8.99676
38290.0 9.28308
38291.1 9.61604
38292.2 10.0070
38293.3 10.4710
38293.9 10.7388
38294.4 11.0278
38295.1 11.4072
38295.7 11.8269
38296.4 12.2995
38297.0 12.8334
38297.6 13.4482
38298.3 14.1359
38298.9 14.9172
38299.6 15.8052
38300.1 16.6806
38300.7 17.6393
38301.2 18.7257
38301.8 19.9096
38302.3 21.2423
38302.9 22.6830
38303.5 24.2888
38304.0 26.0047
38304.7 28.2087
38305.3 30.5574
38305.9 33.0675
38306.6 35.7143
38309.2 46.9367
38310.0 50.3276
38310.8 53.3334
38311.2 54.6638
38311.6 55.8570
38312.0 56.8981
38312.4 57.7740
38312.8 58.4435
38313.2 58.9456
38313.6 59.2746
38314.0 59.4271
38314.4 59.3891
38314.9 59.1450
38315.3 58.7010
38315.7 58.0646
38316.1 57.2244
38316.5 56.2326
38317.0 55.0867
38317.4 53.8033
38318.1 51.4442
38318.8 48.8475
38320.1 43.3235
38321.5 37.8550
38322.2 35.2784
38322.9 32.8650
38323.3 31.5337
38323.7 30.2729
38324.1 29.0854
38324.4 27.9999
38324.8 26.9611
38325.2 25.9977
38325.6 25.1086
38326.0 24.3116
38326.7 23.1813
38327.3 22.2101
38327.9 21.3864
38328.5 20.7078
38329.1 20.1401
38329.7 19.6897
38330.4 19.3307
38331.0 19.0643
38331.8 18.8277
38332.6 18.7073
38333.4 18.6861
38334.2 18.7496
38335.0 18.8848
38335.8 19.0801
38337.4 19.6059
38340.1 20.6950
38341.4 21.2544
38342.7 21.7707
38344.0 22.2051
38345.4 22.5231
38346.7 22.6965
38348.0 22.7061
38348.8 22.6307
38349.6 22.4968
38350.3 22.3053
38351.1 22.0585
38351.9 21.7599
38352.6 21.4140
38354.2 20.6013
38355.7 19.6605
38357.3 18.6526
38360.3 16.5933
38362.0 15.5289
38363.7 14.5370
38365.4 13.6312
38367.0 12.8163
38368.7 12.0907
38370.4 11.4489
38372.0 10.8834
38373.7 10.3887
38375.5 9.92614
38377.2 9.52167
38379.0 9.16711
38380.8 8.85531
38382.5 8.58015
38384.3 8.33641
38386.1 8.11967
38387.9 7.92621
38389.8 7.73811
38391.7 7.57053
38393.6 7.42062
38395.6 7.28599
38399.4 7.05483
38403.3 6.86430
38406.8 6.71727
38410.4 6.59131
38413.9 6.48247
38417.5 6.38770
38424.5 6.23115
38431.6 6.10758
38441.3 5.97612
38450.9 5.87480
38460.6 5.79408
38470.2 5.72815
38484.4 5.65066
38498.5 5.58935
38512.7 5.53931
38526.8 5.49762
38541.0 5.46203
38555.2 5.43108
38583.5 5.37963
38611.8 5.33805
38640.1 5.30330
38662.0 5.27990
38683.9 5.25884
38727.6 5.22220
38771.4 5.19083
38815.1 5.16339
38871.8 5.13216
38928.4 5.10449
38985.0 5.07946
39041.7 5.05647
39100.9 5.03411
39160.1 5.01309
39278.5 4.97381
39396.9 4.93702
39515.3 4.90158
39638.8 4.86512
39762.4 4.82848
39875.6 4.79417
39988.9 4.75871
40102.2 4.72170
40215.4 4.68274
40323.5 4.64339
40377.6 4.62294
40431.6 4.60195
40485.7 4.58056
40539.8 4.55899
40593.8 4.53769
40647.9 4.51744
40689.0 4.50392
40709.6 4.49829
40730.2 4.49377
40757.3 4.49041
40784.3 4.49164
40797.8 4.49483
40811.3 4.50045
40824.8 4.50929
40838.3 4.52231
40852.5 4.54254
40866.7 4.57226
40880.8 4.61604
40895.0 4.68150
40903.3 4.73539
40911.7 4.80567
40920.1 4.89927
40924.3 4.95771
40928.4 5.02620
40934.2 5.14204
40940.0 5.29001
40942.9 5.37983
40945.8 5.48239
40948.7 5.60105
40951.6 5.73833
40955.1 5.93858
40956.9 6.05479
40958.7 6.18378
40960.4 6.32743
40962.2 6.48799
40964.0 6.66814
40965.8 6.87112
40967.4 7.07885
40969.0 7.31224
40970.6 7.57554
40972.2 7.87193
40973.8 8.21138
40975.4 8.59982
40977.0 9.04673
40977.8 9.29406
40978.6 9.56033
40979.5 9.88110
40980.4 10.2305
40981.3 10.6117
40982.2 11.0235
40983.1 11.4792
40983.9 11.9730
40984.8 12.5210
40985.7 13.1161
40986.6 13.7780
40987.5 14.4979
40988.4 15.2990
40989.2 16.1700
40990.1 17.1379
40991.0 18.1874
40991.9 19.3347
40992.8 20.5847
40993.7 21.9403
40994.5 23.4020
40995.4 24.9672
40996.3 26.6293
40997.2 28.3768
40998.1 30.1931
40999.8 33.9355
41000.8 36.1126
41001.9 38.1847
41002.9 40.1242
41003.9 41.8237
41004.9 43.2488
41005.5 43.8271
41006.0 44.3123
41006.5 44.6992
41007.0 44.9833
41007.5 45.1614
41008.0 45.2316
41008.3 45.2202
41008.8 45.1169
41009.3 44.9157
41009.8 44.6177
41010.3 44.2262
41011.3 43.1678
41012.3 41.8052
41013.3 40.1647
41014.2 38.3390
41015.2 36.3531
41016.2 34.3067
41017.7 31.2243
41019.1 28.2304
41019.9 26.8011
41020.6 25.4299
41021.3 24.1233
41022.0 22.8857
41022.7 21.7969
41023.4 20.7705
41024.1 19.8061
41024.8 18.9022
41025.4 18.0571
41026.1 17.2681
41026.8 16.5327
41027.5 15.8477
41028.1 15.2920
41028.7 14.7700
41029.3 14.2796
41029.8 13.8266
41031.0 12.9931
41032.2 12.2555
41033.4 11.5964
41034.5 11.0158
41035.7 10.4984
41036.9 10.0359
41038.2 9.55804
41039.6 9.13542
41040.9 8.76017
41042.3 8.42800
41043.7 8.12847
41045.0 7.85949
41046.4 7.61711
41047.7 7.39951
41049.2 7.18260
41050.7 6.98826
41052.2 6.81233
41053.7 6.65255
41056.6 6.37405
41059.6 6.14039
41062.3 5.95723
41065.0 5.79916
41067.7 5.66077
41070.4 5.53975
41073.2 5.43252
41075.9 5.33769
41081.3 5.17694
41085.2 5.07965
41089.2 4.99546
41097.1 4.85751
41105.0 4.74929
41112.9 4.66237
41124.7 4.56009
41136.6 4.48102
41148.4 4.41771
41160.3 4.36555
41172.1 4.32105
41184.0 4.28236
41195.8 4.24801
41207.7 4.21695
41231.4 4.16180
41255.1 4.11280
41274.8 4.07469
41294.6 4.03814
41334.1 3.96729
41367.7 3.90753
41384.4 3.87751
41401.2 3.84746
41418.0 3.81759
41426.4 3.80287
41434.8 3.78850
41443.2 3.77473
41451.6 3.76201
41460.0 3.75104
41464.2 3.74655
41468.4 3.74301
41472.6 3.74084
41476.8 3.74062
41481.0 3.74319
41485.2 3.74979
41489.4 3.76254
41491.5 3.77230
41493.6 3.78522
41495.7 3.80235
41497.8 3.82516
41499.9 3.85586
41501.9 3.89765
41503.6 3.94088
41505.2 3.99767
41506.8 4.07503
41507.6 4.12391
41508.4 4.18186
41509.2 4.25192
41510.0 4.33496
41510.8 4.43489
41511.6 4.55539
41512.4 4.70269
41513.2 4.87795
41514.0 5.08789
41514.8 5.33760
41515.5 5.58468
41516.1 5.86633
41516.8 6.18421
41517.5 6.53889
41518.2 6.92952
41518.9 7.35357
41519.5 7.80655
41520.2 8.27475
41521.7 9.34164
41522.4 9.86248
41523.2 10.3455
41523.9 10.7635
41524.6 11.1221
41525.3 11.4077
41526.0 11.6091
41526.5 11.6993
41527.0 11.7364
41527.7 11.7026
41528.4 11.5783
41529.1 11.3686
41529.7 11.0816
41530.4 10.7114
41531.2 10.2834
41531.9 9.81318
41532.6 9.31687
41533.7 8.52458
41534.8 7.76280
41535.3 7.39633
41535.9 7.05512
41536.4 6.73482
41537.0 6.43697
41537.6 6.15756
41538.1 5.90671
41538.7 5.67486
41539.2 5.46940
41539.8 5.28164
41540.3 5.11686
41540.9 4.96997
41541.4 4.83938
41542.0 4.72149
41542.5 4.61894
41543.1 4.52803
41543.6 4.44737
41544.7 4.31089
41545.8 4.20335
41547.1 4.10624
41548.3 4.02945
41549.6 3.96658
41550.8 3.91501
41553.3 3.83430
41555.8 3.77410
41558.3 3.72720
41560.8 3.68940
41563.3 3.65808
41565.8 3.63160
41570.2 3.59248
41574.6 3.56049
41579.0 3.53311
41583.5 3.50902
41587.9 3.48719
41592.3 3.46709
41601.1 3.43007
41610.0 3.39556
41618.8 3.36252
41627.7 3.33021
41636.5 3.29817
41652.0 3.24181
41667.5 3.18434
41683.0 3.12491
41698.5 3.06312
41722.8 2.96021
41747.1 2.84902
41771.5 2.72823
41795.8 2.59652
41820.1 2.45255
41844.5 2.29514
41868.8 2.12344
41893.1 1.93756
41914.1 1.76719
41935.1 1.59216
41956.2 1.42166
41966.7 1.34377
41971.9 1.30838
41977.2 1.27620
41982.7 1.24671
41988.2 1.22292
41993.8 1.20632
41996.5 1.20127
41999.3 1.19871
42002.9 1.19956
42006.5 1.20579
42010.1 1.21832
42013.7 1.23811
42017.3 1.26646
42019.1 1.28422
42020.9 1.30447
42022.7 1.32765
42024.5 1.35386
42026.3 1.38331
42028.0 1.41608
42031.1 1.48062
42032.6 1.51726
42034.1 1.55714
42035.7 1.60045
42037.2 1.64743
42038.7 1.69831
42040.2 1.75335
42041.7 1.81282
42043.3 1.87700
42044.8 1.94621
42046.3 2.02078
42047.8 2.10106
42049.3 2.18744
42050.9 2.28032
42052.4 2.38014
42053.7 2.47280
42055.0 2.57060
42056.3 2.67537
42057.6 2.78588
42059.0 2.90419
42060.3 3.02891
42061.6 3.16133
42062.9 3.30188
42064.2 3.45222
42065.5 3.61056
42066.8 3.77986
42068.1 3.95813
42069.5 4.14870
42070.8 4.34932
42072.1 4.56209
42073.4 4.78771
42074.9 5.06661
42076.4 5.36504
42078.0 5.68432
42079.5 6.02578
42081.0 6.39087
42082.5 6.78109
42084.0 7.19801
42085.6 7.64328
42087.1 8.12833
42088.6 8.64306
42090.2 9.19611
42091.7 9.78225
42093.3 10.4111
42094.8 11.0765
42096.4 11.7842
42097.9 12.5361
42100.0 13.6412
42102.1 14.8307
42104.2 16.1126
42106.3 17.4890
42108.4 18.9674
42110.5 20.5321
42112.6 22.1856
42114.7 23.9214
42117.6 26.4438
42120.5 29.0687
42126.4 34.4182
42129.3 37.0108
42132.2 39.4490
42135.1 41.6574
42138.0 43.5677
42139.6 44.4811
42141.2 45.2775
42142.9 45.9519
42144.5 46.4980
42146.1 46.9218
42147.7 47.2202
42149.3 47.3961
42150.9 47.4539
42152.9 47.3795
42154.8 47.1611
42156.7 46.8122
42158.6 46.3471
42162.4 45.1291
42166.2 43.6315
42170.0 41.9545
42173.8 40.1920
42181.5 36.6355
42187.2 34.1201
42192.8 31.7944
42198.5 29.6813
42204.2 27.7838
42209.9 26.0831
42215.5 24.5649
42221.2 23.2100
42226.9 22.0022
42232.3 20.9664
42237.7 20.0312
42243.2 19.1849
42248.6 18.4173
42254.0 17.7194
42259.4 17.0829
42264.8 16.5008
42270.2 15.9681
42275.9 15.4549
42281.6 14.9837
42287.3 14.5499
42293.0 14.1502
42304.3 13.4366
42315.7 12.8200
42329.1 12.1924
42342.5 11.6535
42355.9 11.1875
42369.3 10.7796
42380.7 10.4723
42392.0 10.1953
42403.4 9.94418
42414.7 9.71552
42437.5 9.31470
42460.2 8.97548
42480.8 8.70935
42501.4 8.47624
42522.1 8.27045
42542.7 8.08765
42565.4 7.90918
42576.8 7.82782
42588.1 7.75143
42599.5 7.67971
42610.9 7.61282
42622.2 7.55098
42633.6 7.49488
42640.8 7.46293
42648.0 7.43507
42655.2 7.41279
42658.8 7.40461
42662.5 7.39911
42665.7 7.39714
42668.9 7.39883
42672.1 7.40550
42675.4 7.41910
42678.6 7.44284
42681.8 7.48160
42683.4 7.50936
42685.0 7.54456
42686.6 7.58975
42688.3 7.64841
42689.6 7.71215
42691.0 7.79285
42692.3 7.89785
42693.7 8.03414
42695.0 8.21549
42696.4 8.45449
42697.1 8.60293
42697.7 8.77366
42698.4 8.96942
42699.1 9.18941
42699.8 9.45461
42700.5 9.75517
42701.2 10.0928
42701.9 10.4681
42702.6 10.8805
42703.4 11.3274
42704.8 12.2985
42706.3 13.4303
42707.1 13.9827
42707.9 14.5052
42708.7 15.0247
42709.5 15.4561
42710.4 15.7878
42711.2 15.9953
42712.0 16.0710
42712.4 16.0641
42712.9 16.0234
42713.7 15.8442
42714.5 15.5393
42715.4 15.1318
42716.2 14.6832
42716.9 14.1810
42718.5 13.0963
42719.7 12.1865
42721.0 11.3387
42721.6 10.9481
42722.2 10.5837
42722.9 10.2472
42723.5 9.93925
42724.1 9.68077
42724.7 9.44946
42725.2 9.23615
42725.8 9.04692
42727.0 8.72077
42728.1 8.46064
42729.2 8.24994
42730.4 8.08039
42731.5 7.94298
42732.7 7.83138
42734.0 7.72925
42735.2 7.64567
42736.5 7.57566
42737.7 7.51621
42740.3 7.42033
42742.8 7.34682
42745.3 7.28806
42747.8 7.24015
42750.4 7.19982
42752.9 7.16544
42756.1 7.12779
42759.3 7.09555
42762.5 7.06731
42765.7 7.04217
42772.2 6.99868
42778.6 6.96175
42785.0 6.92926
42791.4 6.89993
42797.9 6.87292
42804.3 6.84776
42817.1 6.80163
42830.0 6.75964
42842.8 6.72074
42855.7 6.68429
42868.5 6.64996
42881.4 6.61722
42907.1 6.55607
42927.3 6.51151
42947.5 6.46957
42987.8 6.39247
43028.2 6.32300
43068.6 6.25992
43120.0 6.18745
43171.4 6.12234
43274.2 6.00995
43355.0 5.93480
43435.7 5.86871
43516.5 5.80998
43597.3 5.75737
43758.8 5.66671
43920.3 5.59073
43979.1 5.56596
44059.9 5.53397
44140.6 5.50407
44181.0 5.48981
44221.4 5.47600
44261.8 5.46259
44302.2 5.44955
44324.2 5.44261
44346.2 5.43579
44368.2 5.42908
44390.3 5.42251
44405.9 5.41797
44421.5 5.41354
44437.1 5.40925
44452.7 5.40517
44468.3 5.40140
44476.1 5.39967
44483.9 5.39808
44491.7 5.39672
44499.5 5.39565
44507.3 5.39497
44515.1 5.39485
44521.5 5.39537
44527.9 5.39669
44534.4 5.39914
44540.8 5.40331
44544.0 5.40637
44547.2 5.41031
44550.4 5.41541
44553.6 5.42203
44556.9 5.43070
44560.1 5.44221
44563.3 5.45775
44566.5 5.47928
44568.7 5.49906
44570.9 5.52475
44573.0 5.55911
44575.2 5.60659
44576.3 5.63752
44577.4 5.67510
44578.5 5.72139
44579.6 5.77923
44580.7 5.85244
44581.8 5.94614
44582.8 6.06699
44583.9 6.22330
44584.9 6.39007
44585.8 6.59568
44586.7 6.84677
44587.6 7.14584
44588.5 7.50401
44589.4 7.92033
44590.4 8.39304
44591.3 8.90967
44594.9 11.1647
44595.6 11.5310
44596.3 11.8485
44597.0 12.1125
44597.6 12.3138
44598.3 12.4485
44599.0 12.5041
44599.7 12.4804
44600.4 12.3772
44601.1 12.1987
44601.8 11.9519
44602.5 11.6025
44603.3 11.1939
44604.1 10.7435
44604.9 10.2690
44606.2 9.48745
44607.4 8.75162
44608.0 8.41188
44608.7 8.09553
44609.3 7.80453
44609.9 7.53975
44610.6 7.28337
44611.3 7.05658
44612.0 6.85767
44612.7 6.68447
44613.3 6.53449
44614.0 6.40516
44614.7 6.29393
44615.4 6.19837
44616.7 6.04560
44618.1 5.93180
44619.5 5.84569
44620.8 5.77920
44622.6 5.71369
44624.3 5.66376
44626.1 5.62458
44627.8 5.59309
44629.6 5.56728
44631.3 5.54576
44634.8 5.51211
44638.3 5.48694
44641.8 5.46760
44645.3 5.45226
44648.8 5.43988
44653.1 5.42761
44657.3 5.41765
44661.6 5.40931
44665.9 5.40227
44670.2 5.39619
44674.4 5.39092
44683.0 5.38211
44692.3 5.37436
44701.6 5.36797
44714.1 5.36080
44726.5 5.35465
44738.9 5.34924
44751.4 5.34435
44763.8 5.33985
44776.2 5.33565
44804.2 5.32694
44832.2 5.31893
44860.1 5.31141
44888.1 5.30423
44944.1 5.29062
44972.0 5.28410
44979.0 5.28253
44980.8 5.28226
44982.5 5.28231
44983.4 5.28264
44984.3 5.28336
44985.1 5.28469
44986.0 5.28699
44986.5 5.28867
44986.9 5.29080
44987.3 5.29348
44987.8 5.29673
44988.2 5.30082
44988.6 5.30582
44989.1 5.31188
44989.5 5.31899
44990.0 5.32766
44990.4 5.33792
44990.8 5.34999
44991.3 5.36372
44991.7 5.37996
44992.1 5.39817
44993.0 5.44286
44993.9 5.49989
44994.8 5.56897
44995.6 5.65213
44996.5 5.74717
44998.3 5.97153
45000.0 6.22183
45000.0 7.16730
50000.0 7.80187
60000.0 9.07100
90313.1 7.39143
100000 6.85470
105000 6.45370
110000 6.69690
115000 7.65040
120000 8.50330
125000 8.39870
130000 7.51180
135000 7.79720
140000 8.13280
145000 8.34250
147500 7.34610
149500 7.54020
150000 6.73370
150330 7.49380
150670 7.58710
151000 6.98300
152000 6.82300
153000 6.82300
154000 6.90300
155000 6.66310
156000 6.45320
157000 6.57320
158000 6.44320
159000 5.98350
160000 6.07340
161000 5.82520
162000 6.27330
163000 6.79300
164000 7.40410
165000 7.35280
166000 6.87300
167000 6.84300
168000 7.21330
169000 7.35280
170000 7.44280
171000 7.47280
172000 7.19290
173000 7.49280
174000 7.45280
175000 6.87300
176000 6.71310
177000 7.12290
178000 7.91260
179000 8.23250
180000 7.72270
181000 7.53800
182000 8.50240
183000 8.83230
184000 8.36250
184267 8.47728
185000 8.79240
186000 7.67270
187000 7.71390
188000 7.61270
189000 7.09290
190000 7.34280
191000 7.05430
192000 6.83300
193000 7.09290
194000 6.90440
195000 6.71310
196000 7.14290
197000 7.21030
198000 7.43280
199000 7.14290
200000 7.01290
201000 6.24330
202000 6.23330
203000 6.39320
204000 6.31330
205000 6.28330
206000 6.21490
207000 6.51320
208000 6.46240
209000 6.37330
210000 6.57320
211000 7.03290
212000 6.49320
213000 6.30330
214000 6.65310
215000 7.15050
221000 7.41290
222000 8.75820
223000 9.00170
224000 8.00580
225000 8.94960
226000 7.80650
227000 8.97890
228000 6.37500
229000 7.34860
230000 7.45240
231000 7.88110
232000 8.39080
233000 7.92420
234000 8.71000
235000 8.64260
236000 8.33410
237000 7.18710
238000 7.15300
239000 7.13300
240000 7.07320
241000 6.96350
242000 6.92320
243000 7.03240
244000 7.16680
245000 7.82020
246000 8.29100
247000 9.53900
248000 9.11340
249000 8.66360
250000 8.54280
251000 8.54240
252000 8.49260
253000 8.70180
254000 8.59270
255000 8.07420
256000 7.90320
257000 7.56400
258000 8.14060
259000 8.42160
260000 8.38540
261000 8.22230
262000 8.91040
263000 9.21150
264000 8.59410
265000 7.95470
266000 7.22570
267000 7.40210
268000 7.75140
269000 8.42030
270000 8.96080
271000 9.14180
272000 7.42900
273000 7.09430
274000 7.58080
275000 6.96560
276000 7.21180
277000 7.74070
278000 7.44390
279000 7.96070
280000 7.71360
281000 7.87210
282000 8.02210
283000 8.37140
284000 8.11340
285000 8.58100
286000 8.30340
287000 7.75350
288000 7.57340
289000 7.78190
290000 8.09150
290964 8.77478
291000 8.80030
292000 9.23110
293000 9.00300
294000 8.52380
295000 8.64200
296000 8.89160
297000 8.91230
298000 8.53350
299000 9.08080
300000 8.07570
301000 8.51320
302000 8.61210
303000 7.87510
304000 8.34100
305000 8.44210
306000 8.35270
307000 9.04040
308000 8.72330
309000 9.19100
310000 8.88310
311000 9.43080
312000 8.87390
313000 9.37090
314000 7.60870
315000 7.50310
316000 7.21410
317000 7.28260
318000 7.48200
319000 7.21400
320000 6.18870
321000 6.03430
322000 6.61520
323000 6.34130
324000 6.67140
325000 5.68980
326000 6.04120
327000 5.39840
328000 5.27480
329000 5.48220
330000 6.14900
331000 6.97900
332000 7.67000
333000 8.26060
334000 8.49170
335000 7.88470
336000 8.29120
337000 7.00820
338000 6.79400
339000 7.87850
340000 7.47430
340014 7.47763
341000 7.71180
342000 7.78240
343000 7.18530
344000 7.44180
345000 7.84120
345577 7.90521
345577 7.90525
346000 7.95220
347000 8.36120
348000 8.44220
349000 8.25310
350000 8.66120
351000 7.78570
352000 7.14550
353000 7.40170
354000 7.70160
355000 7.19490
356000 6.56620
357000 6.34440
358000 6.63160
359000 7.10080
360000 7.99930
361000 8.35140
362000 7.83440
363000 7.83260
364000 7.47410
365000 7.94370
366000 8.20140
367000 7.48540
368000 8.15030
369000 8.31200
370000 8.48190
371000 8.97100
372000 9.14180
373000 8.73360
374000 8.17430
375000 7.32610
376000 6.89490
377000 7.05220
378000 7.43120
379000 8.16000
380000 8.45160
381000 8.64180
382000 9.58980
383000 9.01370
384000 9.00230
385000 8.59360
386000 8.47280
387000 8.99090
388000 9.06210
389000 8.32470
390000 7.92580
391000 7.86280
392000 8.20140
393000 8.41180
394000 8.37260
395000 8.63160
396000 8.02460
397000 8.41120
398000 8.52210
399000 7.97440
400000 7.74350
401000 7.03590
402000 6.48590
403000 6.52300
404000 6.32430
405000 6.51220
406000 7.25600
406359 7.26500
406359 7.26501
407000 7.28110
408000 8.19940
409000 8.47160
410000 8.96100
411000 9.18170
412000 9.86050
413000 9.99170
414000 9.74270
415000 9.16370
416000 8.90310
417000 8.81260
418000 8.52330
419000 8.46260
419304 8.16904
419304 8.16885
420000 7.49630
421000 7.35340
422000 7.60170
423000 8.02110
424000 8.26170
425000 8.65120
426000 9.20080
427000 7.18040
428000 8.28740
429000 7.58390
430000 8.29880
431000 8.74980
432000 8.28260
433000 8.38130
434000 8.78990
435000 8.43230
435890 8.36921
435890 8.36920
436000 8.36140
437000 7.77330
438000 7.19370
439000 7.63960
440000 7.70110
441000 7.58180
442000 8.26890
443000 9.22850
444000 10.0190
445000 10.6500
446000 10.3720
447000 9.50310
448000 9.44120
449000 8.15510
450000 8.21870
451000 7.95200
452000 8.21040
453000 8.04180
454000 7.88180
455000 8.09050
456000 9.79680
457000 9.54170
458000 8.89290
459000 9.14040
460000 8.29280
461000 8.01220
462000 8.67910
463000 7.82420
464000 7.41290
465000 7.30180
466000 7.47070
467000 7.68050
468000 7.85070
469000 8.73850
470000 9.48920
470276 9.11882
470276 9.11828
471000 8.14530
472000 7.59330
473000 7.35230
474000 7.38120
475000 7.33230
476000 7.34130
477000 7.50070
478000 8.10910
479000 8.63960
480000 8.66110
481000 8.41200
482000 7.86320
483000 7.44290
484000 7.06300
485000 6.96190
486000 6.79230
487000 7.02040
488000 7.54920
489000 8.04950
490000 8.16090
491000 8.32070
492000 9.21870
493000 8.96180
494000 9.19050
495000 8.91080
496000 8.52230
497000 7.72410
498000 7.79100
499000 8.28960
500000 8.68000
501000 8.58150
502000 8.85040
503000 8.00400
504000 7.23440
505000 7.46040
506000 7.77010
507000 7.72150
508000 9.44640
509000 8.29460
510000 8.24140
511000 8.42060
511134 8.46607
511134 8.46611
512000 8.76020
513000 7.69500
514000 8.33910
515000 8.59040
516000 9.44890
517000 7.68710
518000 8.85760
519000 8.87110
520000 8.46350
521000 8.60080
522000 8.47160
523000 9.24900
524000 8.06490
525000 9.53720
526000 8.91280
527000 8.43260
528000 8.80010
529000 8.40240
530000 8.60060
531000 7.97330
532000 8.44970
533000 9.04950
534000 10.1490
535000 10.3500
536000 10.9700
537000 11.1910
538000 11.3310
539000 10.0840
540000 8.87440
541000 7.24750
542000 6.72390
543000 7.40850
544000 8.26830
545000 8.05200
546000 8.14090
547000 8.23090
548000 8.16150
549000 7.79260
550000 7.54710
551000 7.16200
552000 6.99220
553000 7.03120
554000 8.23700
555000 8.56020
556000 8.20230
557000 8.12150
558000 8.36040
559000 8.58050
560000 7.86370
561000 7.22390
562000 6.74370
563000 6.11750
563319 6.16321
564000 6.26080
565000 6.59980
566000 6.40260
567000 6.65020
568000 6.83060
569000 8.01690
570000 8.74900
571000 8.65140
572000 8.40200
573000 8.45100
574000 8.87990
575000 8.40260
576000 8.72020
577000 8.60150
578000 8.17260
579000 8.63970
580000 8.37930
581000 7.84340
582000 8.22990
583000 7.53390
584000 7.43170
585000 6.63520
586000 6.82060
587000 6.62250
588000 6.86030
589000 6.47350
590000 7.82600
591000 8.03060
592000 7.70250
593000 6.77560
594000 6.47310
595000 6.64060
596000 6.72110
597000 6.76130
598000 7.07000
599000 6.53420
600000 6.55350
601000 6.15220
602000 5.99260
603000 6.37940
604000 6.47110
605000 6.28260
606000 6.23190
609000 6.21170
610000 6.02280
611000 6.63830
612000 6.19410
613000 6.31090
614000 6.54040
615000 7.24760
617000 7.78020
618000 8.46900
619000 8.08250
620000 8.18090
621000 8.26090
621067 8.31236
622000 9.02900
623000 8.92140
624000 8.59210
625000 8.66090
625011 8.65772
626000 8.37210
627000 8.65030
628000 8.17270
629000 8.36060
630000 7.94270
631000 7.99110
632000 7.80200
633000 7.96070
634000 7.83170
635000 7.93090
636000 7.60250
637000 7.99990
638000 8.02120
639000 7.89170
640000 7.42310
641000 7.52090
642000 7.97960
643000 6.98560
644000 7.44940
645000 7.19250
646000 7.43040
647000 7.75010
648000 6.97470
649000 7.30000
650000 7.73060
700000 7.63000
706324 7.60581
706324 7.60581
721089 7.54932
729180 7.51837
756486 7.41391
788647 7.29088
800000 7.24745
819898 7.14860
819898 7.14860
850000 6.99905
868746 6.93421
868746 6.93421
877342 6.90447
900000 6.82610
919272 6.74095
919273 6.74095
919273 6.74095
919283 6.74090
986871 6.44228
986871 6.44228
990000 6.42845
1.00000E+06 6.38427
1.00396E+06 6.36853
1.02975E+06 6.26604
1.05888E+06 6.15028
1.05888E+06 6.15028
1.08214E+06 6.05784
1.08214E+06 6.05784
1.10000E+06 5.98686
1.14181E+06 5.86120
1.14181E+06 5.86120
1.20000E+06 5.68631
1.21190E+06 5.66383
1.21190E+06 5.66382
1.22373E+06 5.64147
1.22373E+06 5.64147
1.24001E+06 5.61071
1.24911E+06 5.59351
1.27642E+06 5.54191
1.27642E+06 5.54191
1.30000E+06 5.49735
1.34903E+06 5.40470
1.40000E+06 5.30839
1.50000E+06 5.11943
1.52436E+06 5.08636
1.52436E+06 5.08636
1.60000E+06 4.98367
1.70000E+06 4.84792
1.76436E+06 4.78491
1.76436E+06 4.78490
1.76480E+06 4.78448
1.76480E+06 4.78448
1.80000E+06 4.75001
1.90000E+06 4.65212
2.00000E+06 4.55422
2.20000E+06 4.35842
2.21117E+06 4.35049
2.21117E+06 4.35048
2.24760E+06 4.32460
2.24761E+06 4.32459
2.50000E+06 4.14525
2.55857E+06 4.12645
2.55857E+06 4.12645
2.59536E+06 4.11464
2.59536E+06 4.11464
2.59536E+06 4.11464
2.65179E+06 4.09653
2.65179E+06 4.09653
2.65179E+06 4.09653
2.68331E+06 4.08641
2.75147E+06 4.06453
2.75147E+06 4.06453
2.80183E+06 4.04836
2.80588E+06 4.04706
2.80588E+06 4.04706
2.82347E+06 4.04142
2.90438E+06 4.01544
2.90438E+06 4.01544
2.91389E+06 4.01239
2.91389E+06 4.01239
2.91389E+06 4.01239
2.92754E+06 4.00801
2.92754E+06 4.00801
3.00000E+06 3.98475
3.02715E+06 3.97604
3.02715E+06 3.97604
3.10240E+06 3.95188
3.10240E+06 3.95188
3.14231E+06 3.93907
3.14231E+06 3.93907
3.17451E+06 3.92873
3.17451E+06 3.92873
3.20000E+06 3.92055
3.20054E+06 3.92042
3.28434E+06 3.89969
3.28435E+06 3.89969
3.32037E+06 3.89078
3.32037E+06 3.89078
3.38101E+06 3.87579
3.38101E+06 3.87579
3.38101E+06 3.87579
3.42644E+06 3.86455
3.42644E+06 3.86455
3.44919E+06 3.85893
3.44919E+06 3.85892
3.45893E+06 3.85652
3.49036E+06 3.84875
3.49036E+06 3.84874
3.49036E+06 3.84874
3.50000E+06 3.84636
3.54335E+06 3.83818
3.55549E+06 3.83589
3.55549E+06 3.83589
3.55549E+06 3.83589
3.55791E+06 3.83543
3.59746E+06 3.82797
3.59746E+06 3.82797
3.59746E+06 3.82797
3.60039E+06 3.82742
3.60039E+06 3.82742
3.66208E+06 3.81578
3.66208E+06 3.81578
3.67017E+06 3.81426
3.67149E+06 3.81401
3.67149E+06 3.81401
3.67149E+06 3.81401
3.68494E+06 3.81147
3.68494E+06 3.81147
3.70000E+06 3.80863
3.71639E+06 3.80647
3.75745E+06 3.80104
3.75745E+06 3.80104
3.79022E+06 3.79672
3.79022E+06 3.79672
3.79528E+06 3.79605
3.79528E+06 3.79605
3.79528E+06 3.79605
3.82895E+06 3.79160
3.88255E+06 3.78452
3.89176E+06 3.78331
3.89176E+06 3.78331
3.89176E+06 3.78330
3.90612E+06 3.78141
3.90612E+06 3.78141
3.95739E+06 3.77464
3.96852E+06 3.77317
3.96852E+06 3.77317
3.98562E+06 3.77091
4.00000E+06 3.76901
4.00695E+06 3.76868
4.02202E+06 3.76796
4.02202E+06 3.76796
4.03689E+06 3.76724
4.03689E+06 3.76725
4.03689E+06 3.76724
4.06085E+06 3.76610
4.06086E+06 3.76610
4.06168E+06 3.76606
4.06844E+06 3.76573
4.06844E+06 3.76573
4.14733E+06 3.76196
4.14733E+06 3.76196
4.16351E+06 3.76118
4.16351E+06 3.76118
4.18090E+06 3.76035
4.19310E+06 3.75976
4.19310E+06 3.75976
4.26958E+06 3.75610
4.26958E+06 3.75610
4.28517E+06 3.75536
4.29721E+06 3.75478
4.29721E+06 3.75478
4.36072E+06 3.75174
4.36072E+06 3.75174
4.39632E+06 3.75003
4.39632E+06 3.75003
4.41424E+06 3.74918
4.41424E+06 3.74918
4.43455E+06 3.74820
4.43455E+06 3.74820
4.43880E+06 3.74800
4.43880E+06 3.74800
4.46289E+06 3.74685
4.46289E+06 3.74685
4.49108E+06 3.74550
4.50000E+06 3.74507
4.50858E+06 3.74542
4.50858E+06 3.74542
4.51394E+06 3.74564
4.51394E+06 3.74564
4.51869E+06 3.74584
4.51869E+06 3.74584
5.00000E+06 3.76561
5.50000E+06 3.83723
6.00000E+06 3.92827
6.50000E+06 4.06543
7.00000E+06 4.18060
7.15122E+06 4.20018
7.50000E+06 4.24534
8.00000E+06 4.27763
8.04930E+06 4.28081
8.50000E+06 4.30991
9.00000E+06 4.30961
9.50000E+06 4.29612
1.00000E+07 4.27084
1.05000E+07 4.23505
1.10000E+07 4.18603
1.15000E+07 4.13700
1.16062E+07 4.12435
1.16062E+07 4.12435
1.16067E+07 4.12429
1.20000E+07 4.07745
1.20027E+07 4.07719
1.20027E+07 4.07719
1.22889E+07 4.04938
1.25000E+07 4.02886
1.30000E+07 3.98026
1.35000E+07 3.93167
1.40000E+07 3.85796
1.41000E+07 3.84678
1.45000E+07 3.80204
1.50000E+07 3.74612
1.55000E+07 3.69020
1.60000E+07 3.61657
1.65000E+07 3.56410
1.70000E+07 3.51162
1.75000E+07 3.45915
1.80000E+07 3.39301
1.83903E+07 3.35825
1.85000E+07 3.34848
1.90000E+07 3.30394
1.95000E+07 3.25941
2.00000E+07 3.21487
