Mo-94(n,tot) ENDFB-8.0
Energy(eV) XS(b)
1.00000E-05 52.1733
1.03125E-05 51.3894
1.06250E-05 50.6405
1.09375E-05 49.9242
1.12500E-05 49.2380
1.15625E-05 48.5801
1.18750E-05 47.9484
1.21875E-05 47.3414
1.25000E-05 46.7574
1.28125E-05 46.1950
1.31250E-05 45.6530
1.34375E-05 45.1301
1.37500E-05 44.6253
1.43750E-05 43.6658
1.50000E-05 42.7674
1.56250E-05 41.9239
1.62500E-05 41.1299
1.68750E-05 40.3808
1.75000E-05 39.6725
1.81250E-05 39.0016
1.87500E-05 38.3647
1.93750E-05 37.7593
2.00000E-05 37.1827
2.09375E-05 36.3673
2.18750E-05 35.6054
2.28125E-05 34.8914
2.37500E-05 34.2207
2.46875E-05 33.5890
2.56250E-05 32.9928
2.65625E-05 32.4288
2.75000E-05 31.8943
2.84375E-05 31.3868
2.93750E-05 30.9041
3.03125E-05 30.4444
3.12500E-05 30.0058
3.21875E-05 29.5868
3.31250E-05 29.1860
3.40625E-05 28.8022
3.50000E-05 28.4341
3.59375E-05 28.0808
3.68750E-05 27.7413
3.78125E-05 27.4148
3.87500E-05 27.1004
3.96875E-05 26.7974
4.06250E-05 26.5052
4.25000E-05 25.9506
4.43750E-05 25.4323
4.62500E-05 24.9465
4.81250E-05 24.4901
5.00000E-05 24.0601
5.15625E-05 23.7204
5.31250E-05 23.3961
5.46875E-05 23.0862
5.62500E-05 22.7896
5.78125E-05 22.5054
5.93750E-05 22.2329
6.09375E-05 21.9712
6.25000E-05 21.7197
6.40625E-05 21.4777
6.56250E-05 21.2447
6.71875E-05 21.0201
6.87500E-05 20.8035
7.18750E-05 20.3923
7.50000E-05 20.0080
7.81250E-05 19.6478
8.12500E-05 19.3093
8.43750E-05 18.9906
8.75000E-05 18.6897
9.06250E-05 18.4052
9.37500E-05 18.1356
9.68750E-05 17.8798
0.000100000 17.6365
0.000103125 17.4050
0.000106250 17.1842
0.000109375 16.9733
0.000112500 16.7718
0.000115625 16.5789
0.000118750 16.3941
0.000121875 16.2168
0.000125000 16.0465
0.000128125 15.8829
0.000131250 15.7255
0.000134375 15.5739
0.000137500 15.4278
0.000143750 15.1510
0.000150000 14.8926
0.000156250 14.6510
0.000162500 14.4243
0.000168750 14.2112
0.000175000 14.0105
0.000181250 13.8209
0.000187500 13.6416
0.000193750 13.4718
0.000200000 13.3105
0.000209375 13.0835
0.000218750 12.8723
0.000228125 12.6755
0.000237500 12.4914
0.000246875 12.3188
0.000256250 12.1567
0.000265625 12.0041
0.000275000 11.8601
0.000284375 11.7239
0.000293750 11.5950
0.000303125 11.4728
0.000312500 11.3567
0.000321875 11.2462
0.000331250 11.1410
0.000340625 11.0406
0.000350000 10.9447
0.000359375 10.8531
0.000368750 10.7653
0.000378125 10.6813
0.000387500 10.6006
0.000396875 10.5232
0.000406250 10.4488
0.000425000 10.3084
0.000443750 10.1781
0.000462500 10.0568
0.000481250 9.94360
0.000500000 9.83764
0.000515625 9.75439
0.000531250 9.67533
0.000546875 9.60015
0.000562500 9.52856
0.000578125 9.46030
0.000593750 9.39513
0.000609375 9.33283
0.000625000 9.27322
0.000640625 9.21612
0.000656250 9.16136
0.000671875 9.10880
0.000687500 9.05831
0.000718750 8.96302
0.000750000 8.87462
0.000781250 8.79235
0.000812500 8.71558
0.000843750 8.64375
0.000875000 8.57636
0.000906250 8.51302
0.000937500 8.45334
0.000968750 8.39700
0.00100000 8.34372
0.00103125 8.29324
0.00106250 8.24533
0.00109375 8.19980
0.00112500 8.15646
0.00115625 8.11515
0.00118750 8.07572
0.00121875 8.03804
0.00125000 8.00199
0.00128125 7.96746
0.00131250 7.93434
0.00134375 7.90256
0.00137500 7.87203
0.00143750 7.81440
0.00150000 7.76092
0.00156250 7.71113
0.00162500 7.66463
0.00168750 7.62111
0.00175000 7.58025
0.00181250 7.54181
0.00187500 7.50556
0.00193750 7.47132
0.00200000 7.43890
0.00209375 7.39338
0.00218750 7.35120
0.00228125 7.31197
0.00237500 7.27538
0.00246875 7.24115
0.00256250 7.20904
0.00265625 7.17886
0.00275000 7.15042
0.00284375 7.12356
0.00293750 7.09815
0.00303125 7.07406
0.00312500 7.05120
0.00321875 7.02945
0.00331250 7.00873
0.00340625 6.98898
0.00350000 6.97011
0.00359375 6.95206
0.00368750 6.93479
0.00378125 6.91823
0.00387500 6.90233
0.00396875 6.88707
0.00406250 6.87239
0.00425000 6.84466
0.00443750 6.81888
0.00462500 6.79485
0.00481250 6.77237
0.00500000 6.75129
0.00515625 6.73470
0.00531250 6.71891
0.00546875 6.70387
0.00562500 6.68952
0.00578125 6.67582
0.00593750 6.66270
0.00609375 6.65014
0.00625000 6.63810
0.00640625 6.62654
0.00656250 6.61543
0.00671875 6.60474
0.00687500 6.59446
0.00718750 6.57499
0.00750000 6.55685
0.00781250 6.53990
0.00812500 6.52403
0.00843750 6.50911
0.00875000 6.49506
0.00906250 6.48180
0.00937500 6.46927
0.00968750 6.45739
0.0100000 6.44611
0.0103125 6.43540
0.0106250 6.42519
0.0109375 6.41545
0.0112500 6.40616
0.0115625 6.39727
0.0118750 6.38875
0.0121875 6.38060
0.0125000 6.37277
0.0128125 6.36524
0.0131250 6.35801
0.0134375 6.35105
0.0137500 6.34434
0.0143750 6.33163
0.0150000 6.31978
0.0156250 6.30869
0.0162500 6.29828
0.0168750 6.28849
0.0175000 6.27927
0.0181250 6.27055
0.0187500 6.26230
0.0193750 6.25447
0.0200000 6.24704
0.0206625 6.23955
0.0213250 6.23243
0.0219875 6.22566
0.0226500 6.21920
0.0233125 6.21303
0.0239750 6.20714
0.0246375 6.20149
0.0253000 6.19608
0.0264578 6.18715
0.0276156 6.17881
0.0287734 6.17100
0.0299313 6.16368
0.0310891 6.15679
0.0322469 6.15028
0.0334047 6.14414
0.0345625 6.13832
0.0355274 6.13370
0.0364922 6.12927
0.0374570 6.12502
0.0384219 6.12094
0.0393867 6.11702
0.0403516 6.11324
0.0413164 6.10960
0.0422813 6.10609
0.0442109 6.09944
0.0461406 6.09322
0.0480703 6.08740
0.0500000 6.08193
0.0515625 6.07773
0.0531250 6.07373
0.0546875 6.06991
0.0562500 6.06625
0.0578125 6.06275
0.0593750 6.05939
0.0609375 6.05617
0.0625000 6.05308
0.0640625 6.05010
0.0656250 6.04723
0.0671875 6.04447
0.0687500 6.04180
0.0718750 6.03674
0.0750000 6.03201
0.0781250 6.02757
0.0812500 6.02340
0.0843750 6.01947
0.0875000 6.01575
0.0906250 6.01224
0.0937500 6.00890
0.0968750 6.00574
0.100000 6.00272
0.103125 5.99985
0.106250 5.99711
0.109375 5.99449
0.112500 5.99199
0.115625 5.98958
0.118750 5.98728
0.121875 5.98507
0.125000 5.98294
0.128125 5.98089
0.131250 5.97892
0.134375 5.97702
0.137500 5.97519
0.143750 5.97170
0.150000 5.96844
0.156250 5.96538
0.162500 5.96250
0.168750 5.95978
0.175000 5.95721
0.181250 5.95478
0.187500 5.95247
0.193750 5.95028
0.200000 5.94819
0.209375 5.94524
0.218750 5.94248
0.228125 5.93989
0.237500 5.93746
0.246875 5.93517
0.256250 5.93301
0.265625 5.93096
0.275000 5.92902
0.284375 5.92718
0.293750 5.92542
0.303125 5.92375
0.312500 5.92216
0.321875 5.92063
0.331250 5.91917
0.340625 5.91777
0.350000 5.91643
0.359375 5.91513
0.368750 5.91389
0.378125 5.91270
0.387500 5.91155
0.396875 5.91044
0.406250 5.90936
0.425000 5.90733
0.443750 5.90542
0.462500 5.90362
0.500000 5.90034
0.531250 5.89787
0.562500 5.89559
0.593750 5.89350
0.625000 5.89156
0.687500 5.88807
0.750000 5.88501
0.812500 5.88229
0.875000 5.87986
0.937500 5.87766
1.00000 5.87566
1.06250 5.87381
1.12500 5.87212
1.18750 5.87054
1.25000 5.86907
1.37500 5.86641
1.50000 5.86406
1.62500 5.86194
1.75000 5.86002
1.87500 5.85827
2.00000 5.85665
2.18750 5.85443
2.37500 5.85243
2.56250 5.85060
2.75000 5.84892
2.93750 5.84735
3.12500 5.84588
3.31250 5.84451
3.50000 5.84320
3.68750 5.84197
3.87500 5.84079
4.25000 5.83858
4.62500 5.83653
5.00000 5.83463
5.31250 5.83312
5.62500 5.83168
5.93750 5.83030
6.25000 5.82897
6.87500 5.82644
7.50000 5.82406
8.12500 5.82180
8.75000 5.81965
9.37500 5.81757
10.0000 5.81557
10.6250 5.81364
11.2500 5.81176
11.8750 5.80993
12.5000 5.80815
13.1250 5.80641
13.7500 5.80470
15.0000 5.80140
16.2500 5.79821
17.5000 5.79513
18.7500 5.79214
20.0000 5.78924
20.9375 5.78711
21.8750 5.78502
23.7500 5.78094
25.6250 5.77701
27.5000 5.77319
29.3750 5.76949
31.2500 5.76589
33.1250 5.76238
35.0000 5.75897
36.8750 5.75564
38.7500 5.75239
40.6250 5.74921
42.5000 5.74611
44.3750 5.74308
46.2500 5.74011
48.1250 5.73721
50.0000 5.73436
53.1250 5.72975
56.2500 5.72529
59.3750 5.72097
62.5000 5.71679
65.6250 5.71273
68.7500 5.70880
71.8750 5.70498
75.0000 5.70127
77.7344 5.69812
80.4688 5.69505
83.2031 5.69206
84.5703 5.69060
85.9375 5.68916
87.5000 5.68755
88.9649 5.68607
90.4297 5.68462
91.8945 5.68321
93.3594 5.68184
94.0918 5.68118
94.8242 5.68053
95.5567 5.67991
96.2891 5.67931
97.0215 5.67873
97.7539 5.67819
98.4863 5.67770
99.2188 5.67726
100.000 5.67687
100.510 5.67668
101.020 5.67655
101.530 5.67650
102.041 5.67656
102.296 5.67664
102.551 5.67675
102.806 5.67692
103.061 5.67715
103.316 5.67744
103.571 5.67781
103.826 5.67829
104.081 5.67888
104.319 5.67957
104.557 5.68041
104.795 5.68146
105.033 5.68275
105.152 5.68351
105.271 5.68437
105.390 5.68533
105.509 5.68642
105.628 5.68765
105.747 5.68904
105.866 5.69062
105.985 5.69243
106.105 5.69451
106.224 5.69690
106.343 5.69969
106.462 5.70295
106.581 5.70679
106.640 5.70898
106.700 5.71137
106.759 5.71400
106.819 5.71688
106.878 5.72007
106.938 5.72359
107.014 5.72871
107.091 5.73460
107.167 5.74144
107.206 5.74529
107.244 5.74945
107.282 5.75399
107.320 5.75892
107.359 5.76433
107.397 5.77024
107.435 5.77677
107.473 5.78398
107.512 5.79199
107.550 5.80092
107.597 5.81335
107.620 5.82030
107.643 5.82782
107.667 5.83597
107.690 5.84484
107.714 5.85452
107.737 5.86509
107.760 5.87677
107.784 5.88967
107.807 5.90399
107.830 5.91988
107.854 5.93774
107.877 5.95784
107.901 5.98053
107.924 6.00615
107.937 6.02169
107.949 6.03825
107.962 6.05619
107.975 6.07534
107.988 6.09612
108.000 6.11833
108.013 6.14246
108.026 6.16826
108.039 6.19632
108.051 6.22634
108.064 6.25897
108.077 6.29389
108.090 6.33183
108.102 6.37241
108.115 6.41647
108.128 6.46352
108.140 6.51002
108.151 6.55970
108.163 6.61274
108.175 6.66933
108.186 6.72964
108.198 6.79385
108.210 6.86213
108.222 6.93466
108.233 7.01159
108.245 7.09309
108.257 7.17929
108.268 7.27035
108.280 7.36637
108.292 7.46746
108.303 7.57371
108.315 7.68420
108.330 7.83371
108.345 7.99177
108.360 8.15832
108.375 8.33203
108.389 8.51501
108.404 8.70578
108.419 8.90392
108.434 9.10750
108.457 9.44155
108.481 9.78778
108.528 10.4998
108.574 11.2100
108.598 11.5504
108.621 11.8717
108.647 12.1966
108.672 12.4862
108.698 12.7372
108.724 12.9377
108.743 13.0513
108.762 13.1332
108.781 13.1824
108.800 13.1982
108.819 13.1803
108.838 13.1291
108.857 13.0452
108.876 12.9299
108.892 12.8135
108.908 12.6793
108.923 12.5278
108.939 12.3604
108.969 11.9879
109.000 11.5729
109.030 11.1273
109.061 10.6657
109.122 9.73489
109.153 9.28792
109.183 8.86420
109.199 8.66295
109.214 8.46955
109.229 8.28442
109.245 8.10790
109.260 7.94018
109.275 7.78140
109.290 7.63157
109.306 7.49155
109.316 7.39989
109.327 7.31312
109.337 7.23029
109.347 7.15132
109.358 7.07541
109.368 7.00390
109.379 6.93597
109.389 6.87149
109.400 6.80977
109.410 6.75189
109.420 6.69711
109.431 6.64530
109.441 6.59590
109.452 6.54971
109.462 6.50613
109.472 6.46503
109.488 6.40884
109.503 6.35739
109.518 6.31032
109.534 6.26729
109.549 6.22796
109.564 6.19202
109.580 6.15918
109.595 6.12917
109.610 6.10172
109.625 6.07662
109.641 6.05362
109.656 6.03255
109.671 6.01321
109.687 5.99543
109.702 5.97908
109.717 5.96410
109.741 5.94298
109.764 5.92432
109.788 5.90761
109.812 5.89271
109.835 5.87925
109.859 5.86714
109.883 5.85615
109.906 5.84613
109.930 5.83692
109.954 5.82850
109.977 5.82075
110.001 5.81359
110.024 5.80692
110.048 5.80074
110.095 5.78963
110.131 5.78205
110.168 5.77520
110.204 5.76894
110.240 5.76323
110.276 5.75799
110.312 5.75318
110.348 5.74872
110.384 5.74462
110.457 5.73727
110.529 5.73091
110.601 5.72535
110.674 5.72047
110.735 5.71678
110.796 5.71344
110.857 5.71041
110.918 5.70765
110.979 5.70512
111.041 5.70280
111.163 5.69871
111.285 5.69521
111.408 5.69220
111.530 5.68958
111.652 5.68729
111.769 5.68536
111.886 5.68363
112.003 5.68209
112.119 5.68069
112.236 5.67943
112.353 5.67828
112.586 5.67626
112.820 5.67456
113.054 5.67310
113.287 5.67184
113.521 5.67073
113.810 5.66953
114.099 5.66848
114.388 5.66755
114.677 5.66672
114.967 5.66597
115.256 5.66528
115.545 5.66465
115.834 5.66407
116.412 5.66302
116.991 5.66209
117.569 5.66124
118.147 5.66045
118.903 5.65950
119.660 5.65862
120.416 5.65779
121.172 5.65699
121.928 5.65623
122.685 5.65550
123.441 5.65478
124.197 5.65408
125.710 5.65272
127.222 5.65140
128.735 5.65012
130.247 5.64887
132.115 5.64736
133.984 5.64587
137.721 5.64298
141.457 5.64018
145.194 5.63745
148.931 5.63479
152.668 5.63219
156.405 5.62965
160.141 5.62716
165.124 5.62392
170.106 5.62078
175.088 5.61771
180.071 5.61471
190.035 5.60893
200.000 5.60342
209.375 5.59844
218.750 5.59367
228.125 5.58906
237.500 5.58462
246.875 5.58032
256.250 5.57616
275.000 5.56821
293.750 5.56069
312.500 5.55354
331.250 5.54671
350.000 5.54015
368.750 5.53382
396.875 5.52473
425.000 5.51595
462.500 5.50470
500.000 5.49379
531.250 5.48487
562.500 5.47604
593.750 5.46723
625.000 5.45838
656.250 5.44945
703.125 5.43575
750.000 5.42161
796.875 5.40673
843.750 5.39093
875.000 5.37975
906.250 5.36794
927.734 5.35940
949.219 5.35047
970.703 5.34113
981.445 5.33628
992.188 5.33134
1000.00 5.32767
1004.44 5.32557
1008.87 5.32347
1013.31 5.32136
1017.74 5.31927
1022.17 5.31722
1024.39 5.31622
1026.61 5.31526
1028.83 5.31435
1031.04 5.31350
1033.26 5.31279
1034.37 5.31249
1035.48 5.31226
1036.69 5.31210
1037.90 5.31207
1039.11 5.31221
1040.32 5.31264
1041.53 5.31349
1042.13 5.31414
1042.74 5.31500
1043.34 5.31614
1043.94 5.31764
1044.55 5.31964
1045.15 5.32236
1045.58 5.32491
1046.01 5.32817
1046.44 5.33240
1046.87 5.33802
1047.08 5.34156
1047.30 5.34571
1047.51 5.35067
1047.72 5.35668
1047.94 5.36409
1048.15 5.37351
1048.37 5.38599
1048.47 5.39396
1048.58 5.40359
1048.67 5.41326
1048.76 5.42479
1048.85 5.43884
1048.93 5.45618
1049.02 5.47806
1049.11 5.50527
1049.20 5.53963
1049.24 5.56011
1049.29 5.58316
1049.33 5.60974
1049.38 5.63902
1049.42 5.67195
1049.46 5.70896
1049.51 5.75049
1049.55 5.79704
1049.60 5.84914
1049.64 5.90734
1049.68 5.97224
1049.73 6.04445
1049.77 6.12462
1049.82 6.21340
1049.86 6.31148
1049.90 6.41953
1049.95 6.53825
1049.99 6.66830
1050.03 6.80025
1050.07 6.94312
1050.11 7.09738
1050.16 7.26344
1050.20 7.44170
1050.24 7.63247
1050.28 7.83600
1050.32 8.05246
1050.36 8.28191
1050.40 8.52433
1050.44 8.77959
1050.48 9.04742
1050.52 9.32743
1050.57 9.61911
1050.61 9.92179
1050.65 10.2347
1050.74 10.9360
1050.82 11.6680
1051.00 13.1629
1051.11 14.0969
1051.17 14.5370
1051.23 14.9446
1051.30 15.4115
1051.37 15.8166
1051.41 16.0422
1051.45 16.2401
1051.52 16.4903
1051.59 16.6624
1051.63 16.7248
1051.67 16.7586
1051.70 16.7663
1051.70 16.7661
1051.71 16.7644
1051.72 16.7614
1051.74 16.7503
1051.78 16.7103
1051.82 16.6423
1051.86 16.5482
1051.90 16.4185
1051.94 16.2645
1051.98 16.0846
1052.02 15.8804
1052.06 15.6533
1052.10 15.4050
1052.19 14.8524
1052.20 14.7442
1052.25 14.3546
1052.31 13.9458
1052.34 13.7030
1052.42 13.0120
1052.50 12.3150
1052.58 11.6192
1052.66 10.9382
1052.74 10.3072
1052.82 9.71684
1052.86 9.42879
1052.90 9.15841
1052.94 8.89887
1052.98 8.65054
1053.02 8.40778
1053.06 8.18289
1053.10 7.96975
1053.14 7.76833
1053.17 7.57853
1053.21 7.40021
1053.25 7.23312
1053.29 7.07699
1053.33 6.94229
1053.36 6.81974
1053.40 6.70201
1053.43 6.59533
1053.47 6.49326
1053.50 6.40113
1053.54 6.31332
1053.58 6.23435
1053.61 6.15934
1053.65 6.09211
1053.68 6.02847
1053.72 5.97160
1053.75 5.91793
1053.79 5.87011
1053.82 5.82509
1053.86 5.78509
1053.90 5.74751
1053.93 5.71418
1054.00 5.65526
1054.07 5.60645
1054.14 5.56607
1054.21 5.53269
1054.29 5.50507
1054.36 5.48218
1054.43 5.46339
1054.51 5.44502
1054.59 5.43017
1054.67 5.41789
1054.76 5.40762
1054.92 5.39142
1055.08 5.37937
1055.25 5.36988
1055.41 5.36225
1055.58 5.35591
1055.74 5.35052
1056.07 5.34184
1056.40 5.33518
1056.73 5.32990
1057.06 5.32563
1057.56 5.32042
1058.07 5.31642
1058.58 5.31326
1059.09 5.31070
1059.60 5.30859
1060.10 5.30681
1061.12 5.30394
1062.13 5.30171
1063.15 5.29991
1064.17 5.29839
1065.18 5.29708
1066.73 5.29534
1068.29 5.29383
1069.84 5.29245
1071.39 5.29117
1072.95 5.28996
1074.50 5.28881
1077.61 5.28660
1080.71 5.28447
1083.82 5.28238
1086.93 5.28031
1090.03 5.27826
1095.29 5.27477
1100.55 5.27125
1111.06 5.26408
1121.57 5.25668
1132.09 5.24899
1135.91 5.24611
1146.43 5.23797
1156.94 5.22948
1177.97 5.21128
1199.00 5.19123
1220.02 5.16896
1241.05 5.14396
1262.08 5.11566
1283.11 5.08331
1304.14 5.04586
1319.43 5.01455
1334.72 4.97903
1350.02 4.93835
1357.66 4.91565
1365.31 4.89114
1375.82 4.85399
1386.34 4.81219
1396.85 4.76477
1402.11 4.73856
1407.37 4.71047
1416.45 4.65670
1420.99 4.62702
1425.53 4.59521
1430.07 4.56099
1434.61 4.52405
1439.15 4.48422
1443.69 4.44087
1448.95 4.38579
1454.20 4.32464
1459.46 4.25635
1462.09 4.21913
1464.72 4.17961
1467.34 4.13754
1469.97 4.09268
1472.60 4.04476
1475.23 3.99347
1477.86 3.93839
1480.49 3.87915
1483.12 3.81520
1485.74 3.74602
1487.30 3.70238
1488.85 3.65659
1490.40 3.60854
1491.96 3.55780
1493.51 3.50424
1495.06 3.44767
1496.62 3.38784
1498.17 3.32447
1499.48 3.26781
1500.80 3.20822
1502.11 3.14544
1503.43 3.07921
1504.74 3.00921
1506.06 2.93525
1507.37 2.85694
1508.68 2.77393
1509.76 2.70219
1510.83 2.62687
1511.91 2.54761
1512.99 2.46429
1514.06 2.37651
1515.14 2.28421
1516.21 2.18701
1516.75 2.13640
1517.29 2.08455
1517.94 2.01925
1518.60 1.95188
1519.26 1.88240
1519.91 1.81080
1520.57 1.73709
1521.23 1.66128
1521.89 1.58344
1522.54 1.50369
1523.20 1.42208
1523.86 1.33912
1524.51 1.25506
1524.84 1.21271
1525.17 1.17042
1525.50 1.12805
1525.83 1.08596
1526.16 1.04402
1526.49 1.00265
1526.81 0.961788
1527.14 0.921887
1527.47 0.882956
1527.80 0.845523
1528.19 0.803389
1528.58 0.764460
1528.97 0.729371
1529.35 0.699315
1529.55 0.686450
1529.74 0.675371
1529.94 0.666203
1530.13 0.659161
1530.32 0.654487
1530.52 0.652447
1530.71 0.653339
1530.91 0.657493
1531.14 0.667267
1531.37 0.682955
1531.49 0.693270
1531.60 0.705379
1531.72 0.719405
1531.83 0.735329
1532.01 0.763197
1532.04 0.768586
1532.15 0.789972
1532.24 0.809948
1532.33 0.831493
1532.52 0.880586
1532.66 0.923457
1532.80 0.971622
1532.95 1.02555
1533.09 1.08531
1533.23 1.15231
1533.37 1.22677
1533.51 1.30938
1533.65 1.40024
1533.74 1.45816
1533.82 1.51884
1533.90 1.58314
1533.98 1.65125
1534.07 1.72340
1534.15 1.79981
1534.23 1.88072
1534.31 1.96639
1534.39 2.05824
1534.48 2.15434
1534.56 2.25609
1534.64 2.36383
1534.72 2.47791
1534.80 2.59873
1534.89 2.72670
1534.97 2.86226
1535.05 3.00770
1535.13 3.16003
1535.22 3.32152
1535.30 3.49276
1535.38 3.67669
1535.46 3.86957
1535.54 4.07431
1535.63 4.29175
1535.71 4.52566
1535.79 4.77140
1535.87 5.03276
1535.96 5.31087
1536.04 5.60700
1536.12 5.92251
1536.20 6.25891
1536.28 6.61784
1536.37 7.00594
1536.45 7.41589
1536.53 7.85441
1536.61 8.32393
1536.69 8.82716
1536.78 9.36711
1536.86 9.94711
1536.94 10.5709
1537.02 11.2427
1537.10 11.9672
1537.19 12.7496
1537.27 13.5960
1537.35 14.5130
1537.43 15.5083
1537.51 16.5905
1537.60 17.7695
1537.68 19.0730
1537.76 20.4823
1537.84 22.0272
1537.93 23.7243
1537.97 24.6585
1538.01 25.6165
1538.05 26.6227
1538.09 27.6802
1538.13 28.7920
1538.17 29.9616
1538.21 31.1927
1538.25 32.4890
1538.30 33.8889
1538.34 35.3301
1538.38 36.8499
1538.42 38.4530
1538.46 40.1447
1538.50 41.9305
1538.54 43.8162
1538.58 45.8081
1538.62 47.9125
1538.67 50.1365
1538.71 52.4870
1538.75 54.9717
1538.79 57.5985
1538.83 60.3757
1538.87 63.3118
1538.91 66.4159
1538.95 69.7795
1538.99 73.2523
1539.04 76.9223
1539.08 80.7996
1539.12 84.8948
1539.16 89.2187
1539.20 93.7823
1539.24 98.5968
1539.28 103.673
1539.32 109.024
1539.36 114.659
1539.40 120.590
1539.45 126.829
1539.49 133.387
1539.53 140.274
1539.57 147.501
1539.61 155.268
1539.65 163.214
1539.69 171.529
1539.73 180.220
1539.77 189.296
1539.82 198.762
1539.90 218.885
1539.98 240.617
1540.06 263.961
1540.14 288.895
1540.23 315.366
1540.31 343.636
1540.39 372.902
1540.47 403.336
1540.55 434.740
1540.88 565.228
1540.97 598.046
1541.05 629.896
1541.14 660.366
1541.22 689.038
1541.34 725.221
1541.39 741.255
1541.45 755.870
1541.51 768.963
1541.57 780.439
1541.63 790.215
1541.68 798.222
1541.74 804.404
1541.80 808.721
1541.84 810.561
1541.90 811.720
1541.97 810.642
1542.03 807.350
1542.09 801.889
1542.15 794.326
1542.22 784.745
1542.28 773.249
1542.34 759.956
1542.43 739.409
1542.51 716.479
1542.60 691.312
1542.68 664.297
1542.77 632.365
1542.87 599.522
1543.05 531.775
1543.21 474.643
1543.29 447.056
1543.37 420.257
1543.45 394.397
1543.53 369.601
1543.61 345.963
1543.69 323.550
1543.77 302.146
1543.85 282.304
1543.93 263.749
1544.00 246.463
1544.08 230.414
1544.16 215.558
1544.24 201.844
1544.32 189.211
1544.37 182.182
1544.41 175.500
1544.46 169.150
1544.51 163.244
1544.55 157.510
1544.60 152.067
1544.65 146.900
1544.69 142.098
1544.74 137.439
1544.79 133.017
1544.84 128.819
1544.88 124.916
1544.93 121.128
1544.98 117.529
1545.02 114.110
1545.07 110.927
1545.15 105.751
1545.23 101.049
1545.31 96.7159
1545.39 92.7153
1545.47 88.9703
1545.54 85.5453
1545.62 82.3655
1545.70 79.4077
1545.78 76.6175
1545.86 74.0457
1545.94 71.6398
1546.02 69.3847
1546.10 67.2674
1546.18 65.2760
1546.26 63.3999
1546.34 61.6296
1546.42 59.9361
1546.49 58.3539
1546.57 56.8544
1546.65 55.4315
1546.73 54.0795
1546.81 52.7934
1546.97 50.4009
1547.13 48.2086
1547.29 46.2173
1547.44 44.3901
1547.60 42.7081
1547.74 41.3546
1547.88 40.0888
1548.01 38.9028
1548.15 37.7973
1548.29 36.7499
1548.42 35.7632
1548.56 34.8324
1548.70 33.9592
1548.83 33.1267
1548.97 32.3380
1549.11 31.5898
1549.24 30.8843
1549.38 30.2084
1549.52 29.5695
1549.79 28.3753
1549.95 27.7292
1550.11 27.1199
1550.26 26.5372
1550.42 25.9865
1550.58 25.4587
1550.74 24.9588
1551.06 24.0259
1551.37 23.1706
1551.69 22.3886
1552.01 21.6668
1552.32 21.0028
1552.70 20.2786
1553.07 19.6172
1553.44 19.0095
1553.82 18.4496
1554.19 17.9320
1554.57 17.4522
1554.94 17.0064
1555.31 16.5910
1555.63 16.2605
1555.95 15.9482
1556.27 15.6527
1556.58 15.3735
1556.90 15.1077
1557.21 14.8560
1557.53 14.6159
1557.85 14.3880
1558.16 14.1701
1558.48 13.9621
1559.11 13.5743
1559.75 13.2191
1560.38 12.8928
1561.01 12.5916
1561.65 12.3135
1562.28 12.0556
1562.91 11.8160
1563.55 11.5927
1564.18 11.3841
1564.81 11.1889
1565.45 11.0058
1565.96 10.8643
1566.48 10.7298
1567.52 10.4796
1568.55 10.2514
1569.59 10.0425
1570.63 9.85058
1571.66 9.67377
1572.70 9.51039
1573.73 9.35896
1575.00 9.18821
1576.27 9.03165
1577.53 8.88738
1578.80 8.75421
1580.07 8.63073
1581.33 8.51611
1582.60 8.40935
1583.86 8.30968
1585.36 8.20004
1586.86 8.09838
1588.36 8.00388
1589.85 7.91585
1591.35 7.83364
1592.84 7.75691
1594.34 7.68468
1595.84 7.61674
1598.37 7.51053
1600.90 7.41411
1603.44 7.32620
1605.97 7.24574
1608.50 7.17177
1611.03 7.10359
1613.57 7.04051
1616.10 6.98201
1618.63 6.92758
1621.16 6.87683
1623.70 6.82940
1626.23 6.78500
1628.76 6.74334
1631.29 6.70420
1633.83 6.66736
1636.36 6.63265
1637.28 6.62052
1639.81 6.58856
1642.35 6.55853
1644.88 6.53044
1646.14 6.51719
1647.41 6.50452
1648.79 6.49150
1650.17 6.47955
1650.86 6.47411
1651.56 6.46913
1652.25 6.46476
1652.94 6.46122
1653.43 6.45939
1653.92 6.45835
1654.41 6.45839
1654.89 6.45996
1655.14 6.46155
1655.38 6.46387
1655.63 6.46714
1655.87 6.47170
1656.12 6.47821
1656.36 6.48774
1656.49 6.49432
1656.61 6.50255
1656.73 6.51308
1656.85 6.52671
1656.96 6.54224
1657.07 6.56207
1657.18 6.58750
1657.28 6.62015
1657.39 6.66208
1657.45 6.68728
1657.50 6.71577
1657.55 6.74795
1657.61 6.78423
1657.66 6.82509
1657.72 6.87101
1657.77 6.92253
1657.82 6.98021
1657.88 7.04463
1657.93 7.11642
1657.99 7.19624
1658.04 7.28473
1658.09 7.38259
1658.15 7.49051
1658.20 7.60917
1658.26 7.73926
1658.31 7.88144
1658.36 8.03634
1658.42 8.20457
1658.47 8.38666
1658.53 8.58309
1658.58 8.79022
1658.63 8.98600
1658.67 9.19331
1658.72 9.41221
1658.77 9.63767
1658.81 9.87939
1658.86 10.1324
1658.91 10.3965
1658.95 10.6653
1659.00 10.9500
1659.05 11.2443
1659.14 11.8521
1659.23 12.4952
1659.33 13.1513
1659.51 14.4894
1659.61 15.1474
1659.70 15.7713
1659.82 16.4857
1659.87 16.8148
1659.93 17.1137
1660.01 17.4700
1660.08 17.7690
1660.17 18.0409
1660.25 18.2192
1660.32 18.3227
1660.40 18.3577
1660.40 18.3575
1660.41 18.3562
1660.42 18.3541
1660.44 18.3463
1660.48 18.3188
1660.54 18.2398
1660.60 18.1260
1660.67 17.9111
1660.73 17.7129
1660.79 17.4822
1660.88 17.0363
1660.98 16.5248
1661.05 16.0509
1661.13 15.5441
1661.29 14.4704
1661.56 12.5490
1661.62 12.0785
1661.69 11.6279
1661.76 11.1933
1661.82 10.7769
1661.90 10.3462
1661.97 9.94121
1662.01 9.74621
1662.04 9.56326
1662.08 9.38705
1662.12 9.21764
1662.15 9.05060
1662.19 8.89494
1662.22 8.74603
1662.26 8.60378
1662.30 8.46444
1662.33 8.33543
1662.37 8.21277
1662.41 8.09632
1662.44 7.98295
1662.48 7.87861
1662.51 7.77998
1662.55 7.68689
1662.59 7.59676
1662.62 7.51428
1662.70 7.36392
1662.77 7.22996
1662.84 7.11441
1662.91 7.01242
1662.99 6.92521
1663.03 6.87681
1663.07 6.83361
1663.16 6.75827
1663.25 6.69581
1663.34 6.64420
1663.43 6.60165
1663.51 6.56662
1663.60 6.53777
1663.69 6.51397
1663.78 6.49429
1663.87 6.47793
1663.95 6.46425
1664.04 6.45272
1664.22 6.43452
1664.39 6.42085
1664.57 6.41013
1664.75 6.40138
1664.92 6.39401
1665.10 6.38763
1665.45 6.37693
1665.80 6.36812
1666.30 6.35780
1666.80 6.34918
1667.30 6.34170
1667.79 6.33505
1668.29 6.32899
1668.79 6.32342
1669.78 6.31329
1670.69 6.30484
1671.61 6.29694
1672.52 6.28945
1673.43 6.28230
1675.25 6.26874
1677.08 6.25595
1678.90 6.24372
1680.72 6.23198
1684.37 6.20968
1687.35 6.19244
1690.34 6.17600
1696.31 6.14514
1702.27 6.11667
1708.24 6.09030
1713.55 6.06841
1718.85 6.04784
1729.46 6.01021
1740.07 5.97651
1750.68 5.94617
1765.27 5.90903
1779.85 5.87626
1794.44 5.84707
1809.03 5.82087
1832.90 5.78336
1856.77 5.75098
1880.65 5.72264
1904.52 5.69755
1920.43 5.68240
1936.34 5.66820
1950.93 5.65602
1965.52 5.64455
1980.11 5.63370
1994.70 5.62344
2000.00 5.61984
2015.31 5.60986
2030.62 5.60045
2038.28 5.59595
2045.94 5.59161
2053.59 5.58743
2061.25 5.58341
2068.21 5.57992
2075.17 5.57660
2082.13 5.57349
2089.09 5.57062
2096.05 5.56807
2099.53 5.56693
2103.01 5.56592
2106.49 5.56503
2109.97 5.56431
2113.45 5.56375
2116.93 5.56345
2120.23 5.56343
2123.54 5.56373
2126.85 5.56444
2130.15 5.56565
2133.46 5.56754
2135.11 5.56880
2136.76 5.57031
2138.42 5.57211
2140.07 5.57422
2141.72 5.57678
2143.38 5.57983
2145.12 5.58369
2146.86 5.58835
2148.60 5.59401
2150.34 5.60092
2151.21 5.60495
2152.08 5.60943
2152.95 5.61442
2153.82 5.62000
2154.69 5.62625
2155.56 5.63325
2156.43 5.64115
2157.30 5.65012
2158.25 5.66146
2159.21 5.67465
2160.17 5.69007
2161.12 5.70824
2161.60 5.71858
2162.08 5.72984
2162.56 5.74221
2163.04 5.75577
2163.52 5.77072
2163.99 5.78721
2164.47 5.80551
2164.95 5.82582
2165.43 5.84856
2165.91 5.87403
2166.39 5.90281
2166.87 5.93535
2167.34 5.97251
2167.82 6.01500
2168.06 6.03871
2168.30 6.06411
2168.54 6.09149
2168.78 6.12105
2169.11 6.16549
2169.43 6.21506
2169.76 6.27076
2170.08 6.33368
2170.25 6.36848
2170.41 6.40540
2170.57 6.44489
2170.74 6.48717
2170.90 6.53255
2171.06 6.58132
2171.23 6.63387
2171.39 6.69059
2171.63 6.78272
2171.75 6.83313
2171.87 6.88631
2171.99 6.94347
2172.11 7.00398
2172.23 7.06925
2172.35 7.13860
2172.47 7.21372
2172.59 7.29463
2172.71 7.38201
2172.83 7.47583
2172.95 7.57864
2173.06 7.68985
2173.18 7.81272
2173.30 7.94689
2173.37 8.03361
2173.45 8.12595
2173.52 8.22451
2173.59 8.32843
2173.66 8.44145
2173.73 8.56304
2173.80 8.69425
2173.87 8.83418
2173.94 8.98820
2174.01 9.15596
2174.08 9.33931
2174.15 9.53736
2174.22 9.75816
2174.29 9.99818
2174.36 10.2674
2174.43 10.5617
2174.49 10.8397
2174.55 11.1445
2174.61 11.4791
2174.67 11.8469
2174.73 12.2517
2174.79 12.6976
2174.85 13.1891
2174.91 13.7217
2174.97 14.3188
2175.03 14.9777
2175.09 15.7047
2175.15 16.4925
2175.21 17.3750
2175.27 18.3473
2175.33 19.4175
2175.39 20.5738
2175.44 21.6187
2175.49 22.7457
2175.54 23.9602
2175.59 25.2676
2175.64 26.6734
2175.69 28.1831
2175.73 29.8024
2175.78 31.5370
2175.83 33.3924
2175.88 35.3742
2175.93 37.4877
2175.98 39.7381
2176.03 42.1305
2176.08 44.6693
2176.13 47.3590
2176.17 50.1438
2176.23 53.8383
2176.29 57.7745
2176.35 61.9562
2176.41 66.3850
2176.47 71.0610
2176.53 75.9821
2176.59 81.1441
2176.65 86.4485
2176.71 92.0662
2176.77 97.8973
2176.89 110.035
2177.01 122.917
2177.13 136.139
2177.44 170.382
2177.56 183.212
2177.68 195.102
2177.80 205.933
2177.91 215.224
2177.98 219.654
2178.05 223.462
2178.11 226.458
2178.16 228.894
2178.25 231.598
2178.34 233.036
2178.40 233.280
2178.49 232.692
2178.57 230.958
2178.65 228.264
2178.73 224.593
2178.82 219.873
2178.90 214.324
2178.98 207.893
2179.06 200.821
2179.19 188.585
2179.32 175.228
2179.48 156.879
2179.65 138.244
2179.81 119.947
2179.90 111.066
2179.98 102.589
2180.06 94.7495
2180.14 87.2685
2180.22 80.1748
2180.30 73.4888
2180.37 67.2239
2180.45 61.3865
2180.49 58.5941
2180.53 55.9767
2180.57 53.4623
2180.61 51.0498
2180.65 48.5641
2180.69 46.2481
2180.73 44.0393
2180.78 41.9353
2180.82 39.8860
2180.86 37.9862
2180.90 36.1829
2180.94 34.4732
2180.98 32.8156
2181.02 31.2858
2181.06 29.8400
2181.11 28.4749
2181.15 27.1567
2181.19 25.9449
2181.23 24.8038
2181.27 23.7303
2181.33 22.2510
2181.39 20.9249
2181.45 19.7169
2181.51 18.6179
2181.57 17.6192
2181.63 16.7124
2181.69 15.8896
2181.75 15.1436
2181.81 14.4673
2181.87 13.8543
2181.93 13.2987
2181.99 12.7950
2182.05 12.3381
2182.11 11.9235
2182.17 11.5467
2182.23 11.2041
2182.27 10.9827
2182.31 10.7800
2182.36 10.5851
2182.40 10.4063
2182.44 10.2342
2182.48 10.0760
2182.56 9.78633
2182.65 9.52497
2182.73 9.29120
2182.81 9.08118
2182.89 8.89384
2182.98 8.72186
2183.06 8.56532
2183.14 8.42220
2183.22 8.29235
2183.31 8.17119
2183.39 8.06045
2183.47 7.95639
2183.55 7.86068
2183.65 7.75450
2183.75 7.65627
2183.85 7.56509
2183.95 7.48105
2184.04 7.40176
2184.14 7.32832
2184.24 7.25872
2184.34 7.19398
2184.53 7.07492
2184.73 6.96873
2184.92 6.87351
2185.12 6.78770
2185.28 6.72112
2185.45 6.66016
2185.61 6.60383
2185.78 6.55167
2185.94 6.50297
2186.11 6.45796
2186.27 6.41602
2186.44 6.37686
2186.60 6.34004
2186.77 6.30576
2187.10 6.24339
2187.43 6.18804
2187.76 6.13897
2188.03 6.10261
2188.30 6.06948
2188.57 6.03908
2188.84 6.01113
2189.11 5.98526
2189.38 5.96144
2189.65 5.93937
2189.92 5.91889
2190.46 5.88203
2191.00 5.84998
2191.54 5.82184
2192.08 5.79708
2192.56 5.77741
2193.04 5.75970
2193.53 5.74365
2194.01 5.72911
2194.49 5.71583
2194.97 5.70371
2195.45 5.69261
2195.93 5.68243
2196.65 5.66862
2197.37 5.65633
2198.09 5.64533
2198.81 5.63546
2199.59 5.62586
2200.37 5.61723
2201.15 5.60945
2201.94 5.60241
2202.72 5.59602
2203.50 5.59018
2205.06 5.57994
2206.62 5.57128
2208.18 5.56388
2209.75 5.55743
2211.31 5.55178
2212.87 5.54679
2214.43 5.54236
2215.99 5.53839
2217.55 5.53481
2219.12 5.53155
2220.68 5.52859
2223.80 5.52335
2226.93 5.51885
2230.05 5.51495
2233.17 5.51144
2236.30 5.50828
2239.90 5.50498
2243.51 5.50197
2247.11 5.49919
2250.71 5.49661
2254.32 5.49418
2257.92 5.49188
2265.13 5.48760
2272.34 5.48360
2279.55 5.47983
2286.76 5.47624
2293.97 5.47278
2303.58 5.46834
2313.19 5.46405
2322.80 5.45986
2332.41 5.45576
2345.87 5.45015
2359.32 5.44464
2372.78 5.43921
2386.24 5.43385
2413.15 5.42327
2440.06 5.41284
2466.97 5.40247
2493.89 5.39214
2520.80 5.38180
2547.71 5.37141
2586.16 5.35644
2624.60 5.34122
2663.05 5.32566
2701.49 5.30969
2743.78 5.29148
2786.08 5.27248
2828.37 5.25253
2870.66 5.23144
2916.79 5.20683
2937.94 5.19490
2959.08 5.18251
2980.23 5.16963
3001.37 5.15621
3016.75 5.14609
3037.90 5.13167
3048.47 5.12424
3059.04 5.11667
3069.62 5.10899
3080.19 5.10124
3085.47 5.09736
3090.76 5.09350
3096.05 5.08968
3101.33 5.08593
3105.66 5.08296
3109.98 5.08012
3114.31 5.07748
3118.63 5.07514
3122.96 5.07324
3127.28 5.07204
3129.45 5.07179
3131.61 5.07192
3133.77 5.07254
3135.93 5.07380
3137.74 5.07551
3139.54 5.07803
3141.34 5.08164
3143.14 5.08671
3144.04 5.08998
3144.95 5.09390
3145.85 5.09863
3146.75 5.10434
3147.65 5.11127
3148.55 5.11975
3149.45 5.13020
3150.35 5.14324
3151.07 5.15610
3151.79 5.17180
3152.51 5.19125
3153.24 5.21571
3153.60 5.23039
3153.96 5.24704
3154.32 5.26614
3154.68 5.28808
3155.04 5.31363
3155.40 5.34347
3155.76 5.37882
3156.12 5.42130
3156.45 5.46870
3156.61 5.49621
3156.78 5.52697
3156.95 5.56187
3157.11 5.60145
3157.28 5.64713
3157.44 5.70062
3157.61 5.76468
3157.77 5.84173
3157.94 5.93648
3158.02 5.99261
3158.10 6.05481
3158.18 6.12566
3158.27 6.20465
3158.35 6.29511
3158.43 6.39646
3158.51 6.51299
3158.60 6.64394
3158.68 6.79485
3158.76 6.96468
3158.84 7.16053
3158.93 7.38377
3159.01 7.63807
3159.09 7.92374
3159.18 8.25214
3159.26 8.62001
3159.30 8.82676
3159.34 9.04145
3159.38 9.26952
3159.42 9.51168
3159.46 9.77511
3159.51 10.0480
3159.55 10.3445
3159.59 10.6512
3159.63 10.9840
3159.67 11.3278
3159.71 11.6911
3159.75 12.0747
3159.80 12.4897
3159.84 12.9171
3159.88 13.3673
3159.92 13.8413
3159.96 14.3522
3160.00 14.8766
3160.04 15.4271
3160.08 16.0046
3160.14 16.7923
3160.19 17.6116
3160.24 18.4956
3160.29 19.4123
3160.35 20.3982
3160.40 21.4171
3160.45 22.5094
3160.50 23.6345
3160.56 24.8365
3160.61 26.0702
3160.66 27.3835
3160.71 28.7268
3160.77 30.1513
3160.82 31.6029
3160.92 34.6930
3161.00 37.1530
3161.08 39.7221
3161.16 42.3925
3161.24 45.1544
3161.40 50.9051
3161.55 56.8239
3161.88 69.3015
3162.05 75.2178
3162.13 77.9949
3162.22 80.5861
3162.30 83.0294
3162.38 85.2423
3162.46 87.2563
3162.55 89.0025
3162.62 90.3723
3162.70 91.5125
3162.78 92.4946
3162.87 93.1975
3162.93 93.4930
3162.99 93.6068
3163.00 93.6082
3163.03 93.5859
3163.06 93.5251
3163.12 93.2879
3163.18 92.8490
3163.24 92.2380
3163.31 91.3696
3163.38 90.3165
3163.45 89.0554
3163.52 87.6097
3163.60 85.6914
3163.68 83.5523
3163.82 79.4593
3163.96 74.9327
3164.09 70.0241
3164.23 64.9236
3164.47 55.8619
3164.59 51.3780
3164.71 47.0417
3164.79 44.1192
3164.87 41.3216
3164.95 38.6243
3165.03 36.0371
3165.11 33.5379
3165.19 31.1939
3165.28 28.9778
3165.36 26.8922
3165.43 25.2192
3165.49 23.6415
3165.56 22.1580
3165.63 20.7869
3165.70 19.4858
3165.77 18.2731
3165.84 17.1459
3165.91 16.1156
3165.98 15.1485
3166.04 14.2566
3166.11 13.4362
3166.18 12.6938
3166.22 12.3360
3166.25 12.0036
3166.32 11.3732
3166.39 10.7986
3166.46 10.2831
3166.52 9.86721
3166.58 9.49152
3166.64 9.14096
3166.69 8.82506
3166.75 8.53099
3166.81 8.26658
3166.87 8.02485
3166.93 7.80404
3166.99 7.59925
3167.05 7.41570
3167.11 7.24565
3167.17 7.09340
3167.23 6.95244
3167.29 6.82628
3167.35 6.71136
3167.41 6.60665
3167.53 6.42283
3167.64 6.27008
3167.76 6.14272
3167.88 6.03685
3168.00 5.94685
3168.12 5.87051
3168.24 5.80526
3168.36 5.74946
3168.47 5.70284
3168.58 5.66205
3168.81 5.59292
3169.03 5.53665
3169.26 5.48972
3169.48 5.44978
3169.71 5.41524
3169.93 5.38501
3170.16 5.35829
3170.38 5.33449
3170.61 5.31316
3171.06 5.27654
3171.51 5.24629
3171.96 5.22095
3172.56 5.19303
3173.16 5.17024
3173.56 5.15728
3174.16 5.14047
3174.76 5.12623
3175.36 5.11402
3175.96 5.10346
3176.76 5.09141
3177.56 5.08124
3178.36 5.07254
3179.16 5.06503
3179.96 5.05848
3180.76 5.05271
3182.36 5.04296
3183.96 5.03497
3185.56 5.02826
3187.16 5.02252
3188.76 5.01749
3190.36 5.01302
3191.96 5.00899
3195.16 5.00185
3198.36 4.99555
3201.56 4.98982
3204.76 4.98448
3207.96 4.97941
3211.16 4.97452
3214.36 4.96976
3218.76 4.96334
3223.16 4.95698
3227.56 4.95065
3231.96 4.94431
3240.76 4.93150
3249.56 4.91837
3258.36 4.90485
3267.16 4.89082
3284.76 4.86101
3303.96 4.82528
3321.57 4.78895
3339.17 4.74848
3356.77 4.70301
3374.37 4.65138
3390.37 4.59778
3406.37 4.53646
3422.37 4.46516
3438.37 4.38154
3447.17 4.32873
3455.97 4.27012
3464.77 4.20464
3473.57 4.13098
3481.97 4.05146
3490.37 3.96108
3498.77 3.85736
3502.97 3.79956
3507.17 3.73731
3511.58 3.66639
3515.98 3.58903
3520.38 3.50433
3524.78 3.41123
3528.98 3.31338
3533.18 3.20548
3535.28 3.14731
3537.38 3.08607
3539.48 3.02157
3541.58 2.95363
3543.78 2.87841
3545.98 2.79892
3548.18 2.71500
3550.38 2.62662
3551.48 2.58079
3552.58 2.53396
3553.68 2.48621
3554.78 2.43770
3555.88 2.38867
3556.98 2.33948
3558.08 2.29065
3559.18 2.24299
3559.98 2.20976
3560.78 2.17849
3561.58 2.15017
3562.38 2.12623
3562.78 2.11654
3563.18 2.10884
3563.58 2.10359
3563.98 2.10139
3564.38 2.10300
3564.78 2.10944
3565.18 2.12208
3565.58 2.14282
3565.98 2.17452
3566.30 2.21137
3566.63 2.26222
3566.79 2.29483
3566.95 2.33336
3567.11 2.37974
3567.28 2.43534
3567.44 2.50336
3567.60 2.58627
3567.76 2.68940
3567.93 2.81703
3568.01 2.89337
3568.09 2.97790
3568.17 3.07269
3568.25 3.17906
3568.33 3.30005
3568.41 3.43437
3568.50 3.58524
3568.58 3.75466
3568.66 3.96232
3568.75 4.19474
3568.84 4.46063
3568.93 4.75753
3569.01 5.09623
3569.10 5.47321
3569.19 5.90165
3569.28 6.37654
3569.36 6.91379
3569.45 7.50635
3569.50 7.83095
3569.54 8.17320
3569.63 8.90456
3569.67 9.30345
3569.71 9.72275
3569.76 10.1631
3569.80 10.6145
3569.85 11.0986
3569.89 11.6057
3569.93 12.1365
3569.98 12.6787
3570.04 13.4750
3570.10 14.3045
3570.16 15.1965
3570.21 16.1224
3570.27 17.1145
3570.33 18.1404
3570.39 19.2169
3570.45 20.3443
3570.51 21.5431
3570.57 22.7733
3570.63 24.0761
3570.69 25.4074
3570.81 28.2399
3570.93 31.2328
3571.06 34.9430
3571.20 38.8156
3571.34 42.8609
3571.48 46.9647
3571.66 52.6197
3571.85 58.1018
3571.99 61.9389
3572.13 65.4819
3572.26 68.7020
3572.40 71.4776
3572.48 72.7945
3572.55 73.9555
3572.69 75.6556
3572.76 76.3062
3572.83 76.7827
3572.92 77.1303
3573.00 77.2403
3573.09 77.0903
3573.18 76.6618
3573.25 76.1542
3573.32 75.4925
3573.45 73.8137
3573.54 72.3748
3573.63 70.7345
3573.76 67.9404
3573.89 64.7956
3574.03 61.3194
3574.16 57.6347
3574.36 51.6275
3574.56 45.5125
3574.69 41.5527
3574.83 37.7162
3574.96 33.9918
3575.09 30.4744
3575.21 27.2874
3575.28 25.7723
3575.34 24.3349
3575.40 22.9301
3575.46 21.6035
3575.53 20.3128
3575.59 19.0993
3575.65 17.9238
3575.72 16.8060
3575.78 15.7453
3575.84 14.7563
3575.90 13.8061
3575.97 12.9235
3576.03 12.0787
3576.09 11.2969
3576.14 10.7243
3576.19 10.1795
3576.23 9.66155
3576.28 9.16962
3576.33 8.70283
3576.38 8.26029
3576.43 7.84112
3576.47 7.45245
3576.52 7.07687
3576.57 6.72197
3576.62 6.38688
3576.66 6.07710
3576.71 5.77862
3576.76 5.49736
3576.81 5.23249
3576.86 4.98824
3576.90 4.75343
3576.95 4.53265
3577.05 4.13414
3577.14 3.77871
3577.24 3.46859
3577.33 3.19246
3577.43 2.95173
3577.52 2.73736
3577.62 2.55028
3577.70 2.41309
3577.78 2.28901
3577.85 2.17663
3577.93 2.07592
3578.01 1.98313
3578.09 1.89964
3578.24 1.75249
3578.40 1.62763
3578.55 1.52181
3578.71 1.43040
3578.86 1.35049
3579.02 1.27938
3579.17 1.21624
3579.33 1.15924
3579.48 1.10735
3579.79 1.01560
3580.10 0.937047
3580.34 0.883454
3580.58 0.834953
3580.82 0.790914
3581.06 0.751035
3581.30 0.714646
3581.54 0.681672
3581.78 0.651939
3582.01 0.625436
3582.32 0.595375
3582.63 0.570542
3582.95 0.550855
3583.26 0.536620
3583.57 0.528023
3583.88 0.525496
3584.19 0.529499
3584.50 0.540589
3584.76 0.556072
3585.02 0.577651
3585.29 0.605896
3585.55 0.641307
3585.81 0.684888
3586.07 0.737361
3586.34 0.799680
3586.60 0.872632
3586.73 0.913878
3586.86 0.958009
3586.99 1.00588
3587.13 1.05697
3587.26 1.11225
3587.39 1.17112
3587.52 1.23422
3587.65 1.30180
3587.78 1.37469
3587.91 1.45210
3588.05 1.53551
3588.18 1.62401
3588.31 1.71932
3588.44 1.82037
3588.57 1.92830
3588.70 2.04354
3588.87 2.20284
3589.04 2.37504
3589.20 2.56227
3589.37 2.76589
3589.54 2.98739
3589.62 3.10608
3589.70 3.22845
3589.79 3.35767
3589.87 3.49092
3589.96 3.63168
3590.04 3.77688
3590.17 4.02105
3590.30 4.28055
3590.43 4.56075
3590.56 4.85888
3590.70 5.18118
3590.83 5.52457
3590.96 5.89342
3591.09 6.28992
3591.22 6.71990
3591.35 7.17957
3591.48 7.67900
3591.62 8.21399
3591.75 8.79652
3591.88 9.42195
3592.01 10.0992
3592.14 10.8335
3592.27 11.6370
3592.40 12.5043
3592.54 13.4560
3592.67 14.4861
3592.80 15.6198
3592.93 16.8507
3593.06 18.1986
3593.19 19.6769
3593.26 20.4757
3593.32 21.3135
3593.39 22.1923
3593.45 23.1003
3593.52 24.0677
3593.59 25.0677
3593.65 26.1339
3593.72 27.2365
3593.78 28.4126
3593.85 29.6487
3593.91 30.9481
3593.98 32.2932
3594.05 33.7288
3594.11 35.2151
3594.18 36.8018
3594.24 38.4448
3594.31 40.1988
3594.37 42.0436
3594.44 43.9838
3594.50 45.9925
3594.57 48.1363
3594.64 50.3901
3594.70 52.7589
3594.77 55.2094
3594.83 57.8222
3594.90 60.5660
3594.97 63.4462
3595.03 66.4213
3595.10 69.5884
3595.16 72.9082
3595.23 76.3861
3595.29 79.9709
3595.36 83.7781
3595.43 87.7587
3595.49 91.9176
3595.56 96.1920
3595.69 105.361
3595.82 115.295
3595.95 126.099
3596.08 137.622
3596.21 149.945
3596.34 163.057
3596.46 175.739
3596.58 188.918
3596.70 202.774
3596.82 217.022
3597.06 246.890
3597.30 277.711
3597.52 306.420
3597.74 334.407
3597.96 360.952
3598.07 373.465
3598.18 385.179
3598.28 395.624
3598.38 405.180
3598.49 413.873
3598.59 421.633
3598.69 428.396
3598.79 434.108
3598.90 438.725
3599.00 442.212
3599.17 445.392
3599.30 445.770
3599.43 444.184
3599.57 440.694
3599.70 435.380
3599.84 428.349
3599.97 419.733
3600.10 409.684
3600.24 398.368
3600.37 386.542
3600.49 373.986
3600.75 346.946
3601.00 318.503
3601.26 289.906
3601.39 275.593
3601.52 261.564
3601.64 247.907
3601.77 234.796
3601.90 222.085
3602.03 209.924
3602.16 198.344
3602.29 187.449
3602.42 177.078
3602.54 167.391
3602.67 158.232
3602.80 149.727
3602.93 141.724
3603.06 134.325
3603.19 127.388
3603.32 120.992
3603.42 116.042
3603.53 111.432
3603.63 107.057
3603.74 102.983
3603.84 99.1164
3603.95 95.5158
3604.05 92.1284
3604.16 88.9405
3604.26 85.9109
3604.37 83.0843
3604.47 80.4192
3604.58 77.9047
3604.69 75.5083
3604.79 73.2655
3604.90 71.1440
3605.00 69.1354
3605.13 66.8108
3605.26 64.6318
3605.39 62.5862
3605.52 60.6777
3605.64 58.8665
3605.77 57.1720
3605.90 55.5596
3606.03 54.0470
3606.16 52.6040
3606.29 51.2366
3606.54 48.7165
3606.80 46.4371
3607.06 44.3669
3607.34 42.3116
3607.62 40.4458
3607.90 38.7454
3608.18 37.1952
3608.46 35.7672
3608.74 34.4525
3609.02 33.2385
3609.30 32.1183
3609.56 31.1572
3609.82 30.2612
3610.08 29.4177
3610.33 28.6284
3610.59 27.8828
3610.85 27.1827
3611.36 25.8971
3611.88 24.7429
3612.39 23.7035
3612.91 22.7632
3613.42 21.9105
3613.94 21.1311
3614.45 20.4176
3614.97 19.7623
3615.48 19.1596
3616.00 18.6015
3616.51 18.0854
3617.03 17.6050
3617.54 17.1586
3618.38 16.4896
3619.22 15.8897
3620.07 15.3481
3620.91 14.8567
3621.75 14.4090
3622.59 13.9996
3623.43 13.6240
3624.28 13.2782
3625.31 12.8909
3626.34 12.5385
3627.37 12.2158
3628.39 11.9200
3629.42 11.6473
3630.45 11.3957
3631.48 11.1623
3632.51 10.9458
3633.73 10.7088
3634.95 10.4904
3636.16 10.2882
3637.38 10.1009
3639.81 9.76447
3642.24 9.47062
3644.30 9.24929
3646.36 9.04948
3648.42 8.86825
3650.48 8.70320
3652.54 8.55213
3654.60 8.41340
3658.71 8.16748
3662.83 7.95610
3666.95 7.77254
3671.07 7.61157
3675.18 7.46933
3678.93 7.35392
3682.67 7.24930
3690.16 7.06711
3697.64 6.91401
3705.13 6.78346
3713.36 6.66033
3721.60 6.55422
3729.83 6.46176
3738.07 6.38041
3751.54 6.26653
3765.02 6.17087
3778.49 6.08920
3791.97 6.01856
3808.44 5.94404
3824.91 5.87966
3841.38 5.82325
3857.85 5.77327
3880.30 5.71352
3902.76 5.66096
3925.22 5.61426
3947.68 5.57225
3980.62 5.51729
4013.56 5.46839
4046.50 5.42415
4079.43 5.38373
4095.90 5.36481
4112.37 5.34671
4128.84 5.32944
4145.31 5.31310
4157.29 5.30186
4169.27 5.29126
4184.24 5.27911
4199.21 5.26852
4206.70 5.26398
4214.19 5.26008
4221.67 5.25692
4229.16 5.25466
4237.39 5.25354
4245.63 5.25419
4253.86 5.25716
4262.10 5.26321
4269.21 5.27174
4276.32 5.28441
4279.88 5.29272
4283.43 5.30267
4286.99 5.31447
4290.54 5.32860
4294.66 5.34847
4298.78 5.37294
4302.90 5.40324
4307.01 5.44101
4309.07 5.46339
4311.13 5.48854
4313.19 5.51691
4315.25 5.54899
4317.31 5.58544
4319.37 5.62699
4321.42 5.67460
4323.48 5.72938
4325.92 5.80533
4327.13 5.84871
4328.35 5.89632
4329.57 5.94882
4330.78 6.00675
4332.00 6.07094
4333.22 6.14217
4334.25 6.20884
4335.27 6.28204
4336.30 6.36271
4337.33 6.45188
4338.36 6.55088
4339.39 6.66097
4340.42 6.78394
4341.45 6.92189
4342.34 7.05504
4343.23 7.20316
4344.12 7.36856
4345.01 7.55398
4345.89 7.76275
4346.78 7.99891
4347.67 8.26756
4348.56 8.57504
4349.08 8.77398
4349.59 8.99043
4350.11 9.22648
4350.62 9.48406
4351.14 9.76699
4351.65 10.0781
4352.17 10.4213
4352.68 10.8003
4353.19 11.2221
4353.71 11.6926
4354.22 12.2194
4354.74 12.8110
4355.00 13.1362
4355.25 13.4811
4355.51 13.8503
4355.77 14.2430
4356.03 14.6647
4356.28 15.1146
4356.54 15.5973
4356.80 16.1162
4357.13 16.8371
4357.45 17.6297
4357.78 18.5097
4358.11 19.4846
4358.27 20.0150
4358.44 20.5761
4358.60 21.1703
4358.76 21.7963
4358.93 22.4650
4359.09 23.1716
4359.25 23.9283
4359.42 24.7304
4359.67 26.1130
4359.93 27.6475
4360.06 28.4848
4360.19 29.3719
4360.32 30.3131
4360.45 31.3049
4360.58 32.3683
4360.70 33.5013
4360.83 34.7106
4360.96 35.9929
4361.09 37.3765
4361.22 38.8488
4361.35 40.4429
4361.48 42.1453
4361.59 43.8171
4361.71 45.6102
4361.83 47.5364
4361.94 49.6085
4362.06 51.8408
4362.18 54.2490
4362.29 56.8501
4362.41 59.6632
4362.53 62.7087
4362.65 66.0088
4362.76 69.5878
4362.88 73.4717
4363.00 77.6882
4363.11 82.2671
4363.23 87.2397
4363.35 92.5908
4363.48 99.0747
4363.60 106.166
4363.73 113.912
4363.86 122.293
4363.99 131.488
4364.12 141.479
4364.25 152.309
4364.38 163.921
4364.51 176.529
4364.63 189.960
4364.76 204.439
4364.89 219.744
4365.02 236.104
4365.15 253.241
4365.28 271.382
4365.40 290.187
4365.65 328.283
4365.90 368.303
4366.39 449.730
4366.68 495.630
4366.83 516.882
4366.97 536.445
4367.08 550.310
4367.19 562.942
4367.31 574.218
4367.42 583.944
4367.53 592.194
4367.64 598.739
4367.75 603.628
4367.86 606.721
4368.00 608.090
4368.11 607.183
4368.22 604.464
4368.34 599.962
4368.45 593.788
4368.56 585.896
4368.67 576.416
4368.78 565.445
4368.89 553.211
4369.07 531.462
4369.24 507.148
4369.42 480.813
4369.59 453.171
4370.27 341.115
4370.47 309.282
4370.67 279.150
4370.87 250.898
4370.97 237.551
4371.07 224.753
4371.24 204.285
4371.33 194.667
4371.41 185.461
4371.50 176.663
4371.58 168.269
4371.67 160.273
4371.75 152.753
4371.84 145.521
4371.92 138.659
4372.01 132.155
4372.09 126.067
4372.18 120.237
4372.26 114.727
4372.35 109.523
4372.43 104.667
4372.52 100.031
4372.60 95.6590
4372.69 91.5385
4372.77 87.6558
4372.86 83.9981
4372.94 80.5527
4373.03 77.3072
4373.11 74.2849
4373.19 71.4025
4373.28 68.6864
4373.36 66.1262
4373.45 63.7396
4373.53 61.4608
4373.62 59.3101
4373.70 57.2793
4373.79 55.3825
4373.91 52.7678
4374.03 50.3740
4374.16 48.1435
4374.28 46.0952
4374.41 44.1805
4374.53 42.4164
4374.65 40.7747
4374.77 39.2444
4374.90 37.8043
4375.02 36.4686
4375.14 35.2175
4375.27 34.0436
4375.39 32.9319
4375.51 31.8946
4375.64 30.9170
4375.76 29.9945
4375.93 28.8025
4376.10 27.6978
4376.27 26.6717
4376.44 25.7221
4376.61 24.8310
4376.78 24.0032
4376.95 23.2236
4377.12 22.4968
4377.29 21.8102
4377.46 21.1683
4377.63 20.5600
4377.80 19.9898
4377.97 19.4481
4378.13 18.9389
4378.47 17.9975
4378.81 17.1481
4379.15 16.3832
4379.49 15.6899
4379.83 15.0591
4380.17 14.4837
4380.51 13.9570
4380.85 13.4738
4381.19 13.0292
4381.51 12.6366
4381.83 12.2726
4382.16 11.9342
4382.48 11.6202
4382.81 11.3263
4383.13 11.0517
4383.45 10.7948
4383.78 10.5547
4384.42 10.1161
4385.07 9.72836
4385.72 9.38274
4386.37 9.07426
4387.05 8.78435
4387.72 8.52471
4388.40 8.29090
4389.08 8.07957
4389.76 7.88762
4390.44 7.71323
4391.11 7.55408
4391.79 7.40843
4392.78 7.21751
4393.77 7.04838
4394.75 6.89751
4395.74 6.76255
4396.73 6.64099
4397.71 6.53130
4398.70 6.43176
4399.68 6.34136
4401.04 6.22974
4402.40 6.13093
4403.75 6.04287
4405.11 5.96412
4406.47 5.89328
4407.82 5.82939
4409.18 5.77143
4410.54 5.71876
4411.89 5.67064
4413.25 5.62658
4415.96 5.54882
4418.68 5.48245
4421.39 5.42523
4423.98 5.37757
4426.57 5.33536
4429.16 5.29773
4431.75 5.26399
4434.34 5.23352
4436.93 5.20583
4439.52 5.18051
4442.11 5.15725
4446.05 5.12508
4450.00 5.09621
4453.21 5.07473
4456.41 5.05474
4462.83 5.01833
4469.24 4.98560
4475.65 4.95542
4481.57 4.92917
4487.49 4.90398
4493.41 4.87943
4499.33 4.85515
4505.25 4.83085
4511.17 4.80618
4523.01 4.75450
4530.90 4.71714
4538.79 4.67623
4545.70 4.63642
4552.60 4.59165
4559.51 4.53992
4566.42 4.47868
4570.61 4.43525
4574.80 4.38559
4578.99 4.32803
4583.19 4.25998
4585.90 4.20870
4588.61 4.15021
4591.33 4.08270
4594.04 4.00372
4596.14 3.93270
4598.23 3.85075
4600.33 3.75494
4601.38 3.70067
4602.43 3.64130
4603.78 3.55560
4605.14 3.45811
4606.50 3.34607
4607.17 3.28363
4607.85 3.21622
4608.44 3.15349
4609.02 3.08616
4609.61 3.01376
4610.20 2.93574
4610.78 2.85151
4611.37 2.76042
4611.95 2.66181
4612.54 2.55526
4612.88 2.48963
4613.22 2.42114
4613.56 2.34989
4613.89 2.27622
4614.23 2.20085
4614.57 2.12521
4614.91 2.05205
4615.25 1.98654
4615.42 1.95929
4615.59 1.93801
4615.76 1.92509
4615.93 1.92360
4616.10 1.93759
4616.27 1.97208
4616.44 2.03413
4616.52 2.07800
4616.61 2.13135
4616.69 2.19682
4616.78 2.27536
4616.86 2.36868
4616.95 2.47723
4617.03 2.60563
4617.12 2.75492
4617.20 2.92754
4617.29 3.12362
4617.37 3.35066
4617.46 3.60953
4617.54 3.90350
4617.62 4.23191
4617.71 4.60622
4617.79 5.02663
4617.88 5.49721
4617.96 6.01566
4618.03 6.49132
4618.10 7.00158
4618.17 7.56375
4618.24 8.16424
4618.31 8.82301
4618.38 9.52375
4618.45 10.2779
4618.52 11.0880
4618.59 11.9693
4618.66 12.8989
4618.73 13.9060
4618.80 14.9639
4618.87 16.1051
4618.94 17.2987
4619.00 18.5621
4619.07 19.8964
4619.15 21.4703
4619.23 23.1347
4619.31 25.0774
4619.40 27.1306
4619.48 29.2931
4619.57 31.5356
4619.65 33.9084
4619.74 36.3813
4619.82 38.9493
4619.91 41.6060
4620.08 47.1547
4620.25 52.9200
4620.62 65.9578
4620.79 71.8909
4620.95 77.5807
4621.14 83.4180
4621.31 88.2830
4621.39 90.4965
4621.48 92.5219
4621.56 94.3945
4621.65 96.0586
4621.77 98.1548
4621.90 99.7972
4622.00 100.818
4622.04 101.135
4622.18 101.753
4622.32 101.769
4622.42 101.384
4622.53 100.663
4622.63 99.6295
4622.73 98.3070
4622.87 96.0378
4623.01 93.3110
4623.11 91.0193
4623.21 88.5497
4623.42 83.0876
4623.62 77.1375
4623.83 70.9418
4624.00 65.7728
4624.16 60.6499
4624.33 55.6591
4624.42 53.2362
4624.50 50.8999
4624.60 48.0899
4624.70 45.4139
4624.81 42.8521
4624.91 40.4107
4625.01 38.0717
4625.11 35.8830
4625.22 33.8224
4625.32 31.8893
4625.37 30.8817
4625.43 29.9117
4625.49 28.9787
4625.54 28.0821
4625.60 27.2214
4625.65 26.3958
4625.76 24.8598
4625.88 23.4398
4625.99 22.1428
4626.10 20.9610
4626.21 19.8956
4626.31 18.9945
4626.42 18.1789
4626.52 17.4268
4626.62 16.7471
4626.72 16.1210
4626.83 15.5554
4626.93 15.0392
4627.03 14.5676
4627.13 14.1326
4627.24 13.7386
4627.34 13.3742
4627.44 13.0431
4627.54 12.7359
4627.65 12.4558
4627.85 11.9579
4628.05 11.5276
4628.26 11.1542
4628.46 10.8267
4628.67 10.5381
4628.87 10.2789
4629.08 10.0454
4629.28 9.83360
4629.49 9.64105
4629.82 9.35704
4630.16 9.10765
4630.49 8.88575
4630.83 8.68669
4631.16 8.50690
4631.50 8.34357
4632.17 8.05768
4632.58 7.90492
4632.99 7.76611
4633.81 7.52349
4634.63 7.31803
4635.45 7.14169
4636.49 6.95019
4637.53 6.78794
4638.57 6.64836
4639.62 6.52715
4641.25 6.36540
4642.89 6.23109
4644.53 6.11763
4646.17 6.02044
4647.96 5.92901
4649.74 5.84987
4651.53 5.78060
4653.32 5.71941
4656.59 5.62363
4659.87 5.54431
4663.15 5.47731
4666.42 5.41983
4670.89 5.35316
4675.36 5.29687
4679.83 5.24836
4684.30 5.20588
4691.44 5.14756
4698.59 5.09808
4705.74 5.05511
4712.89 5.01713
4723.61 4.96680
4734.34 4.92246
4745.06 4.88241
4755.78 4.84554
4768.89 4.80367
4782.00 4.76439
4795.10 4.72708
4808.21 4.69136
4821.31 4.65712
4827.87 4.64061
4834.42 4.62458
4840.97 4.60915
4847.53 4.59450
4854.08 4.58091
4860.63 4.56877
4867.19 4.55884
4870.46 4.55506
4873.74 4.55234
4877.02 4.55095
4880.29 4.55131
4883.57 4.55397
4886.85 4.55964
4890.12 4.56950
4893.40 4.58536
4895.04 4.59630
4896.68 4.60985
4898.31 4.62659
4899.95 4.64731
4901.89 4.67835
4903.82 4.71882
4904.79 4.74366
4905.76 4.77235
4906.73 4.80559
4907.70 4.84432
4908.44 4.87859
4909.19 4.91745
4909.93 4.96170
4910.67 5.01227
4911.42 5.07052
4912.16 5.13784
4912.91 5.21638
4913.65 5.30850
4914.47 5.42990
4914.88 5.50016
4915.29 5.57782
4915.70 5.66440
4916.11 5.76082
4916.52 5.86921
4916.93 5.99104
4917.32 6.12257
4917.71 6.27150
4918.10 6.44119
4918.49 6.63584
4918.88 6.86090
4919.28 7.12354
4919.67 7.43341
4919.86 7.61052
4920.06 7.80388
4920.26 8.02842
4920.47 8.27833
4920.67 8.55803
4920.88 8.87138
4921.08 9.22825
4921.29 9.63567
4921.49 10.1042
4921.70 10.6443
4921.80 10.9498
4921.90 11.2773
4922.00 11.6357
4922.11 12.0210
4922.21 12.4441
4922.31 12.9001
4922.41 13.3970
4922.51 13.9389
4922.62 14.5364
4922.72 15.1830
4922.82 15.8968
4922.92 16.6698
4923.03 17.5235
4923.13 18.4480
4923.23 19.4582
4923.33 20.5614
4923.41 21.4365
4923.48 22.3564
4923.56 23.3491
4923.63 24.3914
4923.71 25.5148
4923.78 26.6926
4923.86 27.9599
4923.93 29.2863
4924.00 30.7107
4924.08 32.1984
4924.15 33.7927
4924.23 35.4541
4924.30 37.2301
4924.38 39.0761
4924.45 41.0444
4924.53 43.0844
4924.63 46.0893
4924.73 49.2580
4924.83 52.6546
4924.94 56.2138
4925.04 60.0039
4925.14 63.9482
4925.24 68.0769
4925.34 72.3825
4925.45 76.8994
4925.55 81.5272
4925.75 91.1812
4925.96 101.285
4926.16 111.546
4926.39 122.778
4926.61 133.594
4926.81 142.905
4927.02 151.316
4927.12 155.151
4927.23 158.650
4927.33 161.783
4927.43 164.496
4927.57 167.366
4927.70 169.504
4927.83 170.907
4927.96 171.535
4928.00 171.573
4928.13 171.187
4928.26 170.023
4928.40 168.099
4928.53 165.466
4928.63 162.997
4928.73 160.152
4928.83 156.955
4928.93 153.471
4929.12 145.912
4929.31 137.482
4929.57 125.042
4929.83 112.005
4930.22 92.8636
4930.41 83.7036
4930.60 75.0498
4930.70 70.9055
4930.79 66.9121
4930.89 63.0773
4930.98 59.4070
4931.08 55.9052
4931.18 52.5745
4931.27 49.4157
4931.37 46.4587
4931.44 44.2707
4931.51 42.1823
4931.59 40.1921
4931.66 38.2980
4931.74 36.4980
4931.81 34.7895
4931.88 33.1700
4931.96 31.6366
4932.03 30.1864
4932.11 28.8164
4932.18 27.5233
4932.25 26.3041
4932.33 25.1555
4932.40 24.0742
4932.48 23.0571
4932.55 22.1010
4932.65 20.9463
4932.74 19.8824
4932.84 18.9027
4932.93 18.0010
4933.03 17.1713
4933.13 16.4081
4933.22 15.7061
4933.32 15.0666
4933.41 14.4715
4933.51 13.9236
4933.61 13.4188
4933.70 12.9579
4933.80 12.5278
4933.89 12.1304
4933.99 11.7628
4934.08 11.4258
4934.28 10.8162
4934.47 10.2886
4934.66 9.82927
4934.85 9.42859
4935.04 9.07316
4935.23 8.75918
4935.43 8.47723
4935.62 8.22524
4935.81 7.99650
4936.00 7.78900
4936.38 7.42786
4936.77 7.12347
4937.15 6.86368
4937.53 6.63908
4937.92 6.44419
4938.30 6.27332
4938.68 6.12249
4939.07 5.98823
4939.45 5.86871
4939.83 5.76123
4940.22 5.66466
4940.98 5.49778
4941.75 5.35948
4942.41 5.25791
4943.07 5.16976
4943.74 5.09268
4944.40 5.02480
4945.06 4.96466
4945.72 4.91107
4946.38 4.86307
4947.04 4.81994
4947.95 4.76742
4948.86 4.72133
4949.76 4.68059
4950.67 4.64435
4952.48 4.58271
4954.29 4.53219
4955.82 4.49595
4957.36 4.46441
4958.89 4.43666
4960.42 4.41198
4961.96 4.38983
4963.49 4.36978
4966.55 4.33464
4969.34 4.30712
4972.13 4.28267
4974.92 4.26054
4977.70 4.24023
4980.49 4.22136
4983.28 4.20361
4988.85 4.17065
4994.43 4.14008
5000.00 4.11093
5006.70 4.07715
5013.39 4.04418
5020.09 4.01145
5026.78 3.97879
5033.48 3.94592
5040.17 3.91270
5053.57 3.84463
5064.90 3.78490
5070.56 3.75418
5076.23 3.72286
5081.89 3.69094
5087.56 3.65845
5093.22 3.62549
5096.06 3.60891
5098.89 3.59233
5101.46 3.57734
5104.04 3.56251
5106.61 3.54806
5109.19 3.53428
5111.76 3.52168
5113.05 3.51609
5114.34 3.51119
5115.63 3.50724
5116.91 3.50469
5118.20 3.50420
5119.49 3.50679
5120.36 3.51111
5121.23 3.51847
5122.10 3.53024
5122.53 3.53846
5122.97 3.54879
5123.40 3.56190
5123.84 3.57877
5124.27 3.60118
5124.70 3.63223
5124.92 3.65287
5125.14 3.67830
5125.36 3.71037
5125.57 3.75154
5125.79 3.80551
5126.01 3.87649
5126.23 3.97104
5126.33 4.02998
5126.44 4.09759
5126.60 4.21189
5126.75 4.35224
5126.90 4.52420
5127.05 4.73425
5127.13 4.85666
5127.21 4.98978
5127.28 5.13819
5127.36 5.29917
5127.44 5.47816
5127.51 5.67174
5127.59 5.88341
5127.67 6.11450
5127.74 6.36983
5127.82 6.64418
5127.90 6.94624
5127.97 7.26964
5128.05 7.62439
5128.12 8.00274
5128.20 8.41615
5128.28 8.85531
5128.35 9.33320
5128.43 9.83875
5128.51 10.3866
5128.58 10.9636
5128.66 11.5860
5128.74 12.2388
5128.81 12.9303
5128.89 13.6614
5128.97 14.4428
5129.04 15.2545
5129.12 16.1179
5129.19 17.0102
5129.27 17.9545
5129.35 18.9254
5129.42 19.9475
5129.50 20.9928
5129.65 23.2001
5129.81 25.5296
5129.96 27.9585
5130.11 30.4588
5130.47 36.3278
5130.64 39.1874
5130.82 41.8927
5131.00 44.4187
5131.17 46.6530
5131.30 47.9882
5131.42 49.1374
5131.50 49.8678
5131.59 50.4815
5131.71 51.1043
5131.79 51.4559
5131.89 51.6991
5132.00 51.8075
5132.01 51.8077
5132.02 51.8057
5132.04 51.8002
5132.07 51.7784
5132.12 51.6942
5132.22 51.4337
5132.32 51.0299
5132.42 50.4845
5132.51 49.8029
5132.61 49.0001
5132.73 47.7969
5132.86 46.4138
5132.95 45.2088
5133.05 43.9142
5133.24 41.1155
5133.43 38.2227
5133.61 35.2045
5133.98 29.1076
5134.14 26.5539
5134.30 24.1108
5134.46 21.7750
5134.54 20.6671
5134.62 19.5971
5134.70 18.5539
5134.77 17.5650
5134.85 16.6181
5134.93 15.7140
5135.01 14.8529
5135.09 14.0351
5135.17 13.2603
5135.25 12.5281
5135.33 11.8295
5135.41 11.1810
5135.49 10.5727
5135.57 10.0033
5135.64 9.47175
5135.72 8.97651
5135.80 8.51614
5135.88 8.08910
5135.96 7.68901
5136.04 7.32424
5136.12 6.98795
5136.20 6.67852
5136.28 6.39433
5136.36 6.13380
5136.44 5.89537
5136.51 5.67752
5136.59 5.47640
5136.67 5.29560
5136.75 5.13115
5136.83 4.98176
5136.91 4.84622
5136.99 4.72337
5137.15 4.51150
5137.31 4.33731
5137.46 4.19617
5137.62 4.08107
5137.78 3.98711
5137.99 3.88723
5138.20 3.81060
5138.41 3.75078
5138.63 3.70337
5138.84 3.66509
5139.05 3.63358
5139.47 3.58447
5139.89 3.54731
5140.31 3.51756
5140.74 3.49280
5141.16 3.47163
5142.00 3.43689
5142.85 3.40916
5143.69 3.38614
5144.53 3.36647
5145.73 3.34261
5146.93 3.32208
5148.12 3.30389
5149.32 3.28738
5150.51 3.27210
5151.71 3.25773
5154.10 3.23085
5156.49 3.20563
5158.88 3.18143
5161.28 3.15787
5163.67 3.13467
5167.61 3.09678
5171.55 3.05888
5175.49 3.02069
5179.43 2.98205
5187.30 2.90267
5195.18 2.81995
5199.68 2.77095
5212.07 2.62906
5224.45 2.47525
5236.83 2.30783
5249.21 2.12502
5255.40 2.02724
5261.59 1.92495
5267.78 1.81788
5273.97 1.70584
5280.16 1.58867
5286.35 1.46623
5292.54 1.33848
5298.73 1.20556
5307.18 1.01653
5311.40 0.919155
5315.62 0.820223
5319.84 0.720298
5324.06 0.620204
5328.28 0.520788
5332.50 0.423552
5334.47 0.379388
5336.44 0.336310
5338.41 0.294560
5340.38 0.254468
5341.36 0.235159
5342.35 0.216419
5343.33 0.198297
5344.32 0.180867
5345.30 0.164155
5346.29 0.148245
5347.27 0.133212
5348.26 0.119148
5349.28 0.105652
5350.30 0.0933843
5351.32 0.0824367
5352.34 0.0729277
5353.36 0.0649854
5354.38 0.0587748
5354.89 0.0563648
5355.40 0.0544457
5355.91 0.0530387
5356.42 0.0521661
5356.98 0.0518516
5357.26 0.0519592
5357.54 0.0522486
5358.07 0.0532994
5358.60 0.0550329
5359.13 0.0574864
5359.65 0.0606819
5360.18 0.0646647
5360.71 0.0694542
5361.24 0.0751048
5361.76 0.0816337
5362.54 0.0929176
5363.31 0.106340
5364.09 0.122047
5364.86 0.140194
5365.63 0.160947
5366.41 0.184485
5367.18 0.210998
5367.95 0.240652
5368.73 0.273745
5369.50 0.310475
5370.28 0.351101
5371.05 0.395834
5371.82 0.445087
5372.60 0.499125
5373.37 0.558291
5373.76 0.589913
5374.14 0.622871
5374.53 0.657388
5374.92 0.693434
5375.31 0.731064
5375.69 0.770335
5376.08 0.811308
5376.47 0.854045
5376.85 0.898612
5377.24 0.944953
5377.63 0.993379
5378.01 1.04385
5378.40 1.09643
5378.79 1.15122
5379.17 1.20828
5379.56 1.26772
5379.95 1.32961
5380.33 1.39388
5381.11 1.53082
5381.88 1.67922
5382.66 1.84001
5383.43 2.01418
5384.20 2.20284
5384.98 2.40721
5385.75 2.62860
5386.53 2.86814
5387.30 3.12807
5388.07 3.40984
5388.85 3.71539
5389.62 4.04688
5390.40 4.40667
5391.17 4.79740
5391.94 5.22199
5392.72 5.68307
5393.49 6.18543
5394.26 6.73253
5395.04 7.32889
5395.81 7.97867
5396.59 8.68920
5397.36 9.46604
5398.13 10.3164
5398.52 10.7716
5398.91 11.2470
5399.29 11.7463
5399.68 12.2695
5400.07 12.8179
5400.45 13.3930
5400.84 13.9964
5401.23 14.6295
5401.62 15.2942
5402.00 15.9904
5402.39 16.7238
5402.78 17.4947
5403.16 18.3053
5403.55 19.1581
5403.94 20.0557
5404.32 21.0009
5404.71 21.9967
5405.10 23.0435
5405.48 24.1502
5405.87 25.3179
5406.26 26.5505
5406.64 27.8524
5407.03 29.2282
5407.42 30.6828
5407.81 32.2218
5408.19 33.8465
5408.58 35.5716
5408.97 37.3997
5409.35 39.3383
5409.74 41.3950
5410.13 43.5785
5410.51 45.8979
5410.90 48.3631
5411.29 50.9777
5411.59 53.1172
5411.88 55.3626
5412.18 57.7200
5412.48 60.1956
5412.78 62.7963
5413.08 65.5292
5413.38 68.4020
5413.68 71.4227
5413.98 74.5999
5414.28 77.9425
5414.58 81.4600
5414.87 85.1626
5415.17 89.0605
5415.47 93.1649
5415.77 97.4871
5416.07 102.039
5416.46 108.291
5416.84 114.977
5417.23 122.122
5417.62 129.757
5418.01 137.910
5418.39 146.608
5418.78 155.877
5419.17 165.716
5419.48 174.115
5419.79 182.894
5420.10 192.084
5420.41 201.688
5421.03 222.164
5421.66 244.187
5422.28 267.664
5422.90 292.244
5424.15 343.081
5424.63 362.528
5425.11 381.316
5425.59 399.059
5426.07 415.358
5426.56 429.828
5427.04 442.114
5427.52 451.911
5428.00 458.977
5428.48 463.195
5428.96 464.496
5429.36 463.430
5429.75 460.532
5430.14 455.905
5430.53 449.702
5430.92 442.050
5431.31 433.164
5431.71 423.184
5432.10 412.349
5432.88 388.745
5433.66 363.717
5434.45 338.397
5435.23 313.644
5436.00 290.398
5436.39 279.295
5436.77 268.616
5437.16 258.321
5437.54 248.473
5437.93 239.023
5438.31 230.017
5438.70 221.402
5439.08 213.213
5439.47 205.395
5439.86 197.975
5440.24 190.900
5440.63 184.191
5441.01 177.812
5441.40 171.749
5441.79 165.897
5442.18 160.337
5442.57 155.055
5442.96 150.033
5443.35 145.259
5443.74 140.718
5444.13 136.397
5444.52 132.283
5445.31 124.630
5446.09 117.674
5446.87 111.337
5447.26 108.380
5447.65 105.560
5448.15 102.139
5448.65 98.9139
5448.90 97.3665
5449.14 95.8638
5449.39 94.4053
5449.64 92.9962
5449.89 91.6253
5450.14 90.2983
5450.39 89.0153
5450.64 87.7813
5450.89 86.5862
5451.13 85.4389
5451.38 84.3289
5451.63 83.2631
5451.82 82.4840
5452.00 81.7243
5452.38 80.2594
5452.56 79.5459
5452.75 78.8467
5452.94 78.1521
5453.12 77.4669
5453.27 76.9462
5453.41 76.4265
5453.55 75.9071
5453.69 75.3873
5453.87 74.7342
5453.99 74.2963
5454.00 74.2520
5454.05 74.0750
5454.08 73.9421
5454.10 73.8978
5454.14 73.7315
5454.24 73.3576
5454.46 72.5440
5454.68 71.7313
5454.90 70.9175
5455.12 70.1051
5455.33 69.2968
5455.55 68.4957
5455.99 66.9268
5456.21 66.1643
5456.42 65.4193
5456.58 64.8844
5456.74 64.3602
5456.90 63.8468
5457.06 63.3442
5457.22 62.8526
5457.38 62.3716
5457.54 61.9010
5457.70 61.4405
5457.86 60.9898
5458.02 60.5483
5458.34 59.6914
5458.66 58.8661
5458.98 58.0717
5459.30 57.3000
5459.62 56.5512
5459.94 55.8233
5460.26 55.1170
5460.90 53.7530
5461.54 52.4562
5462.82 50.0349
5464.10 47.8261
5465.38 45.8019
5466.66 43.9444
5467.94 42.2326
5469.22 40.6533
5470.50 39.1906
5471.78 37.8347
5473.52 36.1366
5475.27 34.5943
5477.01 33.1878
5478.75 31.9027
5480.50 30.7216
5482.24 29.6331
5483.99 28.6270
5485.73 27.6961
5488.29 26.4498
5490.85 25.3276
5493.41 24.3127
5495.97 23.3908
5498.53 22.5504
5501.09 21.7813
5503.65 21.0754
5506.20 20.4255
5508.76 19.8251
5511.32 19.2691
5516.44 18.2727
5521.56 17.4058
5526.67 16.6460
5531.56 16.0053
5536.44 15.4304
5541.33 14.9136
5546.21 14.4469
5551.10 14.0233
5555.98 13.6374
5560.87 13.2843
5565.75 12.9602
5575.99 12.3607
5586.22 11.8495
5596.46 11.4088
5606.69 11.0250
5614.60 10.7609
5622.51 10.5208
5638.33 10.1018
5654.15 9.74643
5669.97 9.44218
5690.44 9.10801
5710.91 8.82615
5731.38 8.58503
5751.85 8.37650
5777.90 8.14864
5803.95 7.95383
5830.01 7.78589
5856.06 7.63833
5897.00 7.44088
5937.94 7.27524
5978.88 7.13377
6019.82 7.01124
6060.76 6.90380
6101.70 6.80820
6183.58 6.64352
6228.24 6.56477
6272.91 6.49142
6295.24 6.45628
6317.57 6.42183
6328.73 6.40483
6339.90 6.38793
6351.07 6.37110
6356.65 6.36272
6362.23 6.35435
6365.95 6.34879
6369.67 6.34324
6373.40 6.33772
6377.12 6.33222
6380.84 6.32678
6382.70 6.32409
6384.56 6.32144
6386.42 6.31884
6388.28 6.31631
6390.14 6.31389
6392.00 6.31166
6393.11 6.31046
6394.21 6.30942
6395.32 6.30860
6396.42 6.30813
6396.98 6.30809
6397.53 6.30826
6398.08 6.30871
6398.63 6.30965
6398.91 6.31043
6399.19 6.31153
6399.46 6.31310
6399.74 6.31536
6400.02 6.31867
6400.29 6.32348
6400.43 6.32667
6400.57 6.33053
6400.71 6.33518
6400.84 6.34079
6401.08 6.35295
6401.31 6.36941
6401.54 6.39150
6401.78 6.42065
6402.01 6.45899
6402.24 6.50831
6402.47 6.57140
6402.71 6.65022
6402.94 6.74801
6403.17 6.86686
6403.40 7.00888
6403.64 7.17481
6403.87 7.36678
6404.10 7.58275
6404.33 7.82294
6404.57 8.08217
6404.75 8.29661
6404.93 8.51767
6405.29 8.96433
6405.48 9.18306
6405.66 9.39241
6405.84 9.58780
6406.02 9.76381
6406.15 9.87740
6406.28 9.97775
6406.41 10.0635
6406.54 10.1331
6406.65 10.1788
6406.76 10.2126
6406.89 10.2367
6406.99 10.2430
6407.00 10.2431
6407.03 10.2428
6407.06 10.2416
6407.11 10.2370
6407.21 10.2192
6407.31 10.1916
6407.41 10.1543
6407.55 10.0889
6407.68 10.0069
6407.81 9.90952
6407.94 9.79893
6408.15 9.59906
6408.36 9.37559
6408.57 9.13436
6408.78 8.88218
6409.10 8.48544
6409.26 8.29009
6409.42 8.09997
6409.58 7.91708
6409.74 7.74308
6409.90 7.57926
6410.07 7.42658
6410.23 7.28566
6410.39 7.15679
6410.55 7.04001
6410.71 6.93510
6410.87 6.84166
6411.03 6.75911
6411.19 6.68676
6411.35 6.62421
6411.56 6.55518
6411.77 6.49905
6411.98 6.45350
6412.19 6.41725
6412.40 6.38841
6412.60 6.36585
6412.81 6.34825
6413.02 6.33457
6413.23 6.32393
6413.44 6.31573
6413.65 6.30933
6413.85 6.30437
6414.06 6.30043
6414.27 6.29730
6414.48 6.29475
6414.69 6.29264
6415.10 6.28932
6415.52 6.28677
6415.94 6.28467
6416.35 6.28286
6417.19 6.27978
6418.02 6.27717
6419.16 6.27407
6420.29 6.27132
6421.43 6.26880
6422.57 6.26645
6423.70 6.26421
6424.84 6.26205
6427.11 6.25792
6429.39 6.25394
6431.66 6.25005
6433.93 6.24622
6436.20 6.24244
6439.54 6.23692
6442.87 6.23142
6446.21 6.22592
6449.54 6.22042
6456.21 6.20934
6462.87 6.19814
6476.21 6.17524
6489.54 6.15147
6502.88 6.12653
6516.21 6.10014
6529.54 6.07193
6542.88 6.04141
6556.21 6.00796
6569.55 5.97074
6582.88 5.92855
6596.22 5.87975
6610.76 5.81612
6618.04 5.77873
6625.31 5.73649
6631.98 5.69247
6638.64 5.64210
6645.31 5.58368
6651.98 5.51482
6655.92 5.46794
6659.86 5.41539
6663.80 5.35583
6667.74 5.28777
6671.07 5.22203
6674.40 5.14711
6677.74 5.06081
6681.07 4.96032
6683.65 4.87047
6686.22 4.76740
6688.80 4.64797
6691.38 4.50775
6693.04 4.40317
6694.71 4.28538
6696.38 4.15156
6698.04 3.99844
6699.71 3.82140
6700.54 3.72214
6701.38 3.61474
6702.21 3.49794
6703.04 3.37088
6703.88 3.23194
6704.71 3.08000
6705.54 2.91314
6706.38 2.73023
6706.79 2.63219
6707.21 2.52974
6707.63 2.42299
6708.04 2.31256
6708.46 2.19871
6708.88 2.08327
6709.29 1.96924
6709.71 1.86230
6709.92 1.81399
6710.13 1.77176
6710.34 1.73776
6710.54 1.71511
6710.75 1.70785
6710.96 1.72127
6711.17 1.76189
6711.27 1.79494
6711.38 1.83805
6711.52 1.91885
6711.67 2.02689
6711.82 2.16716
6711.96 2.34541
6712.04 2.45153
6712.11 2.56812
6712.19 2.69933
6712.26 2.84259
6712.33 3.00289
6712.41 3.17698
6712.48 3.36806
6712.55 3.57731
6712.63 3.80924
6712.70 4.05889
6712.77 4.33447
6712.85 4.62995
6712.92 4.95489
6712.99 5.30201
6713.07 5.67705
6713.14 6.08157
6713.21 6.52334
6713.29 6.99205
6713.36 7.50224
6713.43 8.04178
6713.51 8.62717
6713.58 9.24426
6713.65 9.90236
6713.73 10.6031
6713.80 11.3270
6713.87 12.0943
6713.94 12.9062
6714.01 13.7641
6714.03 14.0017
6714.09 14.7349
6714.14 15.4995
6714.20 16.2960
6714.26 17.1101
6714.33 18.2658
6714.41 19.4812
6714.48 20.7570
6714.56 22.0760
6714.63 23.4739
6714.71 24.9337
6714.79 26.4555
6714.86 28.0179
6714.97 30.3054
6715.07 32.6846
6715.17 35.1737
6715.28 37.7684
6715.38 40.4637
6715.49 43.2532
6715.69 49.0836
6715.92 55.7837
6716.15 62.6583
6716.36 69.0150
6716.57 75.3009
6716.77 81.4137
6716.98 87.1597
6717.12 90.5957
6717.25 93.7827
6717.38 96.6739
6717.51 99.2921
6717.61 101.208
6717.72 102.913
6717.83 104.398
6717.93 105.643
6718.00 106.345
6718.07 106.950
6718.19 107.699
6718.30 108.158
6718.42 108.329
6718.53 108.213
6718.70 107.554
6718.86 106.335
6719.02 104.610
6719.19 102.423
6719.31 100.441
6719.44 98.2276
6719.69 93.2057
6719.85 89.5841
6720.01 85.7817
6720.33 77.7963
6720.50 73.7208
6720.66 69.6559
6720.82 65.6451
6720.98 61.7267
6721.12 58.4401
6721.26 55.2648
6721.40 52.2150
6721.54 49.3023
6721.68 46.5351
6721.82 43.9190
6721.96 41.4571
6722.10 39.1663
6722.26 36.6877
6722.43 34.4106
6722.59 32.3277
6722.75 30.4300
6722.91 28.7068
6723.07 27.1466
6723.24 25.7373
6723.40 24.4665
6723.59 23.1230
6723.78 21.9374
6723.97 20.8910
6724.16 19.9712
6724.36 19.1526
6724.55 18.4299
6724.74 17.7832
6724.93 17.2082
6725.09 16.7671
6725.25 16.3632
6725.58 15.6507
6725.90 15.0417
6726.23 14.5147
6726.55 14.0531
6726.87 13.6445
6727.20 13.2795
6727.52 12.9509
6728.17 12.3816
6728.82 11.9039
6729.47 11.4965
6730.11 11.1444
6730.67 10.8762
6731.23 10.6358
6732.35 10.2229
6733.47 9.88039
6734.59 9.59144
6735.89 9.30826
6737.18 9.06855
6738.48 8.86266
6739.78 8.68412
6741.31 8.50127
6742.84 8.34308
6744.37 8.20487
6745.90 8.08306
6748.50 7.90647
6751.09 7.75925
6753.68 7.63456
6756.27 7.52755
6758.87 7.43463
6761.46 7.35322
6766.64 7.21708
6771.12 7.12140
6775.60 7.04065
6780.08 6.97154
6784.55 6.91169
6789.74 6.85157
6794.92 6.79938
6800.11 6.75356
6805.29 6.71297
6813.78 6.65559
6822.26 6.60691
6830.75 6.56493
6839.23 6.52827
6849.60 6.48916
6859.97 6.45501
6870.34 6.42481
6880.71 6.39780
6895.79 6.36308
6904.27 6.34550
6912.76 6.32911
6921.24 6.31380
6925.48 6.30648
6929.73 6.29945
6932.08 6.29565
6934.44 6.29194
6936.80 6.28833
6939.15 6.28486
6941.51 6.28155
6942.69 6.27997
6943.87 6.27848
6945.05 6.27707
6946.22 6.27581
6947.40 6.27473
6948.58 6.27394
6949.46 6.27363
6950.35 6.27373
6950.79 6.27402
6951.23 6.27459
6951.67 6.27562
6952.11 6.27743
6952.34 6.27882
6952.56 6.28069
6952.78 6.28321
6953.00 6.28660
6953.22 6.29116
6953.44 6.29729
6953.66 6.30547
6953.88 6.31633
6954.10 6.33065
6954.32 6.34937
6954.55 6.37359
6954.77 6.40462
6954.99 6.44391
6955.21 6.49309
6955.43 6.55388
6955.65 6.62768
6955.81 6.69150
6955.97 6.76409
6956.14 6.84600
6956.30 6.93771
6956.46 7.03959
6956.62 7.15180
6956.78 7.27437
6956.95 7.40707
6957.11 7.54944
6957.27 7.70076
6957.43 7.86004
6957.59 8.02598
6957.92 8.37132
6958.24 8.72120
6958.49 8.98344
6958.74 9.22660
6958.87 9.33930
6958.99 9.44301
6959.12 9.53757
6959.24 9.62194
6959.35 9.68314
6959.45 9.73632
6959.55 9.78106
6959.66 9.81703
6959.83 9.85753
6959.96 9.86956
6960.00 9.87037
6960.11 9.86511
6960.23 9.84668
6960.36 9.81490
6960.48 9.77021
6960.63 9.69685
6960.79 9.60533
6960.94 9.49722
6961.09 9.37515
6961.22 9.26776
6961.34 9.15328
6961.42 9.07456
6961.58 8.90859
6961.75 8.73606
6962.40 8.03167
6962.57 7.86330
6962.73 7.70168
6962.90 7.54816
6963.06 7.40463
6963.22 7.27007
6963.39 7.14585
6963.55 7.03221
6963.72 6.92913
6963.88 6.83642
6964.04 6.75369
6964.21 6.68046
6964.37 6.61648
6964.57 6.55058
6964.76 6.49514
6964.96 6.44893
6965.15 6.41096
6965.34 6.37968
6965.54 6.35439
6965.73 6.33387
6965.93 6.31749
6966.12 6.30435
6966.32 6.29390
6966.51 6.28560
6966.71 6.27905
6966.90 6.27381
6967.10 6.26964
6967.29 6.26627
6967.48 6.26354
6967.68 6.26128
6967.87 6.25940
6968.26 6.25643
6968.65 6.25415
6969.04 6.25229
6969.82 6.24932
6970.60 6.24690
6971.75 6.24391
6972.89 6.24134
6974.04 6.23906
6975.19 6.23696
6976.33 6.23501
6977.48 6.23315
6978.63 6.23138
6979.77 6.22967
6982.07 6.22639
6984.36 6.22325
6986.66 6.22021
6988.95 6.21725
6991.90 6.21354
6994.85 6.20992
7000.75 6.20290
7006.65 6.19610
7012.55 6.18950
7025.66 6.17543
7038.76 6.16205
7051.87 6.14923
7064.98 6.13694
7075.47 6.12745
7085.96 6.11824
7093.49 6.11179
7097.26 6.10862
7101.03 6.10549
7104.80 6.10242
7106.69 6.10091
7108.57 6.09943
7110.45 6.09798
7112.34 6.09658
7113.28 6.09590
7114.22 6.09525
7115.16 6.09463
7116.11 6.09405
7117.01 6.09355
7117.91 6.09315
7118.36 6.09299
7118.81 6.09289
7119.26 6.09287
7119.71 6.09300
7119.94 6.09315
7120.16 6.09339
7120.39 6.09374
7120.61 6.09426
7120.84 6.09500
7121.06 6.09603
7121.29 6.09746
7121.51 6.09942
7121.74 6.10208
7121.97 6.10564
7122.19 6.11036
7122.42 6.11655
7122.64 6.12459
7122.87 6.13484
7123.09 6.14777
7123.32 6.16388
7123.49 6.17894
7123.67 6.19636
7123.84 6.21645
7124.01 6.23943
7124.36 6.29470
7124.71 6.36307
7125.06 6.44464
7125.41 6.53745
7125.75 6.63864
7126.10 6.74356
7126.39 6.82865
7126.68 6.90811
7126.96 6.97852
7127.25 7.03566
7127.48 7.07073
7127.72 7.09336
7127.90 7.10176
7128.00 7.10284
7128.01 7.10281
7128.05 7.10252
7128.08 7.10193
7128.15 7.09984
7128.30 7.09162
7128.51 7.07041
7128.73 7.03913
7129.02 6.98140
7129.31 6.91004
7129.60 6.82884
7129.90 6.74194
7130.26 6.63294
7130.61 6.52834
7130.97 6.43261
7131.33 6.34954
7131.69 6.28014
7132.05 6.22477
7132.23 6.20189
7132.41 6.18200
7132.59 6.16487
7132.77 6.15030
7132.99 6.13577
7133.20 6.12400
7133.41 6.11448
7133.63 6.10693
7133.84 6.10092
7134.05 6.09621
7134.27 6.09252
7134.48 6.08964
7134.69 6.08739
7134.91 6.08564
7135.12 6.08425
7135.33 6.08315
7135.55 6.08226
7135.76 6.08153
7135.97 6.08092
7136.19 6.08040
7136.61 6.07954
7137.04 6.07883
7137.47 6.07821
7137.90 6.07765
7138.75 6.07664
7139.60 6.07572
7140.50 6.07482
7141.40 6.07396
7142.30 6.07313
7143.20 6.07233
7145.00 6.07079
7146.79 6.06930
7148.59 6.06784
7150.39 6.06641
7153.98 6.06359
7157.58 6.06083
7161.18 6.05810
7168.37 6.05271
7174.12 6.04847
7182.75 6.04218
7191.38 6.03597
7208.64 6.02376
7243.15 6.00006
7312.18 5.95450
7369.71 5.91723
7427.24 5.87941
7484.77 5.83952
7542.29 5.79566
7571.06 5.77110
7599.82 5.74398
7628.58 5.71316
7657.35 5.67723
7673.17 5.65431
7688.99 5.62840
7704.81 5.59863
7720.63 5.56370
7730.69 5.53796
7740.76 5.50878
7750.83 5.47512
7760.90 5.43576
7768.81 5.39969
7776.72 5.35780
7784.63 5.30840
7792.54 5.24910
7797.21 5.20808
7801.88 5.16148
7806.56 5.10784
7811.23 5.04549
7815.19 4.98419
7819.14 4.91301
7823.10 4.82928
7827.05 4.72929
7829.75 4.64916
7832.45 4.55686
7835.14 4.44919
7837.84 4.32190
7839.82 4.21272
7841.79 4.08679
7843.77 3.93984
7844.76 3.85681
7845.75 3.76638
7847.28 3.60934
7848.04 3.52174
7848.80 3.42716
7849.57 3.32477
7850.33 3.21364
7851.10 3.09270
7851.86 2.96079
7852.36 2.86888
7852.85 2.77171
7853.34 2.66858
7853.84 2.55971
7854.33 2.44464
7854.83 2.32426
7855.32 2.19962
7855.82 2.07368
7856.31 1.95252
7856.56 1.89752
7856.80 1.84920
7857.05 1.81078
7857.30 1.78711
7857.55 1.78400
7857.67 1.79257
7857.79 1.80929
7857.92 1.83577
7858.04 1.87344
7858.17 1.92403
7858.29 1.98886
7858.41 2.07110
7858.54 2.17176
7858.66 2.29506
7858.78 2.44185
7858.91 2.61761
7859.03 2.82284
7859.15 3.06453
7859.28 3.34266
7859.40 3.66593
7859.52 4.03351
7859.65 4.45603
7859.71 4.68838
7859.77 4.93151
7859.85 5.27770
7859.93 5.64705
7860.01 6.04509
7860.09 6.47325
7860.17 6.93299
7860.25 7.42574
7860.33 7.95294
7860.41 8.51602
7860.49 9.11636
7860.57 9.75535
7860.65 10.4343
7860.73 11.1545
7860.81 11.9171
7860.89 12.7233
7860.97 13.5742
7861.05 14.4706
7861.14 15.4739
7861.22 16.5177
7861.30 17.6142
7861.39 18.7638
7861.49 20.2168
7861.59 21.7471
7861.69 23.3544
7861.79 25.0377
7861.91 27.0094
7862.02 29.0530
7862.13 31.2013
7862.24 33.4117
7862.36 35.7179
7862.47 38.0726
7862.69 42.9574
7862.94 48.5419
7863.19 54.2241
7863.42 59.6481
7863.66 64.8965
7863.90 70.0668
7864.03 72.5117
7864.15 74.8247
7864.28 76.9886
7864.40 78.9721
7864.58 81.5391
7864.76 83.6923
7864.88 84.9062
7865.00 85.8975
7865.07 86.3720
7865.18 86.9866
7865.30 87.4005
7865.41 87.6189
7865.52 87.6425
7865.67 87.3991
7865.81 86.8584
7865.92 86.2227
7866.03 85.4201
7866.26 83.3315
7866.39 81.7622
7866.53 79.9942
7866.67 78.0483
7866.80 75.9461
7867.08 71.3452
7867.35 66.4060
7867.58 62.2087
7867.80 57.9994
7868.03 53.8205
7868.25 49.7775
7868.39 47.3870
7868.53 45.0718
7868.66 42.8408
7868.80 40.7008
7868.94 38.6572
7869.07 36.7137
7869.21 34.8727
7869.35 33.1352
7869.50 31.3513
7869.65 29.7003
7869.80 28.1572
7869.95 26.7387
7870.10 25.4208
7870.24 24.2160
7870.39 23.1021
7870.54 22.0879
7870.68 21.2251
7870.82 20.4365
7870.96 19.7106
7871.09 19.0429
7871.23 18.4287
7871.37 17.8638
7871.50 17.3439
7871.64 16.8653
7871.91 16.0173
7872.19 15.2937
7872.46 14.6723
7872.74 14.1348
7873.01 13.6644
7873.29 13.2522
7873.56 12.8867
7873.83 12.5599
7874.11 12.2644
7874.38 11.9975
7874.93 11.5306
7875.35 11.2185
7875.78 10.9407
7876.20 10.6914
7876.63 10.4666
7877.47 10.0754
7878.32 9.74610
7879.42 9.38946
7880.51 9.09275
7881.61 8.84185
7882.71 8.62680
7884.20 8.37856
7885.70 8.17077
7887.19 7.99395
7888.69 7.84176
7890.88 7.65305
7893.08 7.49625
7895.27 7.36382
7897.46 7.25047
7899.86 7.14402
7902.25 7.05199
7904.64 6.97166
7907.03 6.90090
7911.42 6.79069
7915.81 6.70006
7920.20 6.62419
7924.58 6.55971
7928.97 6.50418
7933.35 6.45584
7942.13 6.37571
7950.90 6.31181
7959.68 6.25950
7968.45 6.21583
7977.22 6.17875
7994.77 6.11905
8012.32 6.07271
8029.86 6.03561
8047.41 6.00523
8064.96 5.97997
8082.50 5.95889
8095.27 5.94587
8112.02 5.93159
8128.77 5.92064
8137.14 5.91658
8145.52 5.91363
8153.89 5.91200
8162.27 5.91191
8171.04 5.91407
8179.81 5.91920
8188.59 5.92847
8197.36 5.94373
8203.34 5.95910
8209.32 5.98020
8215.30 6.00939
8221.29 6.05066
8225.28 6.08785
8229.26 6.13608
8233.25 6.19979
8235.25 6.23942
8237.24 6.28580
8239.43 6.34659
8241.63 6.42030
8243.82 6.51075
8246.01 6.62334
8248.01 6.75139
8250.00 6.91254
8251.50 7.06239
8252.99 7.24503
8254.49 7.47124
8255.24 7.60514
8255.98 7.75587
8257.08 8.01455
8258.18 8.32920
8258.73 8.51296
8259.27 8.71752
8259.82 8.94664
8260.37 9.20453
8260.89 9.48278
8261.42 9.79701
8261.94 10.1554
8262.46 10.5653
8262.99 11.0398
8263.51 11.5916
8263.77 11.9033
8264.03 12.2426
8264.30 12.6130
8264.56 13.0173
8264.83 13.4868
8265.11 14.0059
8265.38 14.5848
8265.65 15.2338
8265.93 15.9656
8266.20 16.7957
8266.48 17.7431
8266.61 18.2680
8266.75 18.8314
8266.89 19.4416
8267.03 20.0940
8267.16 20.7973
8267.30 21.5566
8267.44 22.3774
8267.57 23.2656
8267.71 24.2277
8267.85 25.2709
8267.98 26.4029
8268.12 27.6318
8268.26 28.9667
8268.40 30.4170
8268.53 31.9927
8268.67 33.7046
8268.81 35.5639
8268.94 37.5821
8269.04 39.0652
8269.13 40.6156
8269.22 42.2709
8269.32 43.9997
8269.41 45.8433
8269.50 47.7666
8269.60 49.8148
8269.69 51.9485
8269.79 54.2172
8269.88 56.5765
8269.97 59.0808
8270.07 61.6801
8270.25 67.2855
8270.35 70.2998
8270.44 73.4147
8270.58 78.2473
8270.71 83.3741
8270.85 88.7970
8270.99 94.5151
8271.12 100.525
8271.26 106.819
8271.40 113.388
8271.54 120.217
8271.81 134.635
8272.08 149.777
8272.63 181.309
8272.98 201.230
8273.33 220.030
8273.60 233.418
8273.74 239.510
8273.88 245.132
8274.09 252.859
8274.31 259.132
8274.52 263.870
8274.73 266.926
8274.87 267.967
8275.00 268.315
8275.22 267.385
8275.44 264.638
8275.66 260.138
8275.87 253.989
8276.09 246.524
8276.30 237.822
8276.51 228.031
8276.72 217.343
8276.95 205.353
8277.17 192.829
8277.61 167.147
8278.06 141.836
8278.28 129.764
8278.50 118.304
8278.65 111.309
8278.79 104.600
8278.93 98.1883
8279.07 92.1277
8279.21 86.3381
8279.35 80.9034
8279.50 75.7462
8279.64 70.9356
8279.75 67.3312
8279.86 63.9443
8279.97 60.7374
8280.08 57.7055
8280.19 54.8180
8280.31 52.1207
8280.42 49.5807
8280.53 47.1916
8280.64 44.9271
8280.75 42.8210
8280.86 40.8455
8280.97 38.9940
8281.08 37.2447
8281.20 35.6222
8281.31 34.1040
8281.42 32.6838
8281.53 31.3441
8281.64 30.1029
8281.75 28.9322
8281.86 27.8476
8281.98 26.8244
8282.09 25.8759
8282.20 24.9884
8282.31 24.1574
8282.42 23.3722
8282.53 22.6431
8282.75 21.3117
8282.98 20.1376
8283.20 19.1031
8283.38 18.3375
8283.56 17.6446
8283.75 17.0122
8283.93 16.4333
8284.11 15.9020
8284.29 15.4130
8284.47 14.9618
8284.66 14.5443
8285.02 13.7952
8285.39 13.1468
8285.75 12.5792
8286.11 12.0788
8286.56 11.5413
8287.00 11.0740
8287.45 10.6635
8287.89 10.3007
8288.34 9.97738
8288.79 9.68916
8289.23 9.43038
8289.68 9.19705
8290.16 8.96742
8290.65 8.76060
8291.62 8.40427
8292.59 8.10896
8293.56 7.86126
8294.45 7.66735
8295.34 7.49956
8296.23 7.35302
8297.12 7.22452
8298.90 7.01027
8300.68 6.84006
8302.46 6.70236
8304.25 6.58936
8306.03 6.49545
8307.81 6.41652
8309.51 6.35233
8311.21 6.29690
8314.61 6.20645
8318.01 6.13630
8321.41 6.08071
8326.26 6.01913
8331.12 5.97232
8335.98 5.93563
8340.83 5.90617
8347.31 5.87497
8353.79 5.85035
8360.26 5.83039
8366.74 5.81383
8369.33 5.80798
8378.39 5.79003
8387.46 5.77514
8396.53 5.76249
8405.59 5.75147
8418.54 5.73780
8431.50 5.72589
8447.04 5.71323
8462.58 5.70177
8478.12 5.69126
8493.66 5.68144
8501.43 5.67677
8509.21 5.67227
8516.98 5.66792
8524.75 5.66377
8530.90 5.66067
8537.05 5.65779
8543.20 5.65523
8549.36 5.65313
8555.51 5.65174
8558.59 5.65145
8561.66 5.65153
8564.74 5.65209
8567.81 5.65327
8570.89 5.65542
8573.97 5.65893
8576.23 5.66272
8578.50 5.66793
8580.77 5.67505
8583.03 5.68491
8585.30 5.69889
8587.56 5.71913
8588.70 5.73266
8589.83 5.74931
8590.96 5.77004
8592.10 5.79628
8592.95 5.82079
8593.80 5.85080
8594.65 5.88806
8595.50 5.93512
8596.35 5.99590
8596.77 6.03330
8597.20 6.07689
8597.62 6.12837
8598.05 6.19023
8598.47 6.26622
8598.90 6.36213
8599.34 6.49420
8599.57 6.57715
8599.79 6.67458
8600.01 6.79104
8600.23 6.93002
8600.46 7.09842
8600.68 7.30164
8600.90 7.54993
8601.12 7.85113
8601.35 8.21996
8601.46 8.43260
8601.57 8.66708
8601.68 8.92791
8601.79 9.21267
8601.90 9.52590
8602.01 9.87006
8602.13 10.2513
8602.24 10.6655
8602.35 11.1188
8602.46 11.6140
8602.57 12.1591
8602.68 12.7475
8602.79 13.3928
8602.90 14.0866
8603.02 14.8444
8603.13 15.6557
8603.24 16.5297
8603.35 17.4693
8603.46 18.4862
8603.57 19.5647
8603.68 20.7154
8603.79 21.9401
8603.91 23.2522
8604.02 24.6290
8604.13 26.0824
8604.24 27.6121
8604.37 29.5298
8604.50 31.5365
8604.63 33.6593
8604.77 35.8610
8604.90 38.1690
8605.03 40.5403
8605.29 45.5053
8606.10 61.4887
8606.32 65.7109
8606.55 69.6673
8606.77 73.2995
8606.99 76.4851
8607.12 78.1417
8607.26 79.6018
8607.37 80.6673
8607.48 81.5768
8607.59 82.3479
8607.71 82.9392
8607.85 83.4262
8608.00 83.6062
8608.01 83.6074
8608.05 83.5988
8608.08 83.5726
8608.15 83.4658
8608.30 83.0417
8608.43 82.3813
8608.56 81.4770
8608.70 80.2911
8608.84 78.8768
8608.98 77.2414
8609.12 75.4018
8609.32 72.3961
8609.52 69.0603
8609.80 64.0468
8610.07 58.7345
8610.47 50.7894
8610.67 46.8587
8610.88 43.0273
8611.01 40.4775
8611.15 38.0077
8611.29 35.6285
8611.43 33.3483
8611.57 31.1741
8611.70 29.1109
8611.84 27.1624
8611.98 25.3304
8612.12 23.6036
8612.26 22.0062
8612.39 20.5235
8612.53 19.1528
8612.67 17.8817
8612.81 16.7243
8612.95 15.6662
8613.09 14.7021
8613.22 13.8207
8613.36 13.0287
8613.50 12.3138
8613.64 11.6704
8613.78 11.0926
8613.91 10.5751
8614.05 10.1124
8614.19 9.69968
8614.31 9.37756
8614.43 9.08886
8614.55 8.82597
8614.67 8.59070
8614.91 8.18525
8615.15 7.85664
8615.38 7.58765
8615.62 7.36860
8615.86 7.18777
8616.10 7.03873
8616.34 6.91380
8616.58 6.80898
8616.82 6.71937
8617.05 6.64261
8617.53 6.51700
8618.01 6.41844
8618.46 6.34224
8618.91 6.27852
8619.36 6.22418
8619.82 6.17722
8620.72 6.10006
8621.62 6.03939
8622.53 5.99050
8623.43 5.95046
8624.34 5.91715
8625.24 5.88909
8626.95 5.84680
8628.66 5.81463
8630.37 5.78949
8632.07 5.76948
8633.78 5.75335
8635.49 5.74028
8637.20 5.72972
8638.91 5.72132
8640.51 5.71522
8642.12 5.71086
8643.73 5.70844
8645.34 5.70839
8646.94 5.71163
8647.75 5.71504
8648.55 5.72020
8649.35 5.72790
8650.16 5.73975
8650.56 5.74828
8650.96 5.75963
8651.36 5.77528
8651.77 5.79761
8652.17 5.83042
8652.37 5.85249
8652.57 5.87959
8652.77 5.91294
8652.97 5.95398
8653.17 6.00444
8653.37 6.06600
8653.60 6.15258
8653.83 6.26018
8654.05 6.39359
8654.28 6.55782
8654.50 6.75837
8654.73 7.00111
8654.96 7.29219
8655.18 7.63775
8655.41 8.04370
8655.52 8.27101
8655.63 8.51536
8655.75 8.77725
8655.86 9.05712
8655.97 9.35530
8656.09 9.67201
8656.20 10.0073
8656.31 10.3613
8656.42 10.7336
8656.54 11.1239
8656.65 11.5317
8656.76 11.9564
8656.99 12.8523
8657.18 13.6435
8657.37 14.4608
8657.74 16.1548
8658.12 17.8492
8658.31 18.6634
8658.50 19.4393
8658.66 20.0744
8658.82 20.6580
8658.99 21.1858
8659.15 21.6504
8659.31 22.0469
8659.48 22.3646
8659.58 22.5293
8659.69 22.6569
8659.83 22.7680
8659.99 22.8198
8660.00 22.8202
8660.04 22.8182
8660.08 22.8116
8660.15 22.7845
8660.30 22.6756
8660.46 22.4847
8660.61 22.2179
8660.77 21.8790
8660.91 21.5117
8661.05 21.0928
8661.19 20.6269
8661.33 20.1229
8661.48 19.5790
8661.62 19.0043
8661.90 17.7854
8662.47 15.2333
8662.67 14.3486
8662.87 13.4897
8663.07 12.6663
8663.26 11.8902
8663.46 11.1597
8663.66 10.4864
8663.86 9.86600
8664.06 9.30577
8664.26 8.79965
8664.46 8.35120
8664.65 7.95340
8664.85 7.60707
8665.05 7.30502
8665.25 7.04628
8665.45 6.82408
8665.65 6.63651
8665.82 6.49834
8665.99 6.38029
8666.16 6.27922
8666.33 6.19299
8666.50 6.11929
8666.67 6.05719
8666.84 6.00466
8667.01 5.96027
8667.18 5.92261
8667.35 5.89102
8667.69 5.84176
8668.03 5.80629
8668.37 5.78034
8668.71 5.76086
8669.05 5.74593
8669.39 5.73406
8669.73 5.72441
8670.41 5.70936
8671.09 5.69797
8672.23 5.68371
8673.36 5.67315
8674.50 5.66494
8675.63 5.65835
8676.77 5.65290
8677.90 5.64828
8680.17 5.64081
8682.44 5.63495
8684.71 5.63016
8686.98 5.62610
8689.25 5.62255
8692.88 5.61761
8696.51 5.61333
8700.14 5.60953
8703.77 5.60610
8711.03 5.59992
8718.29 5.59437
8725.55 5.58927
8732.81 5.58450
8740.08 5.57995
8747.34 5.57560
8761.86 5.56727
8776.38 5.55931
8790.91 5.55161
8805.43 5.54407
8819.95 5.53667
8834.48 5.52934
8863.52 5.51486
8892.57 5.50046
8921.61 5.48605
8950.66 5.47155
8979.70 5.45692
9016.01 5.43836
9052.32 5.41942
9124.93 5.38006
9164.87 5.35735
9204.81 5.33373
9244.74 5.30905
9284.68 5.28309
9324.62 5.25559
9364.56 5.22624
9384.53 5.21077
9404.50 5.19462
9424.47 5.17776
9444.43 5.16014
9454.42 5.15099
9464.40 5.14160
9474.39 5.13198
9484.37 5.12213
9494.36 5.11207
9504.34 5.10186
9514.32 5.09161
9519.32 5.08655
9524.31 5.08159
9531.57 5.07473
9535.65 5.07119
9539.74 5.06805
9543.82 5.06550
9547.91 5.06382
9551.99 5.06349
9556.08 5.06525
9558.12 5.06728
9560.16 5.07045
9562.20 5.07515
9564.25 5.08189
9565.84 5.08904
9567.42 5.09839
9569.01 5.11071
9570.60 5.12711
9572.19 5.14935
9573.78 5.18009
9575.37 5.22387
9576.16 5.25293
9576.95 5.28876
9577.64 5.32667
9578.32 5.37355
9579.00 5.43302
9579.68 5.51116
9580.36 5.61990
9580.70 5.69214
9581.04 5.78215
9581.38 5.89694
9581.72 6.04520
9582.06 6.24013
9582.23 6.36037
9582.40 6.49927
9582.57 6.66095
9582.74 6.84707
9582.91 7.06251
9583.08 7.31175
9583.25 7.60163
9583.42 7.93430
9583.59 8.31739
9583.76 8.75744
9583.93 9.26467
9584.10 9.84062
9584.27 10.4959
9584.44 11.2384
9584.61 12.0817
9584.78 13.0239
9584.95 14.0777
9585.12 15.2504
9585.22 15.9985
9585.32 16.7833
9585.42 17.6129
9585.52 18.4885
9585.62 19.4203
9585.72 20.3902
9585.82 21.4077
9585.92 22.4731
9586.02 23.5976
9586.12 24.7585
9586.22 25.9662
9586.31 27.2198
9586.51 29.8734
9586.71 32.6792
9586.97 36.5205
9587.22 40.5361
9587.73 48.8483
9588.04 53.8746
9588.36 58.6344
9588.57 61.6314
9588.78 64.3535
9588.94 66.1394
9589.09 67.7262
9589.25 69.0948
9589.41 70.2288
9589.54 71.0251
9589.68 71.6191
9589.82 72.0050
9589.96 72.1789
9590.00 72.1894
9590.01 72.1889
9590.05 72.1787
9590.08 72.1565
9590.14 72.0753
9590.28 71.7641
9590.42 71.2080
9590.56 70.4358
9590.72 69.3686
9590.87 68.0787
9591.03 66.5647
9591.18 64.8519
9591.38 62.4154
9591.57 59.7470
9591.88 55.1631
9592.18 50.2892
9592.66 42.5345
9592.90 38.7226
9593.13 35.0594
9593.32 32.3678
9593.50 29.8155
9593.68 27.3884
9593.86 25.1236
9593.95 24.0433
9594.04 23.0028
9594.22 21.0527
9594.31 20.1324
9594.40 19.2523
9594.59 17.6193
9594.74 16.3505
9594.89 15.1959
9595.05 14.1360
9595.20 13.1796
9595.35 12.3088
9595.51 11.5291
9595.66 10.8243
9595.81 10.1978
9595.97 9.63525
9596.12 9.13822
9596.27 8.69453
9596.43 8.30456
9596.58 7.95808
9596.73 7.65482
9596.89 7.38632
9597.04 7.15197
9597.20 6.94493
9597.35 6.76336
9597.50 6.60413
9597.66 6.46530
9597.96 6.23530
9598.27 6.05673
9598.58 5.91677
9598.88 5.80564
9599.19 5.71608
9599.50 5.64267
9600.11 5.52963
9600.73 5.44610
9601.34 5.38119
9601.95 5.32888
9602.68 5.27849
9603.41 5.23720
9604.13 5.20271
9604.86 5.17345
9606.31 5.12646
9607.76 5.09038
9609.21 5.06167
9610.66 5.03820
9612.12 5.01845
9613.57 5.00148
9615.47 4.98236
9617.36 4.96580
9619.26 4.95110
9621.16 4.93775
9624.96 4.91372
9628.75 4.89163
9632.55 4.87036
9636.35 4.84911
9640.14 4.82724
9643.94 4.80422
9650.19 4.76239
9656.45 4.71303
9661.36 4.66649
9666.27 4.61010
9671.18 4.53949
9673.64 4.49679
9676.10 4.44757
9678.55 4.38993
9681.01 4.32130
9683.47 4.23804
9684.70 4.18933
9685.92 4.13470
9687.82 4.03573
9688.77 3.97807
9689.72 3.91362
9690.67 3.84107
9691.62 3.75875
9692.57 3.66451
9693.52 3.55567
9694.13 3.47596
9694.75 3.38848
9695.36 3.29352
9695.67 3.24397
9695.97 3.19396
9696.28 3.14477
9696.59 3.09836
9696.90 3.05764
9697.20 3.02680
9697.51 3.01164
9697.82 3.02008
9697.97 3.03635
9698.12 3.06249
9698.28 3.10062
9698.43 3.15217
9698.60 3.22706
9698.77 3.32347
9698.93 3.44598
9699.10 3.59681
9699.27 3.78175
9699.44 4.00278
9699.60 4.26697
9699.77 4.57570
9699.94 4.93730
9700.11 5.35204
9700.19 5.58290
9700.27 5.82939
9700.36 6.09204
9700.44 6.36792
9700.52 6.66417
9700.61 6.97802
9700.69 7.30988
9700.78 7.65585
9700.86 8.02460
9700.94 8.40763
9701.03 8.81441
9701.11 9.23542
9701.22 9.83378
9701.33 10.4670
9701.45 11.1348
9701.56 11.8306
9701.67 12.5662
9701.78 13.3346
9701.89 14.1347
9702.00 14.9573
9702.23 16.7005
9702.45 18.5310
9702.67 20.4347
9702.90 22.3851
9703.14 24.5460
9703.18 24.8538
9703.27 25.7121
9703.54 27.9849
9703.78 29.9195
9704.01 31.7165
9704.17 32.7906
9704.32 33.7722
9704.54 35.0305
9704.70 35.7901
9704.92 36.6327
9705.00 36.8760
9705.06 37.0387
9705.18 37.3061
9705.30 37.4941
9705.43 37.6100
9705.56 37.6363
9705.70 37.5602
9705.84 37.3743
9705.99 37.0795
9706.13 36.6847
9706.38 35.7738
9706.63 34.6124
9706.92 33.0053
9707.21 31.1800
9707.50 29.1996
9707.78 27.1468
9708.07 25.0712
9708.22 24.0491
9708.36 23.0432
9708.56 21.7034
9708.76 20.4162
9708.95 19.1910
9709.15 18.0408
9709.35 16.9587
9709.54 15.9538
9709.74 15.0272
9709.94 14.1825
9710.08 13.6062
9710.22 13.0736
9710.37 12.5791
9710.51 12.1212
9710.66 11.6955
9710.80 11.3058
9710.95 10.9473
9711.09 10.6180
9711.23 10.3139
9711.38 10.0372
9711.67 9.55203
9711.95 9.14575
9712.24 8.80526
9712.49 8.55403
9712.74 8.33788
9712.99 8.15014
9713.24 7.98608
9713.49 7.84173
9713.74 7.71377
9714.24 7.49668
9714.73 7.31817
9715.23 7.16818
9715.73 7.03920
9716.23 6.92645
9716.96 6.78295
9717.70 6.66079
9718.43 6.55504
9719.17 6.46243
9720.63 6.30742
9722.10 6.18262
9723.26 6.10015
9724.41 6.02841
9726.72 5.90956
9729.03 5.81493
9731.33 5.73769
9733.33 5.68143
9735.32 5.63276
9739.31 5.55239
9743.29 5.48857
9747.28 5.43650
9753.15 5.37484
9759.03 5.32585
9762.59 5.30069
9766.16 5.27826
9769.73 5.25810
9773.29 5.24000
9776.86 5.22378
9780.42 5.20942
9783.99 5.19698
9785.77 5.19157
9787.56 5.18682
9789.45 5.18268
9791.33 5.17969
9793.22 5.17823
9795.11 5.17894
9797.00 5.18292
9797.94 5.18671
9798.89 5.19222
9799.83 5.20008
9800.77 5.21131
9801.72 5.22764
9802.19 5.23874
9802.66 5.25277
9803.03 5.26657
9803.40 5.28387
9803.76 5.30615
9804.13 5.33554
9804.50 5.37520
9804.87 5.42969
9805.23 5.50547
9805.60 5.61148
9805.78 5.67964
9805.97 5.76019
9806.15 5.85523
9806.33 5.96642
9806.52 6.09755
9806.70 6.25000
9806.89 6.42847
9807.07 6.63428
9807.25 6.87310
9807.44 7.14585
9807.62 7.45912
9807.80 7.81307
9807.99 8.21502
9808.17 8.66382
9808.35 9.16726
9808.54 9.72225
9808.66 10.1334
9808.79 10.5710
9808.91 11.0352
9809.04 11.5220
9809.16 12.0389
9809.28 12.5772
9809.41 13.1449
9809.53 13.7318
9809.78 14.9763
9810.03 16.2968
9810.28 17.6746
9810.53 19.0866
9811.03 21.9062
9811.28 23.2442
9811.53 24.4911
9811.67 25.1573
9811.81 25.7755
9811.96 26.3396
9812.10 26.8439
9812.25 27.2863
9812.39 27.6561
9812.60 28.0634
9812.75 28.2509
9812.97 28.3764
9813.00 28.3792
9813.11 28.3577
9813.22 28.2900
9813.41 28.0662
9813.53 27.8440
9813.66 27.5652
9813.83 27.0963
9814.00 26.5325
9814.14 26.0179
9814.27 25.4523
9814.41 24.8406
9814.55 24.1932
9814.82 22.7892
9815.09 21.2898
9815.64 18.1878
9815.94 16.5342
9816.09 15.7364
9816.23 14.9620
9816.38 14.2145
9816.53 13.4972
9816.68 12.8124
9816.83 12.1622
9816.98 11.5438
9817.12 10.9664
9817.27 10.4262
9817.42 9.92309
9817.57 9.45663
9817.72 9.02606
9817.86 8.63029
9818.01 8.26801
9818.21 7.84133
9818.40 7.46581
9818.59 7.13740
9818.79 6.85327
9818.98 6.60628
9819.17 6.39388
9819.37 6.21208
9819.56 6.05789
9819.76 5.92624
9819.95 5.81482
9820.14 5.72075
9820.34 5.64183
9820.53 5.57500
9820.72 5.51872
9821.11 5.43139
9821.50 5.36851
9821.89 5.32266
9822.27 5.28820
9822.66 5.26168
9823.05 5.24052
9823.44 5.22323
9824.21 5.19618
9824.78 5.18056
9825.35 5.16741
9826.49 5.14626
9827.63 5.12981
9828.77 5.11651
9829.91 5.10544
9831.05 5.09602
9832.19 5.08783
9833.33 5.08062
9835.61 5.06831
9837.89 5.05800
9840.17 5.04899
9842.45 5.04092
9845.73 5.03048
9849.01 5.02105
9852.30 5.01235
9855.58 5.00420
9862.14 4.98894
9868.71 4.97472
9875.27 4.96122
9881.84 4.94825
9888.40 4.93567
9894.97 4.92341
9906.64 4.90218
9918.31 4.88145
9941.65 4.84094
9956.24 4.81596
9970.82 4.79110
10000.0 4.74141
10026.2 4.69689
10039.3 4.67481
10052.4 4.65303
10065.5 4.63175
10078.6 4.61145
10091.6 4.59276
10104.7 4.57671
10114.3 4.56762
10123.9 4.56214
10133.5 4.56205
10143.1 4.57038
10148.8 4.58122
10154.5 4.59833
10160.2 4.62436
10165.8 4.66296
10170.0 4.70246
10174.1 4.75522
10178.3 4.82630
10182.4 4.92310
10184.8 4.99573
10187.2 5.08455
10189.6 5.19423
10192.0 5.33064
10194.4 5.50417
10195.6 5.60867
10196.8 5.72784
10198.0 5.86445
10199.2 6.02196
10200.4 6.20476
10201.6 6.41846
10202.8 6.67042
10204.0 6.97028
10204.6 7.14204
10205.2 7.33093
10205.8 7.53930
10206.4 7.76993
10207.0 8.02610
10207.6 8.31176
10208.2 8.63165
10208.8 8.99154
10209.4 9.39851
10210.0 9.86131
10210.6 10.3909
10210.9 10.6850
10211.2 11.0013
10211.7 11.5105
10212.1 12.0816
10212.5 12.7256
10213.0 13.4385
10213.2 13.8401
10213.4 14.2701
10213.6 14.7312
10213.8 15.2033
10214.1 15.7349
10214.3 16.3085
10214.5 16.9288
10214.7 17.5693
10215.0 18.5772
10215.3 19.7108
10215.6 20.9913
10215.8 21.6946
10215.9 22.4445
10216.1 23.2450
10216.2 24.1003
10216.4 25.0152
10216.5 25.9945
10216.7 27.0436
10216.8 28.1684
10217.0 29.3749
10217.1 30.6699
10217.3 32.0603
10217.4 33.5537
10217.6 35.1579
10217.7 36.8811
10217.9 38.7320
10218.0 40.7195
10218.2 42.8530
10218.3 45.1418
10218.5 47.5956
10218.6 50.2239
10218.8 53.0366
10218.9 56.0429
10219.1 59.2521
10219.2 62.6728
10219.4 66.3133
10219.5 70.1808
10219.7 74.8463
10219.8 79.5179
10220.0 84.7844
10220.2 90.0284
10220.3 95.9052
10220.5 101.720
10220.7 107.804
10220.8 114.147
10221.1 126.692
10221.4 139.981
10221.7 153.846
10222.0 168.071
10222.6 196.524
10222.9 210.123
10223.2 222.849
10223.5 235.423
10223.7 240.854
10223.9 245.787
10224.0 250.432
10224.2 254.203
10224.4 257.356
10224.5 259.860
10224.8 262.425
10225.0 263.293
10225.2 262.951
10225.3 261.909
10225.5 260.177
10225.7 257.773
10225.8 254.720
10226.0 251.045
10226.1 246.782
10226.3 241.971
10226.5 236.306
10226.6 230.503
10226.9 217.726
10227.3 203.284
10227.6 188.484
10228.3 155.801
10228.6 139.695
10229.0 124.808
10229.2 117.312
10229.3 110.511
10229.5 103.996
10229.7 97.7806
10229.8 91.8720
10230.0 86.2749
10230.2 80.9900
10230.3 76.0151
10230.6 70.0289
10230.8 64.5372
10231.0 59.5184
10231.2 54.9473
10231.4 50.7962
10231.7 47.0356
10231.9 43.6355
10232.1 40.5658
10232.3 38.2795
10232.5 36.2912
10232.6 34.4564
10232.8 32.7631
10233.0 31.1118
10233.1 29.6749
10233.3 28.3471
10233.5 27.1190
10233.7 25.9181
10233.8 24.8695
10234.0 23.8968
10234.2 22.9932
10234.4 22.1053
10234.5 21.3259
10234.7 20.5989
10234.9 19.9199
10235.0 19.2487
10235.2 18.6561
10235.6 17.5776
10235.9 16.5966
10236.2 15.7499
10236.6 14.9713
10236.9 14.2923
10237.3 13.6792
10237.6 13.1233
10237.9 12.6888
10238.2 12.3002
10238.5 11.9389
10238.7 11.6022
10239.3 10.9940
10239.9 10.4602
10240.4 9.98090
10241.0 9.56302
10241.6 9.18987
10242.1 8.85509
10242.8 8.48770
10243.5 8.16268
10244.2 7.87360
10244.9 7.61522
10245.6 7.38325
10246.3 7.17410
10246.9 6.98482
10247.6 6.81289
10248.4 6.64109
10249.1 6.48736
10250.6 6.21954
10252.1 5.99480
10253.6 5.80407
10255.0 5.65274
10256.4 5.52036
10257.8 5.40374
10259.2 5.30109
10261.9 5.12626
10264.7 4.98495
10267.4 4.86776
10270.2 4.76971
10272.9 4.68587
10275.7 4.61381
10280.9 4.49981
10286.2 4.40822
10291.5 4.33228
10296.7 4.26750
10304.2 4.18848
10311.8 4.12063
10319.3 4.06008
10326.8 4.00451
10335.8 3.94222
10344.8 3.88303
10353.8 3.82566
10362.8 3.76921
10371.9 3.71279
10380.9 3.65612
10398.9 3.54011
10411.9 3.45269
10425.0 3.36143
10451.0 3.16404
10473.0 2.97742
10484.1 2.87603
10495.1 2.76838
10506.1 2.65401
10517.1 2.53203
10528.1 2.40179
10539.2 2.26257
10551.2 2.09945
10563.2 1.92324
10569.2 1.82993
10575.2 1.73298
10581.2 1.63229
10587.2 1.52777
10593.3 1.41939
10599.3 1.30717
10605.3 1.19121
10611.3 1.07174
10617.3 0.949167
10623.3 0.824131
10635.3 0.571154
10638.6 0.503264
10641.8 0.436444
10645.1 0.371220
10646.7 0.339457
10648.4 0.308585
10650.0 0.278331
10651.6 0.249006
10653.2 0.220751
10654.9 0.193881
10656.5 0.168237
10658.1 0.144179
10659.8 0.121912
10661.4 0.101778
10662.6 0.0884028
10663.8 0.0763562
10664.9 0.0657703
10666.1 0.0567858
10667.3 0.0495495
10668.5 0.0442176
10669.1 0.0423049
10669.7 0.0409613
10670.3 0.0401657
10670.9 0.0399694
10671.4 0.0402772
10672.3 0.0419272
10673.2 0.0450703
10674.0 0.0498042
10674.9 0.0561488
10675.8 0.0643579
10676.7 0.0743579
10677.5 0.0865018
10678.4 0.100644
10679.8 0.127782
10680.5 0.143677
10681.2 0.161232
10681.9 0.180534
10682.5 0.201675
10683.2 0.224752
10683.9 0.249488
10684.6 0.276718
10685.3 0.306206
10686.0 0.338074
10686.7 0.372448
10687.4 0.409463
10688.1 0.449259
10688.7 0.491986
10689.4 0.537116
10690.3 0.600237
10691.2 0.669029
10692.1 0.743903
10692.9 0.824343
10693.8 0.912677
10694.7 1.00854
10695.6 1.11250
10696.4 1.22381
10697.1 1.31855
10697.8 1.41937
10698.5 1.52662
10699.2 1.64068
10699.9 1.76197
10700.6 1.89093
10701.3 2.02803
10702.0 2.17158
10702.6 2.32635
10703.3 2.49086
10704.0 2.66574
10704.7 2.84886
10705.4 3.04631
10706.1 3.25624
10706.8 3.47948
10707.5 3.71335
10708.1 3.96567
10708.8 4.23413
10709.5 4.51982
10710.2 4.82393
10710.9 5.14773
10711.6 5.49262
10712.3 5.86008
10713.0 6.25172
10713.7 6.66930
10714.4 7.11470
10715.0 7.58999
10715.7 8.09739
10716.4 8.63931
10717.1 9.21838
10717.8 9.83747
10718.5 10.4898
10719.2 11.1978
10719.9 11.9559
10720.6 12.7682
10721.2 13.6390
10721.9 14.5731
10722.6 15.5758
10723.3 16.6526
10724.0 17.7925
10724.7 19.0357
10725.4 20.3735
10726.1 21.8139
10726.7 23.3424
10727.4 25.0137
10728.1 26.8164
10728.8 28.7622
10729.5 30.8318
10730.2 33.0994
10730.9 35.5503
10731.6 38.2005
10732.3 41.0668
10732.9 44.1673
10733.6 47.5213
10734.3 51.1493
10735.0 55.0132
10735.8 59.6967
10736.5 64.7939
10737.3 70.3338
10738.0 76.3439
10738.8 82.8483
10739.6 89.8663
10740.3 97.4097
10741.1 105.371
10741.6 111.416
10742.2 117.714
10743.2 130.882
10744.3 144.950
10745.4 159.393
10746.5 174.106
10747.5 188.351
10748.6 201.729
10749.1 207.972
10749.7 213.676
10750.3 219.452
10750.8 224.465
10751.4 228.820
10752.0 232.314
10752.6 235.027
10753.2 236.866
10753.8 237.826
10754.4 237.922
10754.9 237.184
10755.5 235.645
10756.1 233.361
10756.7 230.452
10757.3 226.889
10757.9 222.868
10759.0 213.502
10760.2 202.960
10761.4 191.788
10762.6 180.438
10763.7 169.256
10764.4 163.394
10765.0 157.682
10765.6 152.143
10766.2 146.877
10766.9 141.732
10767.2 139.205
10767.5 136.815
10767.8 134.413
10768.1 132.154
10768.4 129.967
10768.7 127.860
10768.9 126.741
10769.1 125.651
10769.3 124.590
10769.4 123.621
10769.6 122.625
10769.7 121.721
10769.9 120.797
10770.1 119.966
10770.2 119.124
10770.4 118.329
10770.6 117.582
10770.7 116.926
10770.9 116.280
10771.1 115.723
10771.2 115.187
10771.4 114.736
10771.5 114.408
10771.7 114.137
10771.8 113.896
10771.9 113.685
10772.0 113.503
10772.1 113.351
10772.3 113.227
10772.4 113.131
10772.5 113.057
10772.6 113.015
10772.9 113.001
10773.1 113.067
10773.3 113.194
10774.0 113.642
10774.3 113.824
10774.4 113.877
10774.6 113.896
10774.7 113.890
10774.8 113.848
10774.9 113.771
10775.1 113.653
10775.2 113.491
10775.4 113.225
10775.5 112.906
10775.7 112.370
10775.8 111.984
10776.0 111.395
10776.0 111.315
10776.1 110.982
10776.2 110.673
10776.3 110.054
10776.5 109.048
10776.6 108.232
10776.8 107.354
10777.0 105.716
10777.2 104.004
10777.5 101.925
10777.7 99.8121
10778.0 97.5296
10778.2 95.2854
10778.7 91.3122
10778.9 89.3539
10779.1 87.5232
10779.3 85.6591
10779.5 83.9417
10779.8 82.2165
10780.0 80.6463
10780.2 79.3630
10780.3 78.1389
10780.5 76.9745
10780.7 75.9291
10780.9 74.8787
10781.0 73.8847
10781.2 72.9450
10781.4 72.1048
10781.6 71.2626
10781.8 70.4662
10781.9 69.7124
10782.1 69.0367
10782.3 68.3564
10782.5 67.7444
10782.6 67.1259
10782.8 66.5671
10783.0 65.8766
10783.2 65.2190
10783.5 64.5901
10783.7 64.0135
10783.9 63.4311
10784.1 62.8934
10784.5 61.8397
10785.0 60.8387
10785.4 59.8806
10785.8 58.9586
10786.3 58.0681
10787.1 56.3502
10788.0 54.7493
10788.9 53.2179
10789.7 51.7839
10791.4 49.1159
10793.2 46.7050
10794.7 44.7971
10796.2 43.0502
10797.7 41.4249
10799.2 39.9291
10800.7 38.5311
10802.1 37.2393
10803.6 36.0351
10805.1 34.9105
10806.9 33.6952
10808.6 32.5678
10810.3 31.5196
10812.0 30.5485
10815.5 28.7838
10818.9 27.2398
10822.1 25.9890
10825.2 24.8685
10828.4 23.8561
10831.5 22.9383
10834.7 22.1007
10837.8 21.3383
10840.9 20.6397
10844.1 19.9975
10847.5 19.3476
10851.0 18.7512
10854.5 18.2023
10857.9 17.6970
10864.8 16.7936
10871.7 16.0116
10876.8 15.5058
10881.8 15.0454
10886.8 14.6258
10891.8 14.2418
10901.9 13.5592
10912.0 12.9752
10918.9 12.6197
10925.8 12.2968
10932.7 12.0015
10939.6 11.7311
10953.4 11.2526
10967.3 10.8430
10982.4 10.4580
10997.4 10.1255
11012.5 9.83521
11027.6 9.58025
11041.4 9.37153
11055.3 9.18305
11082.9 8.85726
11110.6 8.58484
11138.2 8.35369
11163.3 8.17197
11188.5 8.01182
11213.6 7.86983
11238.8 7.74273
11271.4 7.59605
11287.8 7.52948
11304.1 7.46682
11317.9 7.41659
11331.8 7.36878
11338.7 7.34570
11345.6 7.32322
11352.5 7.30132
11359.4 7.28002
11364.4 7.26494
11369.5 7.25026
11374.5 7.23609
11379.5 7.22259
11382.5 7.21497
11385.5 7.20782
11388.5 7.20130
11391.5 7.19569
11394.5 7.19143
11396.0 7.19006
11397.4 7.18936
11398.9 7.18958
11400.4 7.19105
11401.9 7.19428
11403.4 7.20008
11404.7 7.20792
11405.9 7.21980
11407.2 7.23803
11407.8 7.25090
11408.4 7.26738
11409.1 7.29011
11409.7 7.32288
11410.0 7.34560
11410.3 7.37338
11410.7 7.41011
11411.0 7.45626
11411.3 7.51869
11411.6 7.59838
11411.9 7.70711
11412.2 7.84617
11412.5 8.03509
11412.9 8.27437
11413.2 8.58342
11413.3 8.77554
11413.5 8.97868
11413.7 9.27140
11413.9 9.60790
11414.0 9.99285
11414.2 10.4065
11414.4 10.8993
11414.6 11.4543
11414.8 12.0757
11415.0 12.7291
11415.2 13.4903
11415.4 14.3274
11415.5 15.2419
11415.7 16.1803
11415.9 17.2460
11416.1 18.3249
11416.3 19.5337
11416.5 20.7403
11416.7 22.1439
11416.9 23.5297
11417.2 26.4877
11417.6 29.5027
11418.0 32.4392
11418.2 33.7965
11418.4 35.0815
11418.6 36.2767
11418.8 37.3107
11419.0 38.4244
11419.2 39.3143
11419.3 39.7727
11419.5 40.1296
11419.7 40.6112
11419.9 40.8610
11420.0 40.8972
11420.2 40.8436
11420.4 40.6175
11420.5 40.2438
11420.7 39.8805
11420.8 39.4417
11421.0 38.5368
11421.2 37.4978
11421.4 36.3670
11421.6 35.1822
11421.8 33.9069
11422.0 32.5587
11422.3 30.0204
11422.7 27.4830
11423.0 24.8829
11423.3 22.4482
11423.5 21.0410
11423.7 19.7640
11423.9 18.5524
11424.1 17.4116
11424.3 16.2912
11424.5 15.3055
11424.7 14.3972
11424.9 13.5657
11425.1 12.7716
11425.3 12.0916
11425.5 11.4807
11425.6 10.9351
11425.8 10.4265
11426.0 10.0012
11426.2 9.62731
11426.4 9.30033
11426.6 8.97426
11426.9 8.69804
11427.1 8.46522
11427.3 8.27801
11427.5 8.11335
11427.7 7.97609
11427.9 7.86191
11428.2 7.77097
11428.4 7.69148
11428.6 7.62536
11428.8 7.57025
11429.0 7.52606
11429.5 7.45534
11429.9 7.40373
11430.3 7.36407
11430.8 7.33395
11431.2 7.30966
11431.6 7.28948
11432.5 7.25704
11433.3 7.23222
11434.6 7.20322
11435.9 7.18091
11437.2 7.16302
11438.5 7.14822
11439.8 7.13568
11441.1 7.12484
11442.4 7.11531
11443.7 7.10681
11446.3 7.09208
11448.9 7.07947
11451.5 7.06832
11454.1 7.05827
11457.4 7.04667
11460.7 7.03601
11464.0 7.02602
11467.2 7.01656
11470.5 7.00750
11473.8 6.99878
11480.3 6.98207
11486.9 6.96613
11493.4 6.95082
11500.0 6.93597
11506.5 6.92156
11517.3 6.89857
11528.1 6.87638
11538.8 6.85488
11549.6 6.83408
11571.2 6.79395
11592.7 6.75579
11608.9 6.72831
11625.1 6.70172
11641.2 6.67596
11657.4 6.65104
11673.6 6.62690
11689.7 6.60358
11697.8 6.59229
11705.9 6.58124
11714.0 6.57050
11722.1 6.56013
11728.2 6.55257
11734.4 6.54539
11740.5 6.53870
11746.7 6.53268
11751.3 6.52879
11755.9 6.52561
11760.6 6.52334
11765.2 6.52252
11769.8 6.52378
11774.4 6.52820
11776.7 6.53212
11779.0 6.53757
11781.3 6.54505
11783.6 6.55524
11785.4 6.56536
11787.1 6.57813
11788.8 6.59437
11790.6 6.61519
11792.3 6.64234
11794.0 6.67789
11795.8 6.72565
11797.5 6.79155
11799.1 6.87974
11800.0 6.93765
11800.8 7.00849
11801.6 7.09662
11802.4 7.20880
11803.2 7.35623
11804.1 7.55618
11804.5 7.71789
11805.0 7.92123
11805.3 8.04533
11805.5 8.18845
11805.7 8.35449
11806.0 8.54813
11806.2 8.77498
11806.5 9.04171
11806.7 9.35621
11806.9 9.72767
11807.2 10.1667
11807.4 10.6856
11807.5 10.9792
11807.7 11.2980
11807.8 11.6439
11807.9 12.0192
11808.0 12.4967
11808.2 12.9816
11808.3 13.5092
11808.4 14.0828
11808.6 14.7553
11808.7 15.4340
11808.8 16.1683
11809.0 16.9613
11809.1 17.8846
11809.2 18.8094
11809.4 19.8024
11809.5 20.8662
11809.6 22.0940
11809.8 23.3130
11809.9 24.6100
11810.0 25.9866
11810.2 27.9092
11810.4 29.9719
11810.5 32.1750
11810.7 34.3753
11810.9 36.8448
11811.0 39.4449
11811.2 42.1680
11811.4 44.8348
11811.6 49.5345
11811.9 54.4323
11812.4 64.3274
11812.7 70.0611
11813.1 75.5592
11813.3 80.0250
11813.6 83.9328
11813.8 87.3598
11814.1 90.2203
11814.3 91.9093
11814.5 93.1721
11814.7 94.2824
11814.9 94.8071
11815.0 94.8485
11815.0 94.8502
11815.1 94.8346
11815.1 94.8017
11815.2 94.6819
11815.4 94.1891
11815.6 93.2023
11815.8 91.8711
11816.0 90.0771
11816.2 87.9081
11816.4 84.4452
11816.7 80.6114
11816.9 76.3821
11817.2 71.8557
11818.0 57.8401
11818.2 53.0678
11818.5 48.4345
11818.7 44.0012
11819.0 39.8166
11819.2 36.9372
11819.4 34.2201
11819.6 31.6721
11819.8 29.2967
11820.0 27.0949
11820.1 25.0652
11820.3 23.2037
11820.5 21.5050
11820.7 20.3536
11820.8 19.3575
11820.9 18.4289
11821.1 17.5649
11821.2 16.7626
11821.3 16.0188
11821.4 15.3304
11821.6 14.6944
11821.7 14.1074
11821.8 13.5666
11822.0 13.0689
11822.1 12.6114
11822.2 12.1911
11822.4 11.8056
11822.5 11.4520
11822.6 11.1280
11822.9 10.5794
11823.1 10.1164
11823.4 9.72530
11823.6 9.39457
11823.9 9.11412
11824.1 8.87544
11824.4 8.67134
11824.6 8.49585
11824.9 8.34402
11825.1 8.21177
11825.6 7.99331
11826.1 7.82057
11826.6 7.68293
11827.4 7.50313
11828.2 7.36421
11829.0 7.25331
11829.8 7.16368
11830.6 7.08810
11831.5 7.02433
11833.1 6.92347
11834.7 6.84667
11836.3 6.78686
11837.9 6.73913
11839.5 6.70043
11841.2 6.66808
11842.8 6.64098
11846.0 6.59774
11849.0 6.56650
11852.1 6.54168
11855.1 6.52138
11858.2 6.50434
11861.2 6.48971
11864.2 6.47695
11870.3 6.45559
11877.2 6.43606
11884.0 6.41977
11890.9 6.40553
11897.7 6.39277
11904.5 6.38110
11911.4 6.37026
11918.2 6.36006
11925.1 6.35035
11932.7 6.34003
11940.3 6.33017
11955.5 6.31129
11970.7 6.29330
11985.9 6.27601
12001.1 6.25924
12016.3 6.24289
12031.5 6.22686
12046.7 6.21110
12058.8 6.19864
12071.0 6.18628
12083.2 6.17403
12095.3 6.16185
12107.5 6.14971
12119.7 6.13760
12125.7 6.13156
12131.8 6.12552
12137.9 6.11949
12144.0 6.11348
12150.1 6.10749
12156.1 6.10156
12159.8 6.09808
12163.4 6.09468
12167.0 6.09139
12170.6 6.08828
12174.2 6.08548
12176.0 6.08426
12177.8 6.08322
12179.6 6.08240
12181.4 6.08192
12183.2 6.08193
12185.0 6.08266
12186.6 6.08409
12188.1 6.08667
12189.6 6.09098
12190.4 6.09411
12191.1 6.09815
12191.9 6.10347
12192.6 6.11067
12193.4 6.12091
12193.8 6.12787
12194.2 6.13672
12194.5 6.14825
12194.9 6.16369
12195.3 6.18479
12195.7 6.21416
12196.1 6.25549
12196.4 6.31393
12196.6 6.35169
12196.8 6.39653
12197.0 6.44969
12197.2 6.51259
12197.5 6.63098
12197.8 6.77639
12198.1 6.96644
12198.3 7.19578
12198.6 7.48973
12198.9 7.83710
12199.1 8.05208
12199.2 8.27249
12199.3 8.51311
12199.5 8.77502
12199.6 9.08038
12199.8 9.38948
12199.9 9.72269
12200.0 10.0807
12200.2 10.4925
12200.3 10.9035
12200.5 11.3406
12200.6 11.8037
12200.8 12.3285
12200.9 12.8446
12201.0 13.3852
12201.2 13.9494
12201.3 14.5786
12201.5 15.1871
12201.8 16.4578
12202.2 18.4117
12202.6 20.3577
12203.0 22.3015
12203.2 23.2001
12203.4 24.0495
12203.6 24.7616
12203.7 25.4153
12203.9 26.0025
12204.1 26.4891
12204.3 26.9261
12204.4 27.2770
12204.7 27.5927
12204.8 27.7093
12205.0 27.7710
12205.0 27.7740
12205.1 27.7687
12205.2 27.7484
12205.3 27.6716
12205.5 27.4281
12205.7 27.1824
12205.8 26.8972
12205.9 26.5343
12206.1 26.1451
12206.2 25.6776
12206.4 25.1976
12206.5 24.6410
12206.7 24.0453
12207.0 22.8014
12207.3 21.4674
12207.5 20.0808
12207.9 18.4847
12208.2 16.9150
12208.4 16.1304
12208.5 15.4125
12208.7 14.6756
12208.9 14.0094
12209.0 13.3332
12209.2 12.7286
12209.4 12.1216
12209.5 11.5844
12209.7 11.0505
12209.9 10.5826
12210.0 10.1481
12210.2 9.74621
12210.4 9.18158
12210.7 8.69009
12210.9 8.26637
12211.2 7.91778
12211.4 7.60918
12211.7 7.35943
12211.9 7.14170
12212.1 6.96800
12212.4 6.81854
12212.6 6.69626
12212.9 6.59669
12213.1 6.51883
12213.4 6.45290
12213.6 6.40152
12213.9 6.35803
12214.1 6.32405
12214.4 6.29512
12214.6 6.27145
12215.1 6.23626
12215.6 6.21122
12216.1 6.19257
12216.6 6.17804
12217.1 6.16625
12218.0 6.14788
12218.9 6.13516
12219.8 6.12488
12220.7 6.11626
12221.5 6.10891
12222.7 6.10053
12223.9 6.09353
12225.0 6.08746
12226.2 6.08215
12228.5 6.07324
12230.6 6.06674
12232.6 6.06114
12234.7 6.05619
12236.7 6.05173
12240.8 6.04386
12244.9 6.03695
12247.5 6.03287
12250.1 6.02903
12252.7 6.02541
12255.4 6.02204
12258.0 6.01899
12259.3 6.01763
12260.6 6.01645
12261.9 6.01548
12263.2 6.01485
12264.5 6.01471
12265.9 6.01534
12267.0 6.01687
12267.5 6.01821
12268.0 6.02013
12268.6 6.02307
12269.1 6.02767
12269.7 6.03519
12270.0 6.04058
12270.2 6.04761
12270.5 6.05719
12270.8 6.06936
12271.1 6.08598
12271.3 6.10706
12271.6 6.13569
12271.9 6.17166
12272.2 6.21803
12272.4 6.27739
12272.7 6.35590
12273.0 6.45157
12273.2 6.57083
12273.5 6.71805
12273.8 6.90525
12274.1 7.12409
12274.3 7.38552
12274.6 7.69424
12274.8 7.96979
12275.0 8.26273
12275.2 8.58662
12275.4 8.94219
12275.6 9.32972
12275.8 9.74897
12276.0 10.1991
12276.2 10.6785
12276.4 11.1850
12276.6 11.7155
12276.8 12.2665
12277.0 12.8333
12277.8 15.1462
12278.1 15.9462
12278.4 16.6904
12278.5 17.0461
12278.7 17.3565
12278.8 17.6634
12279.0 17.9234
12279.1 18.1402
12279.2 18.3318
12279.4 18.4969
12279.5 18.6248
12279.7 18.7954
12279.8 18.8564
12280.0 18.8872
12280.0 18.8906
12280.1 18.8817
12280.2 18.8504
12280.4 18.7529
12280.6 18.6091
12280.8 18.4169
12281.0 18.1476
12281.1 17.8248
12281.3 17.4533
12281.5 17.0383
12281.8 16.4105
12282.0 15.7280
12282.3 15.0071
12282.6 14.2926
12283.1 12.7990
12283.3 12.0749
12283.6 11.4070
12283.8 10.9478
12283.9 10.5332
12284.1 10.1388
12284.3 9.76558
12284.4 9.41452
12284.6 9.08604
12284.8 8.78031
12285.0 8.49722
12285.1 8.22173
12285.3 7.98385
12285.5 7.76684
12285.6 7.56980
12285.8 7.39169
12286.0 7.23140
12286.2 7.08776
12286.3 6.95958
12286.5 6.83936
12286.7 6.73921
12287.0 6.57323
12287.4 6.44579
12287.7 6.34909
12288.0 6.27641
12288.4 6.22213
12288.7 6.18175
12289.1 6.15167
12289.4 6.12914
12289.7 6.11210
12290.1 6.09899
12290.4 6.08871
12290.8 6.08046
12291.1 6.07368
12291.8 6.06289
12292.5 6.05474
12293.2 6.04800
12293.8 6.04238
12295.2 6.03316
12296.6 6.02585
12297.9 6.01983
12299.3 6.01476
12300.7 6.01033
12302.0 6.00642
12304.8 5.99973
12307.5 5.99403
12310.2 5.98902
12313.0 5.98450
12315.7 5.98034
12318.4 5.97646
12322.5 5.97099
12326.6 5.96582
12330.7 5.96089
12334.8 5.95614
12340.3 5.95001
12345.8 5.94408
12358.1 5.93113
12370.4 5.91854
12382.7 5.90616
12395.0 5.89391
12407.3 5.88171
12419.6 5.86953
12444.2 5.84515
12468.8 5.82061
12493.4 5.79578
12542.6 5.74493
12608.2 5.67361
12665.6 5.60673
12723.0 5.53445
12780.4 5.45520
12837.8 5.36700
12865.1 5.32105
12892.4 5.27218
12906.1 5.24648
12919.8 5.21990
12933.4 5.19238
12940.3 5.17829
12947.1 5.16393
12950.5 5.15666
12953.9 5.14935
12957.4 5.14202
12959.1 5.13836
12960.8 5.13473
12962.2 5.13165
12963.7 5.12862
12965.1 5.12566
12966.6 5.12284
12967.3 5.12150
12968.0 5.12029
12968.8 5.11932
12969.1 5.11900
12969.5 5.11885
12969.9 5.11896
12970.2 5.11946
12970.6 5.12050
12970.8 5.12129
12970.9 5.12232
12971.1 5.12371
12971.3 5.12536
12971.5 5.12739
12971.7 5.12988
12971.8 5.13290
12972.0 5.13652
12972.2 5.14086
12972.4 5.14600
12972.7 5.15668
12973.0 5.17053
12973.3 5.18820
12973.6 5.21042
12973.9 5.23795
12974.2 5.27157
12974.5 5.31203
12974.8 5.35825
12975.1 5.41394
12975.4 5.47797
12975.7 5.55042
12976.0 5.62822
12976.3 5.71615
12976.6 5.81065
12977.2 6.00969
12977.6 6.15149
12978.0 6.28874
12978.4 6.41419
12978.8 6.51828
12979.1 6.58790
12979.5 6.63685
12979.8 6.66366
12980.0 6.66694
12980.1 6.66475
12980.4 6.65059
12980.7 6.61092
12981.1 6.54942
12981.5 6.44470
12981.8 6.36955
12982.0 6.29091
12982.5 6.12152
12983.0 5.94679
12983.5 5.77817
12983.9 5.65961
12984.3 5.55500
12984.6 5.46254
12985.0 5.38279
12985.4 5.31394
12985.8 5.25883
12986.1 5.21436
12986.5 5.17914
12986.7 5.16418
12986.9 5.15110
12987.1 5.13969
12987.2 5.13027
12987.4 5.12164
12987.6 5.11455
12987.8 5.10808
12988.0 5.10279
12988.2 5.09797
12988.4 5.09404
12988.5 5.09046
12988.7 5.08753
12988.9 5.08486
12989.1 5.08266
12989.3 5.08064
12989.5 5.07896
12989.8 5.07622
12990.2 5.07405
12990.5 5.07219
12990.8 5.07062
12991.2 5.06918
12991.5 5.06791
12992.2 5.06555
12992.9 5.06337
12993.6 5.06130
12995.0 5.05735
12996.4 5.05353
12997.7 5.04981
12999.1 5.04613
13000.5 5.04252
13003.0 5.03585
13005.6 5.02921
13008.1 5.02256
13010.7 5.01592
13015.8 5.00248
13020.9 4.98891
13031.1 4.96115
13041.3 4.93248
13066.7 4.85629
13092.2 4.77249
13117.7 4.68006
13143.1 4.57718
13163.5 4.48612
13183.9 4.38569
13204.3 4.27437
13224.6 4.15029
13243.3 4.02320
13262.0 3.88099
13280.7 3.72075
13299.3 3.53893
13312.1 3.40007
13324.8 3.24724
13337.6 3.07844
13350.3 2.89089
13359.6 2.73974
13369.0 2.57570
13378.3 2.39746
13383.0 2.30268
13387.6 2.20429
13392.5 2.09721
13395.0 2.04261
13397.4 1.98763
13399.9 1.93306
13401.1 1.90646
13402.3 1.88109
13402.9 1.86932
13403.5 1.85873
13404.1 1.85022
13404.7 1.84545
13405.0 1.84535
13405.3 1.84743
13405.7 1.85258
13406.0 1.86139
13406.3 1.87567
13406.6 1.89595
13406.9 1.92546
13407.2 1.96443
13407.5 2.02011
13407.8 2.09375
13408.1 2.18924
13408.4 2.30662
13408.8 2.45785
13409.1 2.64410
13409.4 2.86972
13409.7 3.12941
13409.9 3.31974
13410.1 3.52852
13410.3 3.75600
13410.5 4.00213
13410.7 4.26658
13410.9 4.54863
13411.1 4.84724
13411.3 5.16095
13411.7 5.82583
13412.1 6.52367
13412.5 7.22898
13412.9 7.89508
13413.2 8.37371
13413.5 8.79391
13413.8 9.16000
13414.1 9.46086
13414.3 9.64674
13414.5 9.77700
13414.8 9.86541
13415.0 9.88855
13415.0 9.88888
13415.2 9.87395
13415.4 9.80911
13415.6 9.71878
13415.7 9.59601
13416.0 9.36446
13416.2 9.08621
13416.5 8.74578
13416.8 8.37669
13417.1 7.80621
13417.4 7.21107
13418.1 5.98008
13418.5 5.38008
13418.8 4.81000
13419.1 4.28060
13419.5 3.79931
13419.8 3.40605
13420.1 3.06800
13420.4 2.76209
13420.7 2.50627
13421.0 2.28067
13421.3 2.09649
13421.6 1.93759
13421.9 1.81037
13422.2 1.70242
13422.5 1.61713
13422.8 1.54541
13423.1 1.48899
13423.5 1.44145
13423.8 1.40373
13424.1 1.37241
13424.4 1.34607
13424.7 1.32288
13425.0 1.30339
13425.3 1.28556
13425.6 1.26999
13426.2 1.24182
13426.8 1.21659
13428.0 1.17050
13429.2 1.12749
13431.2 1.06057
13433.1 0.995045
13437.0 0.865953
13442.9 0.673888
13445.8 0.579524
13448.7 0.487123
13451.6 0.397901
13453.1 0.355000
13454.5 0.313569
13456.0 0.273891
13457.5 0.236296
13458.9 0.201156
13460.4 0.168903
13461.4 0.148150
13462.4 0.129449
13463.5 0.112807
13464.5 0.0984661
13465.5 0.0865921
13466.5 0.0777147
13467.0 0.0744522
13467.5 0.0720316
13468.1 0.0704990
13468.6 0.0699028
13469.0 0.0701103
13469.3 0.0709190
13469.9 0.0730778
13470.4 0.0765062
13471.0 0.0812773
13471.5 0.0873405
13472.0 0.0950051
13472.6 0.104070
13473.1 0.114967
13473.6 0.127386
13474.2 0.141896
13474.7 0.158388
13475.8 0.197380
13476.9 0.245600
13477.4 0.273786
13477.9 0.304161
13478.5 0.338034
13479.0 0.374321
13479.5 0.414578
13480.1 0.457506
13480.6 0.504935
13481.1 0.555327
13481.7 0.610821
13482.2 0.669610
13483.0 0.764476
13483.8 0.870091
13484.5 0.987454
13485.3 1.11767
13485.7 1.18797
13486.1 1.26196
13486.5 1.33979
13486.9 1.42167
13487.3 1.50777
13487.7 1.59831
13488.1 1.69349
13488.4 1.79091
13489.0 1.93773
13489.5 2.09198
13490.0 2.26018
13490.6 2.43685
13491.1 2.62947
13491.6 2.83177
13492.2 3.05232
13492.7 3.28398
13493.3 3.53658
13493.8 3.80195
13494.3 4.09140
13494.9 4.39558
13495.4 4.72750
13495.9 5.07649
13496.5 5.45750
13497.0 5.85832
13497.5 6.29622
13498.1 6.76621
13498.6 7.27086
13499.1 7.80254
13499.7 8.38429
13500.2 8.99773
13500.8 9.66954
13501.3 10.3786
13501.8 11.1558
13502.4 11.9770
13502.9 12.8780
13503.4 13.8307
13504.0 14.8772
13504.5 15.9849
13505.0 17.2026
13505.6 18.4927
13506.1 19.9122
13506.6 21.4172
13507.2 23.0743
13507.7 24.8322
13508.2 26.7684
13508.8 28.8230
13509.3 31.0861
13509.8 33.4870
13510.4 36.1303
13510.9 38.9870
13511.5 42.0722
13512.0 45.3369
13512.5 48.9187
13513.1 52.6981
13513.6 56.8302
13514.1 61.1720
13514.5 64.7302
13514.9 68.3717
13515.4 72.2792
13515.8 76.2612
13516.2 80.5141
13516.6 84.8257
13517.4 93.9004
13518.2 103.625
13519.0 113.756
13519.8 124.109
13520.6 134.330
13521.2 141.343
13521.7 148.010
13522.3 154.363
13522.8 160.306
13523.4 165.748
13523.9 170.603
13524.5 174.796
13525.0 178.265
13525.5 180.665
13526.0 182.427
13526.4 183.618
13526.9 184.187
13527.4 184.171
13527.9 183.590
13528.3 182.448
13528.8 180.829
13529.3 178.704
13529.8 176.209
13530.7 170.176
13531.6 163.000
13532.6 155.210
13533.5 146.979
13534.5 138.761
13535.4 130.936
13536.3 123.383
13537.2 116.195
13538.1 109.428
13539.0 103.108
13539.9 97.2401
13540.8 91.8147
13541.7 86.8646
13542.7 82.2061
13543.6 77.9694
13544.5 74.0726
13545.4 70.4871
13546.3 67.1856
13547.2 64.1426
13548.1 61.3343
13549.0 58.7391
13549.9 56.3373
13550.9 54.1112
13551.8 52.0446
13552.7 50.1232
13553.6 48.3340
13554.5 46.6654
13555.4 45.1069
13556.3 43.6490
13558.0 41.2213
13559.6 39.0550
13561.3 37.1128
13562.9 35.3740
13564.6 33.7922
13566.3 32.3572
13567.9 31.0509
13569.6 29.8646
13571.4 28.6638
13573.2 27.5751
13575.1 26.5739
13576.9 25.6601
13578.7 24.8144
13580.5 24.0383
13582.3 23.3199
13584.2 22.6533
13586.3 21.9224
13588.5 21.2527
13590.6 20.6317
13592.8 20.0598
13597.1 19.0339
13601.4 18.1436
13605.0 17.4742
13608.7 16.8739
13612.3 16.3301
13616.0 15.8380
13619.6 15.3882
13623.3 14.9780
13626.9 14.6003
13630.6 14.2535
13637.8 13.6354
13645.1 13.1023
13652.4 12.6381
13659.7 12.2304
13667.7 11.8388
13672.3 11.6326
13677.0 11.4413
13679.3 11.3509
13681.6 11.2638
13683.9 11.1800
13686.2 11.0999
13687.6 11.0532
13689.1 11.0082
13690.5 10.9656
13691.9 10.9260
13692.6 10.9080
13693.3 10.8924
13694.0 10.8802
13694.3 10.8764
13694.7 10.8748
13695.1 10.8763
13695.4 10.8820
13695.8 10.8933
13696.1 10.9124
13696.5 10.9416
13696.8 10.9843
13697.2 11.0444
13697.5 11.1267
13697.8 11.2157
13698.1 11.3273
13698.4 11.4652
13698.7 11.6336
13699.0 11.8363
13699.2 12.0774
13699.5 12.3602
13699.8 12.6875
13700.1 13.0615
13700.4 13.4827
13700.7 13.9505
13701.0 14.4625
13701.3 15.0141
13701.6 15.5990
13701.9 16.2087
13702.1 16.8110
13702.5 17.6723
13702.9 18.4815
13703.1 18.8729
13703.3 19.2418
13703.5 19.5833
13703.7 19.8781
13703.9 20.1142
13704.0 20.3104
13704.2 20.4890
13704.4 20.6273
13704.6 20.7916
13704.8 20.8551
13705.0 20.8693
13705.1 20.8549
13705.3 20.7999
13705.5 20.7168
13705.6 20.6104
13705.9 20.3414
13706.2 19.9872
13706.4 19.7502
13706.5 19.4906
13706.8 18.9320
13707.1 18.3149
13707.4 17.6576
13707.9 16.5809
13708.4 15.5156
13708.7 14.9946
13708.9 14.5161
13709.2 14.0630
13709.4 13.6382
13709.6 13.2281
13709.9 12.8670
13710.1 12.5250
13710.4 12.2293
13710.6 11.9542
13710.9 11.7202
13711.1 11.5141
13711.3 11.3337
13711.6 11.1410
13711.9 10.9857
13712.2 10.8527
13712.5 10.7471
13712.8 10.6576
13713.1 10.5871
13713.4 10.5277
13713.7 10.4808
13714.0 10.4410
13714.3 10.4093
13714.6 10.3818
13714.9 10.3594
13715.2 10.3395
13715.5 10.3227
13716.1 10.2937
13716.7 10.2693
13717.2 10.2478
13717.8 10.2280
13718.4 10.2094
13719.6 10.1747
13720.8 10.1422
13722.3 10.1023
13723.8 10.0642
13725.4 10.0276
13726.9 9.99215
13730.0 9.92411
13733.0 9.85942
13736.1 9.79716
13739.1 9.73722
13745.2 9.62362
13753.0 9.48923
13760.8 9.36484
13768.6 9.24932
13776.4 9.14147
13788.6 8.98569
13800.8 8.84483
13825.3 8.59960
13840.9 8.46458
13856.4 8.34252
13872.0 8.23187
13887.5 8.13115
13899.8 8.05802
13912.0 7.98962
13924.2 7.92553
13930.3 7.89500
13936.5 7.86544
13940.6 7.84581
13944.8 7.82664
13949.0 7.80793
13953.1 7.78974
13957.3 7.77215
13959.4 7.76362
13961.5 7.75538
13963.6 7.74741
13965.6 7.73987
13967.7 7.73286
13969.8 7.72664
13970.9 7.72377
13972.0 7.72134
13973.4 7.71922
13974.7 7.71835
13976.0 7.71942
13976.7 7.72113
13977.3 7.72411
13978.0 7.72912
13978.6 7.73765
13979.0 7.74406
13979.3 7.75260
13979.6 7.76406
13980.0 7.77949
13980.3 7.80032
13980.6 7.82842
13980.9 7.86622
13981.3 7.91682
13981.6 7.98412
13981.9 8.07287
13982.3 8.18879
13982.6 8.33856
13982.9 8.49782
13983.2 8.69202
13983.4 8.92655
13983.7 9.19612
13984.0 9.52605
13984.3 9.91246
13984.5 10.3600
13984.8 10.8530
13985.1 11.4304
13985.4 12.0760
13985.7 12.7887
13985.9 13.5365
13986.2 14.3690
13986.5 15.2511
13986.8 16.1716
13987.0 17.0825
13987.5 18.5094
13987.9 19.8602
13988.1 20.5150
13988.3 21.1331
13988.5 21.7058
13988.7 22.2014
13988.8 22.5370
13989.0 22.8388
13989.1 23.1044
13989.3 23.3317
13989.5 23.5298
13989.6 23.6723
13989.8 23.7910
13990.0 23.8376
13990.0 23.8402
13990.2 23.8222
13990.3 23.7542
13990.6 23.5597
13990.8 23.3011
13991.0 22.9823
13991.2 22.5553
13991.4 22.0555
13991.6 21.4915
13991.8 20.9014
13992.1 20.0825
13992.4 19.2461
13992.9 17.4988
13993.4 15.7217
13993.7 14.8851
13993.9 14.0860
13994.1 13.4734
13994.3 12.9206
13994.6 12.3747
13994.8 11.8891
13995.0 11.4162
13995.2 11.0012
13995.4 10.6023
13995.6 10.2567
13995.8 9.92852
13996.0 9.64763
13996.2 9.38403
13996.4 9.16091
13996.6 8.95381
13996.8 8.78036
13997.0 8.62098
13997.2 8.48878
13997.4 8.36841
13997.6 8.26943
13997.8 8.18002
13998.0 8.10703
13998.2 8.04153
13998.4 7.98835
13998.7 7.94085
13998.9 7.90243
13999.1 7.86818
13999.3 7.84050
13999.5 7.81581
13999.7 7.79580
14000.1 7.76327
14000.5 7.73974
14000.8 7.72382
14001.2 7.71103
14001.5 7.70051
14001.9 7.69166
14002.6 7.67738
14003.3 7.66601
14004.2 7.65352
14005.2 7.64317
14006.0 7.63520
14006.8 7.62803
14008.4 7.61546
14010.1 7.60458
14011.7 7.59493
14013.3 7.58607
14015.0 7.57790
14016.6 7.57018
14018.2 7.56290
14020.1 7.55493
14022.5 7.54542
14024.8 7.53629
14029.5 7.51897
14034.1 7.50252
14038.8 7.48678
14043.5 7.47158
14048.2 7.45684
14052.8 7.44246
14057.5 7.42841
14064.1 7.40923
14067.3 7.39984
14070.6 7.39062
14073.9 7.38151
14077.1 7.37259
14080.4 7.36384
14083.7 7.35531
14085.7 7.35027
14087.7 7.34540
14089.7 7.34076
14091.6 7.33652
14092.6 7.33457
14093.6 7.33284
14094.6 7.33137
14095.6 7.33030
14096.6 7.32986
14097.1 7.33004
14097.6 7.33064
14098.1 7.33190
14098.6 7.33418
14099.1 7.33824
14099.3 7.34124
14099.6 7.34498
14100.0 7.35395
14100.2 7.36022
14100.4 7.36753
14100.6 7.37692
14100.8 7.38783
14101.0 7.40173
14101.2 7.41775
14101.4 7.43803
14101.6 7.46120
14101.8 7.49028
14102.0 7.52321
14102.3 7.56415
14102.5 7.61009
14102.7 7.66372
14102.9 7.72604
14103.1 7.80196
14103.3 7.88538
14103.5 7.98590
14103.7 8.09512
14103.9 8.22521
14104.1 8.36492
14104.3 8.52935
14104.5 8.70379
14104.7 8.90656
14104.9 9.11896
14105.1 9.36267
14105.3 9.61459
14105.5 9.89974
14105.7 10.1904
14105.9 10.4989
14106.1 10.8239
14106.4 11.3034
14106.7 11.8063
14107.2 12.8516
14107.5 13.3755
14107.8 13.8860
14108.1 14.3717
14108.4 14.8059
14108.6 15.1554
14108.8 15.4515
14109.1 15.7042
14109.3 15.9089
14109.5 16.0390
14109.7 16.1279
14109.8 16.1781
14110.0 16.1993
14110.0 16.2017
14110.1 16.1940
14110.3 16.1650
14110.4 16.1106
14110.6 16.0384
14110.7 15.9460
14110.9 15.8342
14111.0 15.7037
14111.1 15.5555
14111.3 15.3405
14111.5 15.1003
14111.7 14.8377
14111.8 14.5715
14112.2 13.9613
14112.6 13.3265
14113.1 12.3367
14113.3 11.8569
14113.6 11.3904
14113.9 10.9263
14114.1 10.5041
14114.4 10.1096
14114.7 9.74547
14114.9 9.40091
14115.2 9.10201
14115.4 8.83507
14115.7 8.59907
14116.0 8.38508
14116.2 8.20693
14116.5 8.05389
14116.8 7.92357
14117.1 7.79823
14117.4 7.69616
14117.7 7.61386
14118.0 7.54806
14118.3 7.49587
14118.6 7.45472
14118.9 7.42244
14119.2 7.39718
14119.5 7.37742
14119.8 7.36193
14120.1 7.34935
14120.4 7.33971
14120.7 7.33195
14121.0 7.32561
14121.5 7.31629
14122.1 7.30940
14122.7 7.30377
14123.2 7.29910
14124.4 7.29128
14125.5 7.28482
14126.6 7.27916
14127.7 7.27414
14128.9 7.26953
14130.0 7.26530
14132.2 7.25755
14134.5 7.25051
14136.7 7.24396
14139.0 7.23778
14141.4 7.23149
14143.8 7.22545
14146.3 7.21922
14148.9 7.21318
14154.0 7.20151
14159.1 7.19025
14164.2 7.17936
14169.3 7.16877
14174.4 7.15843
14184.6 7.13834
14194.8 7.11899
14205.0 7.10029
14225.4 7.06465
14251.9 7.02152
14278.3 6.98137
14304.7 6.94381
14331.1 6.90857
14381.6 6.84690
14432.0 6.79145
14482.4 6.74120
14532.9 6.69530
14619.3 6.62518
14705.8 6.56349
14792.3 6.50841
14878.7 6.45868
14955.6 6.41818
15032.4 6.38050
15080.5 6.35818
15128.5 6.33665
15152.5 6.32617
15176.6 6.31585
15200.6 6.30567
15224.6 6.29563
15234.2 6.29165
15243.8 6.28768
15253.4 6.28372
15263.0 6.27978
15272.6 6.27585
15277.4 6.27388
15282.2 6.27192
15287.1 6.26996
15291.9 6.26800
15296.7 6.26605
15301.5 6.26412
15304.3 6.26298
15307.2 6.26186
15310.0 6.26076
15312.9 6.25971
15315.7 6.25872
15317.2 6.25827
15318.6 6.25787
15320.0 6.25753
15321.4 6.25728
15322.9 6.25716
15324.3 6.25725
15325.4 6.25757
15326.5 6.25830
15327.1 6.25898
15327.7 6.26001
15328.2 6.26167
15328.5 6.26288
15328.8 6.26444
15329.1 6.26655
15329.3 6.26922
15329.6 6.27270
15329.9 6.27724
15330.2 6.28312
15330.5 6.29075
15330.7 6.30056
15331.0 6.31314
15331.3 6.32977
15331.6 6.35014
15331.9 6.37567
15332.2 6.40740
15332.4 6.44649
15332.7 6.49423
15333.0 6.55199
15333.3 6.62121
15333.5 6.70018
15333.8 6.78876
15334.1 6.89075
15334.3 7.00708
15334.6 7.14391
15334.9 7.29166
15335.1 7.45532
15335.4 7.63478
15335.6 7.83727
15335.9 8.04675
15336.2 8.26892
15336.4 8.50177
15337.5 9.49163
15337.8 9.81996
15338.2 10.1245
15338.6 10.3939
15338.7 10.5120
15338.9 10.6120
15339.2 10.7579
15339.5 10.8614
15339.8 10.9169
15339.9 10.9303
15340.0 10.9318
15340.1 10.9278
15340.3 10.9059
15340.5 10.8652
15340.7 10.8062
15341.0 10.6776
15341.3 10.5091
15341.6 10.3057
15341.9 10.0732
15342.2 9.84421
15342.5 9.60157
15343.0 9.10400
15343.5 8.59728
15343.8 8.35365
15344.1 8.12907
15344.4 7.85383
15344.7 7.60965
15345.1 7.38379
15345.4 7.19032
15345.7 7.01724
15346.1 6.87366
15346.4 6.75246
15346.7 6.65159
15347.1 6.56651
15347.4 6.49982
15347.7 6.44501
15348.1 6.40308
15348.4 6.36940
15348.7 6.34416
15349.1 6.32475
15349.4 6.30991
15349.6 6.30303
15349.8 6.29716
15350.0 6.29215
15350.2 6.28786
15350.5 6.28106
15350.9 6.27604
15351.3 6.27228
15351.7 6.26940
15352.1 6.26714
15352.4 6.26537
15353.2 6.26255
15353.9 6.26041
15354.7 6.25867
15355.5 6.25721
15357.0 6.25476
15358.5 6.25277
15360.0 6.25110
15361.5 6.24964
15363.7 6.24778
15366.0 6.24614
15368.2 6.24467
15370.4 6.24332
15372.6 6.24206
15374.9 6.24087
15379.3 6.23863
15383.8 6.23653
15388.2 6.23454
15392.7 6.23261
15397.1 6.23073
15404.3 6.22780
15411.4 6.22494
15418.5 6.22212
15425.6 6.21936
15432.8 6.21661
15439.9 6.21389
15454.1 6.20852
15476.9 6.20004
15499.7 6.19167
15516.8 6.18545
15533.9 6.17927
15551.0 6.17312
15568.1 6.16699
15579.5 6.16291
15590.9 6.15884
15602.3 6.15476
15613.7 6.15069
15625.1 6.14660
15630.8 6.14455
15636.5 6.14250
15642.2 6.14045
15647.9 6.13840
15653.6 6.13635
15659.3 6.13432
15662.7 6.13312
15666.0 6.13195
15669.4 6.13081
15672.8 6.12974
15676.2 6.12876
15677.9 6.12834
15679.6 6.12798
15681.3 6.12771
15683.0 6.12756
15684.6 6.12759
15686.3 6.12790
15687.7 6.12845
15689.0 6.12940
15690.4 6.13103
15691.0 6.13227
15691.7 6.13398
15692.4 6.13654
15693.0 6.14059
15693.4 6.14360
15693.7 6.14744
15694.0 6.15253
15694.4 6.15931
15694.7 6.16871
15695.0 6.18096
15695.4 6.19789
15695.7 6.21982
15696.0 6.24981
15696.4 6.28811
15696.7 6.33784
15697.0 6.40180
15697.3 6.48039
15697.7 6.57516
15698.0 6.69146
15698.3 6.83260
15698.6 7.00190
15698.9 7.20256
15699.2 7.43747
15699.5 7.70897
15699.8 8.02930
15700.1 8.37900
15700.5 8.76678
15700.8 9.19048
15701.1 9.64635
15701.4 10.1289
15701.7 10.6310
15702.0 11.1438
15702.4 11.8535
15702.9 12.5180
15703.1 12.8299
15703.3 13.1232
15703.5 13.3940
15703.7 13.6389
15703.9 13.8255
15704.1 13.9887
15704.2 14.1268
15704.4 14.2328
15704.6 14.3059
15704.7 14.3563
15704.9 14.3966
15705.0 14.4052
15705.2 14.3966
15705.3 14.3641
15705.5 14.3004
15705.7 14.2143
15705.9 14.0818
15706.1 13.9262
15706.3 13.7331
15706.5 13.5240
15706.7 13.2019
15707.0 12.8442
15707.2 12.4580
15707.5 12.0506
15708.5 10.3662
15708.9 9.70903
15709.2 9.39735
15709.4 9.09945
15709.6 8.81680
15709.8 8.55047
15710.0 8.30121
15710.2 8.06945
15710.4 7.85534
15710.6 7.65875
15710.8 7.47935
15711.0 7.31659
15711.3 7.16978
15711.5 7.03810
15711.7 6.92063
15711.9 6.81639
15712.2 6.69624
15712.4 6.59868
15712.7 6.51416
15713.0 6.44662
15713.3 6.38896
15713.5 6.34352
15713.8 6.30521
15714.1 6.27534
15714.4 6.25038
15714.6 6.23107
15714.9 6.21500
15715.2 6.20258
15715.5 6.19224
15715.7 6.18420
15716.0 6.17745
15716.3 6.17213
15716.6 6.16758
15716.8 6.16392
15717.4 6.15808
15717.9 6.15369
15718.5 6.15023
15719.6 6.14493
15720.7 6.14093
15722.0 6.13704
15723.4 6.13392
15724.8 6.13135
15726.1 6.12916
15727.5 6.12727
15728.8 6.12560
15731.6 6.12278
15734.3 6.12041
15737.0 6.11838
15739.7 6.11657
15742.4 6.11493
15746.3 6.11278
15750.2 6.11081
15754.1 6.10897
15757.9 6.10723
15761.8 6.10556
15765.7 6.10395
15773.5 6.10086
15781.2 6.09788
15789.0 6.09498
15796.8 6.09214
15804.5 6.08935
15812.8 6.08641
15821.1 6.08350
15837.6 6.07775
15854.2 6.07206
15870.7 6.06642
15908.0 6.05382
15945.3 6.04130
15982.5 6.02880
16019.8 6.01630
16094.3 5.99122
16168.8 5.96590
16259.9 5.93437
16350.9 5.90196
16442.0 5.86837
16533.1 5.83327
16570.3 5.81837
16607.6 5.80309
16644.9 5.78746
16663.5 5.77946
16682.1 5.77134
16689.1 5.76826
16696.1 5.76517
16703.1 5.76205
16710.0 5.75891
16717.0 5.75575
16720.5 5.75416
16724.0 5.75257
16727.5 5.75098
16731.0 5.74939
16734.5 5.74780
16738.0 5.74624
16740.1 5.74533
16742.1 5.74444
16744.2 5.74359
16746.3 5.74280
16747.3 5.74245
16748.3 5.74214
16749.4 5.74189
16750.4 5.74174
16750.9 5.74173
16751.4 5.74179
16752.0 5.74197
16752.5 5.74234
16753.0 5.74303
16753.3 5.74355
16753.5 5.74424
16753.8 5.74515
16754.0 5.74632
16754.3 5.74785
16754.5 5.74972
16754.8 5.75167
16755.0 5.75392
16755.2 5.75662
16755.4 5.75985
16755.6 5.76390
16755.8 5.76850
16756.0 5.77393
16756.2 5.78031
16756.4 5.78820
16756.6 5.79700
16756.8 5.80723
16757.0 5.81905
16757.2 5.83340
16757.4 5.84912
16757.8 5.88742
16758.2 5.93772
16758.6 5.99937
16759.0 6.07716
16759.4 6.16866
16759.8 6.27929
16760.2 6.40379
16760.6 6.54386
16761.0 6.69770
16761.6 6.94322
16762.2 7.19388
16762.8 7.43637
16763.1 7.54846
16763.3 7.65109
16763.6 7.73015
16763.8 7.79643
16764.1 7.85217
16764.3 7.89638
16764.5 7.92722
16764.8 7.94568
16764.9 7.95236
16765.0 7.95317
16765.1 7.95167
16765.4 7.93948
16765.6 7.90849
16765.9 7.86050
16766.2 7.80422
16766.4 7.73932
16766.9 7.58212
16767.2 7.46515
16767.5 7.34375
16768.1 7.08788
16768.7 6.82757
16769.3 6.58871
16769.7 6.46222
16770.0 6.35025
16770.3 6.24979
16770.7 6.16111
16771.0 6.08192
16771.4 6.01621
16771.7 5.96074
16772.1 5.91457
16772.4 5.87564
16772.7 5.84507
16773.1 5.82057
16773.4 5.80116
16773.8 5.78594
16774.1 5.77411
16774.4 5.76500
16774.8 5.75801
16775.0 5.75380
16775.3 5.75050
16775.5 5.74779
16775.8 5.74557
16776.1 5.74367
16776.3 5.74216
16776.6 5.74090
16776.8 5.73984
16777.3 5.73814
16777.8 5.73688
16778.3 5.73587
16778.8 5.73502
16779.8 5.73362
16780.8 5.73246
16781.8 5.73144
16782.8 5.73051
16784.9 5.72885
16786.9 5.72738
16788.9 5.72603
16790.9 5.72476
16792.7 5.72368
16794.4 5.72264
16798.0 5.72064
16801.5 5.71871
16805.1 5.71682
16808.6 5.71496
16812.1 5.71312
16819.2 5.70948
16826.3 5.70587
16833.4 5.70227
16840.5 5.69867
16847.6 5.69505
16868.2 5.68445
16888.8 5.67368
16922.3 5.65570
16939.0 5.64647
16955.8 5.63708
16972.5 5.62750
16989.2 5.61772
16997.6 5.61275
17006.0 5.60773
17014.4 5.60265
17022.7 5.59751
17028.2 5.59412
17033.7 5.59070
17039.2 5.58726
17044.6 5.58380
17050.1 5.58033
17052.9 5.57860
17055.6 5.57687
17058.3 5.57515
17061.1 5.57345
17063.8 5.57179
17066.5 5.57019
17068.8 5.56893
17071.0 5.56777
17073.3 5.56677
17074.4 5.56636
17075.5 5.56604
17076.7 5.56584
17077.8 5.56579
17078.9 5.56599
17080.1 5.56656
17080.6 5.56708
17081.2 5.56784
17081.7 5.56899
17082.3 5.57078
17082.9 5.57367
17083.2 5.57570
17083.4 5.57830
17083.7 5.58162
17084.0 5.58588
17084.3 5.59133
17084.6 5.59830
17084.9 5.61130
17085.3 5.62885
17085.7 5.65282
17086.1 5.68524
17086.5 5.72985
17086.9 5.78732
17087.2 5.86197
17087.6 5.95749
17088.0 6.08135
17088.4 6.23131
17088.8 6.41398
17089.1 6.63267
17089.5 6.89707
17089.9 7.19476
17090.3 7.53144
17090.7 7.90447
17091.0 8.25419
17091.3 8.61157
17092.0 9.35699
17092.3 9.74235
17092.6 10.1055
17092.9 10.4494
17093.3 10.7652
17093.5 10.9950
17093.8 11.1962
17094.0 11.3648
17094.3 11.4976
17094.5 11.5703
17094.7 11.6217
17094.9 11.6521
17095.0 11.6586
17095.1 11.6532
17095.3 11.6262
17095.6 11.5710
17095.8 11.4941
17096.0 11.3603
17096.3 11.1909
17096.5 10.9891
17096.8 10.7591
17097.1 10.4123
17097.5 10.0444
17097.8 9.64532
17098.2 9.24843
17098.5 8.84078
17098.9 8.45455
17099.2 8.08535
17099.5 7.73900
17099.9 7.42876
17100.2 7.14663
17100.5 6.89389
17100.9 6.67074
17101.1 6.50967
17101.4 6.37210
17101.7 6.25080
17101.9 6.14469
17102.2 6.05257
17102.4 5.97317
17102.7 5.90524
17103.0 5.84750
17103.2 5.79875
17103.5 5.75784
17103.7 5.72371
17104.0 5.69538
17104.3 5.67197
17104.5 5.65271
17104.8 5.63692
17105.0 5.62400
17105.3 5.61344
17105.6 5.60481
17105.8 5.59775
17106.1 5.59197
17106.3 5.58720
17106.6 5.58325
17107.1 5.57717
17107.6 5.57277
17108.2 5.56943
17108.7 5.56678
17109.2 5.56457
17110.0 5.56185
17110.7 5.55956
17112.3 5.55578
17113.8 5.55269
17115.3 5.55007
17116.9 5.54775
17118.4 5.54567
17120.0 5.54376
17121.5 5.54199
17124.6 5.53873
17127.6 5.53573
17130.7 5.53291
17133.8 5.53022
17136.6 5.52778
17139.5 5.52542
17145.2 5.52081
17150.9 5.51628
17156.6 5.51182
17162.3 5.50737
17168.0 5.50294
17179.4 5.49406
17193.4 5.48303
17207.5 5.47184
17223.3 5.45899
17239.1 5.44587
17247.0 5.43920
17254.9 5.43245
17262.8 5.42565
17270.7 5.41882
17274.4 5.41560
17278.1 5.41239
17281.9 5.40921
17285.6 5.40610
17289.3 5.40311
17291.2 5.40167
17293.1 5.40031
17294.9 5.39905
17296.8 5.39793
17298.7 5.39701
17300.5 5.39639
17302.1 5.39623
17303.6 5.39656
17304.4 5.39701
17305.1 5.39775
17305.9 5.39893
17306.7 5.40080
17307.4 5.40401
17307.8 5.40647
17308.2 5.40971
17308.6 5.41424
17309.0 5.42027
17309.3 5.42851
17309.7 5.43976
17310.1 5.45552
17310.5 5.47635
17310.9 5.50512
17311.3 5.54245
17311.7 5.59288
17312.0 5.65673
17312.4 5.73831
17312.8 5.84104
17313.1 5.92884
17313.3 6.02633
17313.6 6.13762
17313.8 6.26365
17314.1 6.40525
17314.4 6.56302
17314.6 6.73735
17314.9 6.92829
17315.1 7.13555
17315.4 7.35846
17315.9 7.84629
17316.4 8.37730
17317.0 8.92970
17317.4 9.39308
17317.8 9.83205
17318.3 10.2261
17318.5 10.4000
17318.7 10.5553
17319.1 10.7787
17319.3 10.8610
17319.5 10.9247
17319.8 10.9859
17320.0 10.9991
17320.2 10.9867
17320.5 10.9239
17320.9 10.7821
17321.3 10.5732
17321.5 10.4056
17321.8 10.2158
17322.0 10.0070
17322.2 9.78219
17322.7 9.29819
17323.2 8.80094
17323.7 8.25208
17324.2 7.73994
17324.7 7.27281
17325.0 7.05615
17325.2 6.86279
17325.5 6.67778
17325.7 6.51548
17326.0 6.36274
17326.3 6.23090
17326.5 6.10875
17326.8 6.00490
17327.0 5.91009
17327.3 5.83061
17327.7 5.72246
17328.1 5.63984
17328.5 5.57449
17328.9 5.52596
17329.2 5.49921
17329.4 5.47803
17329.7 5.46064
17330.0 5.44640
17330.2 5.43513
17330.5 5.42584
17330.8 5.41817
17331.0 5.41205
17331.3 5.40674
17331.5 5.40245
17332.0 5.39561
17332.5 5.39057
17333.1 5.38670
17333.6 5.38359
17334.1 5.38101
17335.1 5.37681
17336.1 5.37342
17337.1 5.37053
17338.2 5.36799
17340.2 5.36362
17342.2 5.35987
17344.3 5.35652
17346.3 5.35345
17349.6 5.34892
17352.9 5.34470
17356.1 5.34069
17359.4 5.33683
17361.7 5.33416
17364.0 5.33156
17366.3 5.32904
17368.6 5.32664
17371.0 5.32440
17372.1 5.32338
17373.3 5.32248
17374.4 5.32174
17375.6 5.32129
17376.2 5.32126
17376.7 5.32147
17377.3 5.32207
17377.9 5.32331
17378.4 5.32517
17378.9 5.32821
17379.1 5.33035
17379.3 5.33304
17379.6 5.33639
17379.8 5.34036
17380.0 5.34545
17380.3 5.35171
17380.5 5.35936
17380.8 5.36823
17381.0 5.37939
17381.2 5.39280
17381.5 5.40885
17381.7 5.42706
17381.9 5.44945
17382.2 5.47575
17382.4 5.50648
17382.7 5.54054
17382.9 5.58141
17383.1 5.62826
17383.6 5.73921
17384.1 5.88174
17384.6 6.05248
17385.0 6.25969
17385.5 6.49357
17385.8 6.67416
17386.2 6.85996
17386.8 7.25820
17387.5 7.65923
17387.8 7.85244
17388.1 8.02676
17388.4 8.16044
17388.6 8.27905
17388.9 8.38019
17389.2 8.46176
17389.4 8.52020
17389.7 8.55666
17389.9 8.57284
17390.0 8.57403
17390.2 8.56977
17390.5 8.54086
17390.9 8.45506
17391.3 8.32069
17391.5 8.22202
17391.8 8.11053
17392.2 7.86187
17392.7 7.57904
17393.2 7.28865
17394.0 6.82512
17394.2 6.68098
17394.7 6.40763
17395.2 6.16760
17395.7 5.96423
17396.2 5.79760
17396.8 5.66529
17397.0 5.61180
17397.3 5.56504
17397.5 5.52294
17397.8 5.48812
17398.0 5.45717
17398.3 5.43187
17398.5 5.40963
17398.8 5.39165
17399.0 5.37655
17399.3 5.36390
17399.5 5.35297
17399.8 5.34425
17400.1 5.33674
17400.3 5.33076
17400.6 5.32560
17400.8 5.32149
17401.1 5.31804
17401.3 5.31514
17401.6 5.31259
17401.8 5.31051
17402.3 5.30714
17402.8 5.30449
17403.3 5.30237
17404.3 5.29916
17405.2 5.29654
17406.2 5.29426
17407.1 5.29220
17409.0 5.28850
17410.9 5.28519
17412.8 5.28211
17414.7 5.27920
17416.6 5.27642
17418.5 5.27372
17422.6 5.26814
17426.6 5.26271
17430.7 5.25738
17434.8 5.25208
17438.8 5.24680
17444.9 5.23887
17451.0 5.23090
17463.1 5.21477
17471.2 5.20381
17479.4 5.19267
17487.5 5.18134
17491.5 5.17562
17495.6 5.16986
17497.6 5.16698
17499.6 5.16410
17501.7 5.16125
17503.7 5.15847
17504.7 5.15712
17505.7 5.15585
17506.2 5.15526
17506.7 5.15474
17507.2 5.15431
17507.7 5.15405
17508.2 5.15405
17508.5 5.15421
17508.8 5.15448
17509.0 5.15494
17509.3 5.15559
17509.5 5.15649
17509.8 5.15770
17510.0 5.15937
17510.3 5.16143
17510.5 5.16406
17510.8 5.16735
17511.0 5.17161
17511.3 5.17667
17511.5 5.18282
17511.8 5.19024
17512.1 5.20150
17512.4 5.21490
17512.7 5.23114
17513.0 5.25061
17513.3 5.27369
17513.6 5.30075
17513.9 5.33210
17514.2 5.36803
17514.8 5.45588
17515.4 5.56153
17516.0 5.68403
17516.6 5.81837
17517.6 6.04845
17518.1 6.15323
17518.6 6.23970
17519.0 6.29550
17519.5 6.33224
17519.8 6.34879
17520.0 6.35091
17520.2 6.34909
17520.5 6.33622
17520.8 6.31043
17521.2 6.27275
17521.7 6.19746
17522.2 6.08275
17522.8 5.95156
17523.4 5.81452
17524.0 5.68118
17524.4 5.59880
17524.8 5.52472
17525.2 5.45772
17525.5 5.39830
17525.9 5.34658
17526.3 5.30236
17526.7 5.26518
17527.1 5.23443
17527.5 5.20879
17527.8 5.18879
17528.2 5.17293
17528.6 5.16050
17529.0 5.15084
17529.4 5.14339
17529.7 5.13766
17530.1 5.13326
17530.5 5.12977
17530.9 5.12711
17531.3 5.12500
17531.6 5.12328
17532.0 5.12181
17532.4 5.12058
17532.8 5.11948
17533.2 5.11849
17533.9 5.11669
17534.7 5.11506
17536.2 5.11204
17537.8 5.10916
17539.3 5.10638
17542.3 5.10099
17546.2 5.09428
17550.1 5.08762
17554.0 5.08097
17557.9 5.07430
17565.7 5.06084
17573.4 5.04715
17585.6 5.02506
17597.9 5.00220
17622.3 4.95392
17646.7 4.90180
17658.9 4.87413
17671.2 4.84535
17681.2 4.82090
17691.1 4.79567
17701.1 4.76960
17711.1 4.74280
17721.1 4.71531
17731.1 4.68741
17736.1 4.67342
17741.1 4.65958
17746.1 4.64599
17751.1 4.63297
17755.6 4.62216
17760.0 4.61260
17764.4 4.60502
17768.9 4.60061
17771.2 4.60033
17773.6 4.60220
17776.0 4.60706
17778.3 4.61613
17780.7 4.63135
17783.0 4.65599
17784.2 4.67352
17785.4 4.69594
17786.6 4.72481
17787.8 4.76251
17788.7 4.80311
17789.7 4.85508
17790.7 4.92431
17791.6 5.02090
17792.1 5.08571
17792.6 5.16443
17793.1 5.26597
17793.6 5.39386
17794.1 5.56438
17794.3 5.66702
17794.6 5.78508
17794.8 5.92722
17795.0 6.08504
17795.3 6.26712
17795.5 6.47715
17795.8 6.70845
17796.0 6.97316
17796.2 7.27562
17796.4 7.60457
17796.7 7.99473
17796.9 8.41698
17797.1 8.91500
17797.3 9.45064
17797.6 10.0781
17797.8 10.7481
17798.0 11.5269
17798.2 12.3516
17798.5 13.3019
17798.7 14.2991
17798.9 15.4373
17799.1 16.6199
17799.4 18.0767
17799.6 19.5884
17799.9 21.2093
17800.1 22.9355
17800.4 24.8392
17800.6 26.7594
17800.8 28.7592
17801.1 30.8255
17801.7 36.7131
17802.1 39.6727
17802.4 42.5636
17802.8 45.8028
17803.2 48.6756
17803.4 50.3010
17803.6 51.7523
17803.8 52.8133
17804.0 53.6857
17804.2 54.4175
17804.4 54.9748
17804.7 55.5202
17804.9 55.7863
17805.0 55.8227
17805.0 55.8235
17805.1 55.8152
17805.1 55.7909
17805.3 55.6941
17805.5 55.3099
17805.7 54.7084
17806.0 53.9272
17806.2 52.9067
17806.4 51.6919
17806.6 50.2996
17806.9 48.8190
17807.1 47.2865
17807.3 45.6540
17807.7 42.1567
17808.8 32.5692
17809.2 28.5994
17809.5 26.7017
17809.7 24.9554
17809.9 23.2109
17810.1 21.6265
17810.4 20.0633
17810.6 18.6605
17810.8 17.4075
17811.0 16.2386
17811.2 15.1533
17811.4 14.1960
17811.6 13.2687
17811.8 12.4185
17812.1 11.6420
17812.3 10.9675
17812.5 10.3238
17812.7 9.74189
17812.9 9.21762
17813.1 8.76790
17813.3 8.34364
17813.5 7.96437
17813.7 7.62606
17813.9 7.33839
17814.1 7.08121
17814.3 6.85155
17814.5 6.64663
17814.7 6.47252
17814.9 6.30864
17815.1 6.16249
17815.5 5.92120
17815.9 5.72284
17816.3 5.56687
17816.7 5.43963
17817.1 5.33473
17817.5 5.24516
17817.9 5.17152
17818.6 5.05383
17819.4 4.96247
17820.2 4.89050
17821.1 4.82166
17822.0 4.76577
17822.9 4.71878
17823.9 4.67861
17825.7 4.61318
17827.5 4.56176
17829.3 4.51972
17831.1 4.48472
17833.0 4.45466
17834.8 4.42828
17837.3 4.39655
17839.8 4.36865
17842.2 4.34335
17844.7 4.32016
17849.7 4.27787
17854.7 4.23916
17859.6 4.20242
17864.6 4.16675
17869.6 4.13160
17874.5 4.09657
17885.2 4.02086
17895.8 3.94248
17906.4 3.86005
17917.0 3.77250
17931.5 3.64195
17946.1 3.49730
17960.7 3.33563
17975.3 3.15359
17987.2 2.98635
17999.1 2.79973
18005.1 2.69805
18011.1 2.59051
18017.0 2.47624
18023.0 2.35479
18030.3 2.19559
18037.6 2.02368
18044.9 1.83798
18048.5 1.73980
18052.1 1.63784
18056.1 1.52200
18060.1 1.40157
18064.1 1.27667
18068.0 1.14787
18072.0 1.01498
18076.0 0.879433
18083.9 0.604901
18086.2 0.528759
18088.4 0.454271
18090.7 0.382319
18092.9 0.314338
18095.1 0.251181
18096.3 0.222082
18097.4 0.195214
18098.5 0.170388
18099.6 0.148195
18100.7 0.129019
18101.8 0.113423
18102.9 0.101968
18103.5 0.0977752
18104.0 0.0946955
18104.5 0.0928029
18105.1 0.0921757
18105.6 0.0928967
18106.2 0.0950542
18106.7 0.0987419
18107.2 0.104060
18107.8 0.111113
18108.3 0.119834
18108.8 0.130670
18109.4 0.143602
18109.9 0.158768
18110.5 0.175966
18111.4 0.211710
18112.3 0.255141
18113.2 0.307531
18114.1 0.369921
18115.0 0.443479
18115.9 0.529524
18116.8 0.629541
18117.3 0.685941
18117.7 0.745209
18118.2 0.810228
18118.7 0.879997
18119.1 0.954802
18119.6 1.03315
18120.0 1.11884
18120.5 1.20848
18120.9 1.30642
18121.4 1.40878
18121.9 1.52053
18122.3 1.63724
18122.8 1.76458
18123.2 1.89750
18123.7 2.04247
18124.1 2.19374
18124.6 2.35868
18125.0 2.53077
18125.5 2.71838
18125.9 2.91411
18126.4 3.12750
18126.9 3.35013
18127.3 3.59288
18127.8 3.84618
18128.2 4.12242
18128.7 4.41075
18129.1 4.72527
18129.6 5.06119
18130.1 5.42005
18130.5 5.79487
18131.0 6.20405
18131.4 6.63163
18131.9 7.09861
18132.3 7.58682
18132.8 8.12028
18133.2 8.67825
18133.7 9.28824
18134.1 9.92657
18134.6 10.6247
18135.1 11.3556
18135.5 12.1554
18136.0 12.9930
18136.4 13.9097
18136.9 14.8701
18137.3 15.9214
18137.8 17.0228
18138.2 18.2284
18138.7 19.4913
18139.2 20.8732
18139.6 22.3200
18140.1 23.9021
18140.5 25.5950
18141.0 27.4052
18141.4 29.2959
18141.9 31.3573
18142.3 33.5059
18142.8 35.8429
18143.3 38.2718
18143.9 41.7971
18144.5 45.5329
18145.1 49.5389
18145.7 53.8139
18146.3 58.3514
18146.9 63.1378
18147.5 68.1517
18148.1 73.3631
18148.9 81.1885
18149.8 89.1915
18150.7 97.1801
18151.5 104.845
18152.4 112.125
18153.3 118.687
18153.7 121.660
18154.1 124.305
18154.6 126.673
18155.0 128.745
18155.5 130.689
18156.0 132.203
18156.4 133.341
18156.9 134.055
18157.4 134.378
18157.9 134.305
18158.3 133.850
18158.8 133.050
18159.3 131.895
18159.8 130.460
18160.7 126.804
18161.6 122.253
18162.6 117.149
18163.5 111.619
18164.5 105.980
18165.4 100.456
18166.3 95.1048
18167.2 89.8926
18168.1 84.9883
18169.1 80.3173
18170.0 75.9963
18170.9 71.9749
18171.8 68.2463
18172.7 64.7614
18173.6 61.5459
18174.5 58.5810
18175.5 55.8760
18176.4 53.3526
18177.3 51.0236
18178.2 48.8718
18179.1 46.9022
18180.0 45.0570
18181.0 43.3456
18181.9 41.7557
18182.8 40.2922
18183.7 38.9132
18184.6 37.6399
18185.5 36.4365
18186.5 35.3221
18188.1 33.4528
18189.8 31.7827
18191.5 30.2837
18193.1 28.9401
18194.8 27.7166
18196.5 26.6052
18198.1 25.5924
18199.8 24.6716
18201.6 23.7391
18203.5 22.8926
18205.3 22.1132
18207.1 21.4011
18209.0 20.7414
18210.8 20.1352
18212.6 19.5706
18214.5 19.0492
18216.6 18.4773
18218.8 17.9504
18221.0 17.4635
18223.1 17.0146
18227.5 16.2061
18231.8 15.5034
18235.5 14.9749
18239.2 14.4991
18242.8 14.0685
18246.5 13.6773
18250.2 13.3204
18253.8 12.9934
18261.2 12.4166
18268.5 11.9227
18275.8 11.4957
18283.2 11.1231
18290.5 10.7956
18297.2 10.5299
18303.8 10.2909
18309.5 10.1055
18312.4 10.0183
18315.2 9.93503
18318.0 9.85514
18319.4 9.81669
18320.9 9.77973
18321.6 9.76174
18322.3 9.74437
18323.0 9.72802
18323.7 9.71338
18324.1 9.70702
18324.4 9.70185
18324.8 9.69792
18325.1 9.69592
18325.5 9.69633
18325.8 9.69989
18326.2 9.70749
18326.5 9.72026
18326.8 9.73329
18327.0 9.75023
18327.3 9.77170
18327.5 9.79842
18327.8 9.83114
18328.0 9.87069
18328.3 9.91792
18328.5 9.97374
18328.8 10.0391
18329.0 10.1148
18329.3 10.2018
18329.5 10.3009
18329.8 10.4129
18330.0 10.5383
18330.3 10.6776
18330.5 10.8311
18330.9 11.1060
18331.3 11.4157
18331.7 11.7568
18332.1 12.1141
18332.5 12.4982
18332.9 12.8901
18333.3 13.2779
18333.7 13.6395
18334.0 13.9312
18334.4 14.1851
18334.7 14.4028
18335.0 14.5779
18335.3 14.6822
18335.6 14.7545
18335.8 14.7916
18336.0 14.8002
18336.0 14.8001
18336.1 14.7929
18336.4 14.7624
18336.6 14.7011
18336.8 14.6118
18337.2 14.4460
18337.5 14.2349
18337.8 13.9844
18338.2 13.7015
18338.5 13.3551
18338.9 12.9884
18339.6 12.2465
18340.0 11.8798
18340.4 11.5298
18340.7 11.2025
18341.1 10.9098
18341.4 10.7014
18341.7 10.5171
18341.9 10.3491
18342.2 10.1973
18342.5 10.0612
18342.7 9.94012
18343.0 9.83313
18343.3 9.73922
18343.6 9.65448
18343.8 9.58378
18344.1 9.52276
18344.4 9.47030
18344.6 9.42535
18344.9 9.38692
18345.2 9.35410
18345.4 9.32606
18345.7 9.30124
18346.0 9.28074
18346.3 9.26305
18346.5 9.24767
18346.8 9.23418
18347.1 9.22225
18347.3 9.21157
18347.6 9.20190
18347.9 9.19273
18348.2 9.18456
18348.7 9.16965
18349.2 9.15610
18349.8 9.14343
18350.6 9.12524
18351.4 9.10807
18353.0 9.07500
18354.7 9.04327
18356.3 9.01274
18359.5 8.95386
18362.8 8.89760
18366.1 8.84341
18369.3 8.79137
18375.8 8.69257
18387.0 8.53731
18398.1 8.39740
18409.3 8.27030
18420.4 8.15448
18432.2 8.04265
18438.1 7.99038
18444.0 7.94044
18449.9 7.89260
18455.8 7.84690
18458.7 7.82483
18461.6 7.80343
18464.6 7.78273
18467.5 7.76287
18469.4 7.75083
18471.2 7.73932
18473.1 7.72850
18475.0 7.71867
18476.4 7.71178
18477.9 7.70622
18479.4 7.70269
18480.1 7.70219
18480.8 7.70310
18481.6 7.70638
18482.3 7.71365
18482.7 7.71981
18483.1 7.72844
18483.4 7.74040
18483.8 7.75632
18484.2 7.77857
18484.5 7.80870
18484.9 7.84918
18485.3 7.90142
18485.6 7.97199
18486.0 8.06413
18486.4 8.18311
18486.7 8.33036
18487.0 8.48678
18487.3 8.67505
18487.7 8.89955
18488.0 9.16467
18488.3 9.47466
18488.6 9.83341
18488.9 10.2442
18489.2 10.7096
18489.5 11.2308
18489.8 11.8078
18490.1 12.4390
18490.4 13.1209
18490.8 13.8480
18491.1 14.6127
18491.7 16.2141
18492.2 17.4410
18492.6 18.5971
18492.9 19.1648
18493.1 19.6767
18493.3 20.1506
18493.5 20.5801
18493.7 20.8815
18493.9 21.1355
18494.1 21.3698
18494.2 21.5567
18494.4 21.7085
18494.6 21.8183
18494.8 21.9155
18495.0 21.9472
18495.0 21.9491
18495.1 21.9456
18495.2 21.9336
18495.4 21.8758
18495.6 21.7026
18495.9 21.4427
18496.2 21.1112
18496.3 20.8543
18496.5 20.5855
18496.8 19.9770
18497.1 19.2873
18497.5 18.5340
18497.9 17.4788
18498.3 16.3853
18498.7 15.2914
18499.1 14.2550
18499.5 13.2521
18500.0 12.3500
18500.2 11.9218
18500.4 11.5180
18500.6 11.1393
18500.8 10.8024
18501.1 10.3548
18501.4 9.95482
18501.7 9.60069
18501.9 9.28993
18502.2 9.01955
18502.5 8.78622
18502.8 8.58642
18503.1 8.41658
18503.4 8.27321
18503.7 8.15294
18504.0 8.05263
18504.3 7.96937
18504.6 7.90056
18504.8 7.84386
18505.1 7.79723
18505.4 7.76012
18505.7 7.72840
18506.0 7.70224
18506.3 7.68060
18506.6 7.66257
18506.9 7.64745
18507.2 7.63464
18507.7 7.61418
18508.3 7.59847
18508.9 7.58579
18509.5 7.57512
18510.0 7.56596
18510.8 7.55531
18511.5 7.54591
18513.0 7.52940
18514.5 7.51498
18516.0 7.50202
18517.5 7.49011
18518.9 7.47899
18521.9 7.45849
18524.9 7.43953
18527.8 7.42178
18530.8 7.40487
18533.7 7.38865
18537.6 7.36817
18541.5 7.34843
18545.4 7.32929
18549.3 7.31070
18557.1 7.27495
18564.9 7.24088
18572.6 7.20818
18580.4 7.17679
18596.0 7.11736
18612.3 7.05930
18628.5 7.00504
18644.8 6.95410
18661.1 6.90610
18667.1 6.88930
18682.6 6.84683
18698.2 6.80640
18713.7 6.76789
18729.3 6.73109
18744.8 6.69593
18760.4 6.66237
18768.1 6.64614
18775.9 6.63040
18783.7 6.61509
18791.5 6.60026
18800.4 6.58412
18804.8 6.57648
18809.2 6.56921
18813.7 6.56238
18818.1 6.55617
18822.6 6.55074
18827.0 6.54636
18830.4 6.54408
18833.7 6.54306
18837.0 6.54376
18840.4 6.54694
18843.7 6.55379
18847.0 6.56629
18848.7 6.57577
18850.4 6.58826
18852.0 6.60499
18853.7 6.62733
18855.0 6.65032
18856.3 6.67975
18857.6 6.71879
18858.9 6.77127
18860.2 6.84627
18860.8 6.89694
18861.5 6.96004
18862.1 7.04354
18862.8 7.15620
18863.4 7.31303
18863.7 7.41309
18864.0 7.53294
18864.3 7.65749
18864.6 7.80406
18864.9 7.97670
18865.2 8.17221
18865.4 8.41021
18865.7 8.68993
18866.0 9.01796
18866.3 9.38676
18866.5 9.83120
18866.8 10.3469
18867.1 10.9425
18867.4 11.6008
18867.7 12.3790
18867.9 13.2630
18868.2 14.2608
18868.5 15.3372
18868.8 16.5776
18869.0 17.9483
18869.3 19.4512
18869.6 21.0252
18869.9 22.7833
18870.2 24.6629
18870.4 26.6538
18870.7 28.6660
18871.1 31.3828
18871.4 34.1824
18872.1 39.7402
18872.6 43.3601
18872.8 45.0253
18873.0 46.5950
18873.3 48.2313
18873.5 49.6434
18873.8 50.8763
18874.0 51.9112
18874.3 52.7321
18874.5 53.3069
18874.8 53.6538
18875.0 53.7945
18875.0 53.7991
18875.0 53.8002
18875.1 53.7941
18875.1 53.7740
18875.3 53.6918
18875.5 53.3788
18875.7 52.8656
18876.0 52.1591
18876.2 51.2264
18876.4 50.1575
18876.7 48.8747
18876.9 47.5013
18877.1 45.9366
18877.4 44.3298
18877.8 40.8774
18879.2 30.0802
18879.5 27.9608
18879.7 25.9288
18880.0 24.0001
18880.3 22.2494
18880.6 20.5553
18880.9 18.9898
18881.1 17.5551
18881.4 16.2949
18881.7 15.1131
18882.0 14.0538
18882.2 13.1108
18882.5 12.3047
18882.8 11.5678
18883.1 10.9449
18883.3 10.3813
18883.6 9.90922
18883.9 9.48570
18884.2 9.12150
18884.5 8.80919
18884.7 8.55079
18885.0 8.32114
18885.3 8.13147
18885.6 7.96294
18885.8 7.82357
18886.4 7.59260
18886.9 7.42338
18887.5 7.29241
18888.0 7.19244
18888.6 7.11134
18889.2 7.04637
18890.3 6.94594
18891.4 6.87055
18892.5 6.81182
18893.6 6.76458
18894.7 6.72601
18896.1 6.68648
18897.4 6.65421
18898.8 6.62719
18900.1 6.60423
18902.9 6.56713
18905.6 6.53852
18908.3 6.51542
18911.0 6.49635
18913.8 6.48013
18916.5 6.46616
18920.1 6.45024
18923.6 6.43646
18927.2 6.42424
18930.8 6.41319
18937.9 6.39356
18945.1 6.37632
18952.3 6.36067
18959.4 6.34619
18966.6 6.33261
18973.7 6.31956
18983.2 6.30292
18992.8 6.28693
19002.3 6.27145
19011.9 6.25637
19030.9 6.22709
19050.0 6.19871
19077.3 6.15916
19090.9 6.13971
19104.5 6.12045
19118.1 6.10136
19124.9 6.09191
19131.8 6.08254
19138.6 6.07325
19145.4 6.06414
19152.2 6.05528
19159.0 6.04682
19164.5 6.04050
19169.9 6.03481
19174.0 6.03117
19178.1 6.02831
19182.2 6.02659
19186.3 6.02671
19190.3 6.02979
19192.4 6.03300
19194.4 6.03776
19196.5 6.04466
19198.5 6.05441
19200.6 6.06824
19202.6 6.08807
19204.0 6.10625
19205.3 6.12977
19206.7 6.16090
19208.1 6.20317
19209.4 6.26338
19210.1 6.30342
19210.8 6.35365
19211.5 6.41851
19212.1 6.50514
19212.8 6.62498
19213.5 6.79620
19213.8 6.89489
19214.1 7.01206
19214.4 7.15149
19214.7 7.31765
19215.0 7.51568
19215.3 7.75154
19215.6 8.03196
19215.9 8.35251
19216.2 8.74338
19216.5 9.20349
19216.8 9.74251
19217.1 10.3481
19217.2 10.6970
19217.4 11.0719
19217.5 11.4742
19217.7 11.9051
19217.8 12.3657
19218.0 12.8572
19218.1 13.3808
19218.3 13.8993
19218.4 14.4875
19218.6 15.1104
19218.7 15.7687
19218.9 16.4629
19219.2 17.9601
19219.5 19.5454
19219.8 21.3255
19220.1 23.2414
19220.4 25.2821
19220.7 27.3589
19221.0 30.1276
19221.4 32.9074
19222.1 38.5035
19222.6 41.9873
19222.8 43.5879
19223.0 45.0959
19223.3 46.6669
19223.5 48.0223
19223.8 49.1617
19224.0 50.0902
19224.2 50.8468
19224.5 51.4216
19224.7 51.8196
19225.0 52.0059
19225.0 52.0178
19225.0 52.0199
19225.1 52.0174
19225.1 52.0015
19225.3 51.9295
19225.5 51.6431
19225.7 51.2851
19225.8 50.8420
19226.0 50.2652
19226.2 49.6231
19226.5 48.3229
19226.8 46.7880
19227.1 44.6664
19227.5 42.3765
19227.8 40.0671
19228.1 37.6573
19228.7 32.7226
19229.2 29.0121
19229.5 27.1881
19229.7 25.4979
19230.0 23.8114
19230.2 22.2717
19230.5 20.7569
19230.7 19.3926
19230.9 18.1188
19231.2 16.9841
19231.4 15.9330
19231.6 14.9643
19231.9 14.0390
19232.1 13.2312
19232.3 12.4970
19232.6 11.8325
19232.8 11.2088
19233.0 10.6733
19233.3 10.1941
19233.5 9.76657
19233.7 9.38627
19234.0 9.04884
19234.2 8.75013
19234.4 8.48618
19234.6 8.26283
19234.9 8.06491
19235.1 7.88962
19235.3 7.74107
19235.7 7.48045
19236.2 7.27960
19236.6 7.11651
19237.0 6.98891
19237.5 6.88532
19237.9 6.80010
19238.8 6.66755
19239.6 6.57037
19240.5 6.49549
19241.4 6.43617
19242.3 6.38055
19243.3 6.33525
19244.3 6.29687
19245.3 6.26454
19247.3 6.21212
19249.2 6.17165
19251.2 6.13939
19253.2 6.11304
19255.1 6.09107
19257.1 6.07250
19259.3 6.05469
19261.5 6.03936
19265.9 6.01406
19270.3 5.99364
19274.7 5.97656
19279.1 5.96179
19283.5 5.94871
19287.9 5.93689
19292.3 5.92607
19300.2 5.90835
19308.0 5.89214
19315.9 5.87700
19323.8 5.86261
19331.7 5.84877
19339.5 5.83532
19347.4 5.82207
19355.3 5.80906
19371.0 5.78337
19386.8 5.75795
19402.5 5.73254
19418.2 5.70699
19440.5 5.67044
19462.7 5.63317
19484.9 5.59485
19507.1 5.55539
19538.6 5.49702
19570.1 5.43529
19585.9 5.40295
19601.6 5.36964
19617.3 5.33510
19625.2 5.31739
19633.1 5.29937
19642.3 5.27780
19647.0 5.26688
19651.6 5.25589
19656.2 5.24486
19660.9 5.23384
19665.5 5.22293
19667.8 5.21758
19670.1 5.21234
19672.3 5.20750
19674.5 5.20292
19676.7 5.19872
19678.9 5.19511
19680.0 5.19365
19681.1 5.19251
19682.2 5.19180
19683.3 5.19172
19684.4 5.19260
19685.5 5.19517
19686.1 5.19754
19686.6 5.20112
19687.2 5.20652
19687.7 5.21470
19688.2 5.22498
19688.6 5.23932
19689.1 5.25959
19689.6 5.28810
19689.8 5.30721
19690.0 5.32885
19690.3 5.35426
19690.5 5.38401
19691.0 5.45903
19691.4 5.55954
19691.9 5.69529
19692.3 5.86771
19692.8 6.08664
19693.3 6.35909
19693.7 6.69902
19694.2 7.09620
19694.7 7.55854
19695.1 8.08377
19695.5 8.54747
19695.8 9.02812
19696.6 10.0458
19697.3 11.0705
19697.6 11.5550
19698.0 12.0035
19698.3 12.2976
19698.5 12.5615
19698.8 12.7907
19699.0 12.9815
19699.3 13.1157
19699.5 13.2154
19699.8 13.2970
19700.0 13.3076
19700.3 13.2862
19700.6 13.2039
19700.9 13.0608
19701.2 12.8680
19701.5 12.5889
19701.8 12.2535
19702.1 11.8707
19702.5 11.4500
19702.9 10.8196
19703.4 10.1627
19703.9 9.50492
19704.3 8.88204
19704.8 8.28413
19705.2 7.74977
19705.7 7.26341
19706.1 6.84980
19706.4 6.60832
19706.7 6.40018
19707.0 6.20986
19707.3 6.04861
19707.6 5.90357
19707.9 5.78259
19708.2 5.67869
19708.5 5.59004
19708.8 5.51250
19709.1 5.44950
19709.4 5.39665
19709.6 5.35251
19709.9 5.31462
19710.2 5.28431
19710.5 5.25920
19710.8 5.23838
19711.1 5.22057
19711.4 5.20630
19711.7 5.19439
19712.0 5.18438
19712.6 5.16845
19713.2 5.15686
19713.7 5.14773
19714.3 5.14047
19714.9 5.13425
19715.5 5.12892
19716.3 5.12209
19717.2 5.11614
19718.9 5.10581
19720.6 5.09683
19722.2 5.08879
19723.9 5.08134
19725.6 5.07437
19727.3 5.06773
19729.0 5.06133
19732.3 5.04901
19735.7 5.03718
19739.1 5.02556
19742.4 5.01412
19746.2 5.00123
19750.0 4.98837
19757.7 4.96256
19765.3 4.93644
19772.9 4.90985
19788.1 4.85494
19803.3 4.79728
19829.1 4.69228
19854.8 4.57634
19880.6 4.44721
19906.3 4.30233
19927.4 4.16962
19948.5 4.02190
19969.6 3.85630
19980.1 3.76593
19985.4 3.71850
19988.0 3.69499
19989.3 3.68515
19990.0 3.68205
19990.6 3.68142
19991.2 3.68424
19991.8 3.69182
19992.4 3.70669
19993.0 3.73120
19993.3 3.74885
19993.6 3.76979
19993.9 3.79506
19994.1 3.82522
19994.4 3.86215
19994.7 3.90398
19995.3 4.00791
19995.9 4.14477
19996.5 4.31307
19996.8 4.41385
19997.1 4.52025
19997.7 4.75888
19998.2 5.03436
19998.8 5.33219
20000.0 5.98303
20000.0 8.37167
21250.0 8.38505
22500.0 8.39801
23750.0 8.41055
25000.0 8.42271
26250.0 8.43821
27500.0 8.45320
28750.0 8.46772
30000.0 8.48180
31250.0 8.49777
32500.0 8.51328
35000.0 8.54299
37500.0 8.57405
40000.0 8.60352
42500.0 8.63421
45000.0 8.66346
47500.0 8.69140
50000.0 8.71815
52500.0 8.74559
55000.0 8.77195
57500.0 8.79731
60000.0 8.82174
65000.0 8.86947
70000.0 8.91412
75000.0 8.95625
80000.0 8.99598
85000.0 9.03269
90000.0 9.06751
94999.9 9.10063
99999.9 9.13222
100000 9.15145
111166 9.18809
122333 9.22129
133499 9.25164
144665 9.27960
150000 9.29231
175000 9.28791
200000 9.28411
206067 9.27196
206246 9.27158
206247 9.27158
206269 9.27153
206270 9.27153
226973 9.22989
250000 9.18782
300000 9.04007
346477 8.82294
392953 8.63322
420000 8.53291
420000 8.53291
439430 8.46476
485906 8.31328
485910 8.31327
485956 8.31313
485957 8.31313
490000 8.30075
500000 8.27056
520504 8.20057
541007 8.13330
541010 8.13329
541231 8.13257
541232 8.13257
555848 8.08618
562500 8.06546
570463 8.04099
585079 7.99694
599694 7.95399
600000 7.95310
600000 7.95310
616012 7.89260
625000 7.85932
640380 7.80347
664748 7.71769
664817 7.71745
686670 7.64317
686674 7.64316
687500 7.64039
700000 7.59901
701411 7.59396
701701 7.59292
726686 7.50511
726690 7.50509
726762 7.50484
726763 7.50484
726989 7.50406
728303 7.49952
728606 7.49848
742370 7.45151
742471 7.45117
742526 7.45098
750000 7.42584
760838 7.38984
760917 7.38958
773939 7.34700
786380 7.30698
786385 7.30696
786486 7.30664
794556 7.28103
795510 7.27802
795512 7.27801
800000 7.26389
803275 7.25311
812500 7.22299
829228 7.16924
829321 7.16894
849653 7.10507
864956 7.05798
875000 7.02753
880259 7.01173
880260 7.01173
880356 7.01144
880457 7.01115
880460 7.01113
882571 7.00465
884681 6.99824
888902 6.98557
893123 6.97311
897344 6.96085
897445 6.96056
900000 6.95323
907208 6.93183
914416 6.91062
928832 6.86877
937500 6.84397
943248 6.82766
957664 6.78726
957665 6.78726
957770 6.78697
957772 6.78696
957873 6.78668
978937 6.72887
999999 6.67245
1.00000E+06 6.67245
1.00334E+06 6.66422
1.01925E+06 6.62536
1.03516E+06 6.58710
1.03520E+06 6.58701
1.03527E+06 6.58683
1.03528E+06 6.58682
1.05014E+06 6.55162
1.05024E+06 6.55138
1.06781E+06 6.51041
1.06790E+06 6.51020
1.06793E+06 6.51013
1.06907E+06 6.50750
1.07026E+06 6.50475
1.07444E+06 6.49513
1.08510E+06 6.47075
1.08511E+06 6.47072
1.08552E+06 6.46979
1.10397E+06 6.42817
1.10417E+06 6.42772
1.12832E+06 6.37429
1.12840E+06 6.37411
1.12842E+06 6.37408
1.12854E+06 6.37382
1.12855E+06 6.37379
1.12863E+06 6.37361
1.12874E+06 6.37337
1.13815E+06 6.35288
1.14747E+06 6.33274
1.14757E+06 6.33252
1.15997E+06 6.30599
1.16056E+06 6.30472
1.16240E+06 6.30081
1.18120E+06 6.26119
1.20000E+06 6.22219
1.20722E+06 6.20861
1.21775E+06 6.18895
1.23549E+06 6.15619
1.25000E+06 6.12975
1.26315E+06 6.10604
1.27630E+06 6.08258
1.27630E+06 6.08258
1.28180E+06 6.07283
1.28625E+06 6.06499
1.29736E+06 6.04551
1.29797E+06 6.04443
1.31599E+06 6.01321
1.31614E+06 6.01295
1.32392E+06 5.99961
1.35409E+06 5.94857
1.36676E+06 5.92747
1.38426E+06 5.89866
1.39062E+06 5.88828
1.40000E+06 5.87306
1.42417E+06 5.83274
1.44069E+06 5.80557
1.44085E+06 5.80531
1.44706E+06 5.79517
1.44823E+06 5.79328
1.45226E+06 5.78672
1.45722E+06 5.77869
1.46206E+06 5.77089
1.47807E+06 5.74523
1.50000E+06 5.71056
1.50000E+06 5.71055
1.51345E+06 5.68902
1.51355E+06 5.68887
1.52556E+06 5.66981
1.52566E+06 5.66965
1.52607E+06 5.66900
1.52610E+06 5.66895
1.53138E+06 5.66063
1.54768E+06 5.63510
1.55700E+06 5.62063
1.55718E+06 5.62035
1.55738E+06 5.62004
1.56128E+06 5.61401
1.56819E+06 5.60336
1.56930E+06 5.60165
1.58139E+06 5.58316
1.59060E+06 5.56916
1.59061E+06 5.56915
1.59645E+06 5.56029
1.60665E+06 5.54492
1.61685E+06 5.52965
1.63724E+06 5.49941
1.63742E+06 5.49915
1.63815E+06 5.49807
1.64300E+06 5.49094
1.64310E+06 5.49079
1.64512E+06 5.48783
1.64522E+06 5.48768
1.66248E+06 5.46252
1.66258E+06 5.46237
1.68775E+06 5.42615
1.70000E+06 5.40873
1.70089E+06 5.40744
1.72514E+06 5.37300
1.72861E+06 5.36811
1.75000E+06 5.33818
1.76071E+06 5.32331
1.76082E+06 5.32316
1.76122E+06 5.32260
1.76507E+06 5.31728
1.76892E+06 5.31197
1.77662E+06 5.30139
1.78140E+06 5.29484
1.78353E+06 5.29194
1.78827E+06 5.28547
1.80160E+06 5.26738
1.81775E+06 5.24563
1.81907E+06 5.24387
1.83390E+06 5.22408
1.86620E+06 5.18155
1.88390E+06 5.15855
1.88422E+06 5.15814
1.88433E+06 5.15800
1.88916E+06 5.15175
1.90028E+06 5.13745
1.90953E+06 5.12562
1.91382E+06 5.12015
1.92736E+06 5.10297
1.92740E+06 5.10291
1.94300E+06 5.08328
1.95860E+06 5.06380
1.98040E+06 5.03685
1.98524E+06 5.03090
1.98566E+06 5.03038
1.99911E+06 5.01394
1.99921E+06 5.01382
2.00000E+06 5.01286
2.00298E+06 5.00941
2.00596E+06 5.00597
2.00979E+06 5.00156
2.01000E+06 5.00132
2.01000E+06 5.00131
2.01148E+06 4.99961
2.01361E+06 4.99716
2.01744E+06 4.99277
2.02126E+06 4.98838
2.02296E+06 4.98643
2.02339E+06 4.98594
2.02552E+06 4.98351
2.02765E+06 4.98108
2.02978E+06 4.97865
2.03190E+06 4.97623
2.03403E+06 4.97380
2.03444E+06 4.97334
2.03616E+06 4.97138
2.03829E+06 4.96897
2.03830E+06 4.96895
2.03839E+06 4.96885
2.04209E+06 4.96465
2.04580E+06 4.96045
2.04592E+06 4.96031
2.04950E+06 4.95627
2.05320E+06 4.95209
2.05353E+06 4.95172
2.05606E+06 4.94888
2.05740E+06 4.94737
2.05859E+06 4.94604
2.05902E+06 4.94556
2.06060E+06 4.94377
2.06423E+06 4.93970
2.06785E+06 4.93564
2.06888E+06 4.93449
2.07148E+06 4.93158
2.07511E+06 4.92753
2.07873E+06 4.92349
2.08036E+06 4.92168
2.08236E+06 4.91946
2.08598E+06 4.91543
2.08961E+06 4.91141
2.09184E+06 4.90894
2.09403E+06 4.90653
2.09450E+06 4.90600
2.09739E+06 4.90280
2.09893E+06 4.90111
2.10029E+06 4.89961
2.10318E+06 4.89643
2.10603E+06 4.89329
2.10607E+06 4.89324
2.10896E+06 4.89006
2.11186E+06 4.88689
2.11313E+06 4.88549
2.11475E+06 4.88372
2.11764E+06 4.88056
2.12013E+06 4.87784
2.12022E+06 4.87774
2.12262E+06 4.87513
2.12648E+06 4.87092
2.12659E+06 4.87080
2.12731E+06 4.87002
2.12979E+06 4.86732
2.13299E+06 4.86384
2.13441E+06 4.86230
2.13619E+06 4.86037
2.13940E+06 4.85690
2.14150E+06 4.85463
2.14260E+06 4.85344
2.14580E+06 4.84998
2.14860E+06 4.84696
2.14900E+06 4.84653
2.15220E+06 4.84309
2.15540E+06 4.83965
2.15570E+06 4.83933
2.15860E+06 4.83621
2.16180E+06 4.83278
2.16279E+06 4.83173
2.16501E+06 4.82936
2.16821E+06 4.82594
2.16988E+06 4.82415
2.17141E+06 4.82252
2.17461E+06 4.81911
2.17698E+06 4.81659
2.17781E+06 4.81571
2.18101E+06 4.81231
2.18407E+06 4.80906
2.18421E+06 4.80891
2.18741E+06 4.80552
2.19062E+06 4.80214
2.19117E+06 4.80155
2.19382E+06 4.79876
2.19702E+06 4.79538
2.19827E+06 4.79406
2.20022E+06 4.79201
2.20342E+06 4.78865
2.20536E+06 4.78661
2.20662E+06 4.78528
2.20769E+06 4.78416
2.20982E+06 4.78193
2.21245E+06 4.77918
2.21302E+06 4.77858
2.21623E+06 4.77523
2.21943E+06 4.77189
2.21955E+06 4.77176
2.22263E+06 4.76856
2.22583E+06 4.76522
2.22664E+06 4.76438
2.22903E+06 4.76190
2.22950E+06 4.76141
2.22964E+06 4.76126
2.23289E+06 4.75789
2.23374E+06 4.75701
2.23614E+06 4.75453
2.23939E+06 4.75117
2.24084E+06 4.74967
2.24264E+06 4.74781
2.24671E+06 4.74362
2.24691E+06 4.74341
2.24793E+06 4.74236
2.25000E+06 4.74023
2.25400E+06 4.73612
2.25502E+06 4.73507
2.25800E+06 4.73201
2.26167E+06 4.72826
2.26212E+06 4.72779
2.26533E+06 4.72451
2.26860E+06 4.72117
2.26921E+06 4.72055
2.27098E+06 4.71875
2.27335E+06 4.71633
2.27573E+06 4.71391
2.27631E+06 4.71332
2.27810E+06 4.71150
2.28048E+06 4.70909
2.28285E+06 4.70668
2.28341E+06 4.70611
2.28523E+06 4.70427
2.28760E+06 4.70187
2.28998E+06 4.69946
2.29050E+06 4.69893
2.29235E+06 4.69707
2.29473E+06 4.69467
2.29710E+06 4.69228
2.29759E+06 4.69178
2.29948E+06 4.68988
2.30185E+06 4.68749
2.30423E+06 4.68511
2.30469E+06 4.68464
2.30660E+06 4.68272
2.30765E+06 4.68167
2.31040E+06 4.67891
2.31178E+06 4.67753
2.31315E+06 4.67616
2.31589E+06 4.67341
2.31864E+06 4.67067
2.31888E+06 4.67043
2.31985E+06 4.66946
2.31985E+06 4.66946
2.32088E+06 4.66843
2.32220E+06 4.66711
2.32455E+06 4.66478
2.32598E+06 4.66335
2.32690E+06 4.66244
2.32924E+06 4.66011
2.33159E+06 4.65778
2.33307E+06 4.65631
2.33393E+06 4.65545
2.33628E+06 4.65312
2.33863E+06 4.65080
2.34016E+06 4.64928
2.34097E+06 4.64848
2.34332E+06 4.64616
2.34567E+06 4.64384
2.34726E+06 4.64227
2.34801E+06 4.64153
2.35036E+06 4.63921
2.35271E+06 4.63690
2.35435E+06 4.63529
2.35505E+06 4.63460
2.35740E+06 4.63229
2.35744E+06 4.63226
2.36053E+06 4.62922
2.36145E+06 4.62832
2.36362E+06 4.62619
2.36774E+06 4.62216
2.36785E+06 4.62205
2.36815E+06 4.62177
2.36855E+06 4.62137
2.37153E+06 4.61846
2.37491E+06 4.61516
2.37564E+06 4.61446
2.37829E+06 4.61187
2.38168E+06 4.60858
2.38273E+06 4.60756
2.38506E+06 4.60530
2.38844E+06 4.60202
2.38983E+06 4.60067
2.39182E+06 4.59875
2.39520E+06 4.59548
2.39692E+06 4.59382
2.39810E+06 4.59268
2.40099E+06 4.58989
2.40389E+06 4.58710
2.40402E+06 4.58697
2.40678E+06 4.58431
2.40968E+06 4.58153
2.41112E+06 4.58014
2.41257E+06 4.57875
2.41547E+06 4.57598
2.41821E+06 4.57335
2.41836E+06 4.57321
2.41870E+06 4.57287
2.41891E+06 4.57267
2.42150E+06 4.57020
2.42530E+06 4.56657
2.42561E+06 4.56627
2.42972E+06 4.56235
2.43229E+06 4.55990
2.43240E+06 4.55980
2.43406E+06 4.55822
2.43486E+06 4.55746
2.43742E+06 4.55503
2.43949E+06 4.55307
2.43999E+06 4.55259
2.44236E+06 4.55034
2.44473E+06 4.54809
2.44659E+06 4.54633
2.44688E+06 4.54606
2.44903E+06 4.54403
2.44953E+06 4.54356
2.44953E+06 4.54356
2.45162E+06 4.54158
2.45172E+06 4.54149
2.45280E+06 4.54047
2.45369E+06 4.53963
2.45561E+06 4.53782
2.45843E+06 4.53517
2.46078E+06 4.53295
2.46124E+06 4.53252
2.46405E+06 4.52988
2.46627E+06 4.52779
2.46787E+06 4.52629
2.46851E+06 4.52569
2.47076E+06 4.52359
2.47300E+06 4.52149
2.47497E+06 4.51965
2.47524E+06 4.51939
2.47770E+06 4.51709
2.48017E+06 4.51479
2.48206E+06 4.51302
2.48263E+06 4.51249
2.48509E+06 4.51020
2.48755E+06 4.50791
2.48916E+06 4.50641
2.49002E+06 4.50562
2.49248E+06 4.50333
2.49494E+06 4.50104
2.49626E+06 4.49982
2.49747E+06 4.49870
2.50000E+06 4.49635
2.50335E+06 4.49378
2.50340E+06 4.49374
2.50679E+06 4.49114
2.50709E+06 4.49091
2.51044E+06 4.48836
2.51101E+06 4.48793
2.51338E+06 4.48611
2.51576E+06 4.48430
2.51754E+06 4.48294
2.51813E+06 4.48249
2.52000E+06 4.48106
2.52000E+06 4.48106
2.52050E+06 4.48068
2.52340E+06 4.47847
2.52463E+06 4.47753
2.52629E+06 4.47627
2.52781E+06 4.47512
2.52997E+06 4.47348
2.53173E+06 4.47215
2.53212E+06 4.47185
2.53593E+06 4.46896
2.53883E+06 4.46677
2.53974E+06 4.46609
2.54354E+06 4.46321
2.54592E+06 4.46142
2.54725E+06 4.46041
2.54735E+06 4.46034
2.55104E+06 4.45756
2.55301E+06 4.45608
2.55473E+06 4.45479
2.55483E+06 4.45471
2.55607E+06 4.45378
2.55790E+06 4.45241
2.56011E+06 4.45075
2.56054E+06 4.45043
2.56055E+06 4.45042
2.56092E+06 4.45014
2.56110E+06 4.45001
2.56112E+06 4.44999
2.56112E+06 4.44999
2.56412E+06 4.44774
2.56712E+06 4.44550
2.56720E+06 4.44544
2.56987E+06 4.44344
2.57261E+06 4.44139
2.57430E+06 4.44013
2.57536E+06 4.43935
2.57810E+06 4.43730
2.58085E+06 4.43526
2.58140E+06 4.43485
2.58359E+06 4.43322
2.58634E+06 4.43118
2.58849E+06 4.42959
2.58908E+06 4.42915
2.59173E+06 4.42720
2.59437E+06 4.42525
2.59437E+06 4.42524
2.59457E+06 4.42509
2.59558E+06 4.42434
2.59727E+06 4.42309
2.59997E+06 4.42110
2.60266E+06 4.41910
2.60268E+06 4.41909
2.60536E+06 4.41711
2.60806E+06 4.41512
2.60977E+06 4.41386
2.61076E+06 4.41314
2.61345E+06 4.41115
2.61615E+06 4.40917
2.61687E+06 4.40865
2.61872E+06 4.40729
2.62128E+06 4.40542
2.62159E+06 4.40519
2.62397E+06 4.40345
2.62570E+06 4.40218
2.62981E+06 4.39918
2.63106E+06 4.39827
2.63392E+06 4.39619
2.63803E+06 4.39320
2.63815E+06 4.39311
2.63955E+06 4.39210
2.63955E+06 4.39210
2.64107E+06 4.39098
2.64168E+06 4.39054
2.64407E+06 4.38881
2.64525E+06 4.38795
2.64645E+06 4.38708
2.65027E+06 4.38430
2.65234E+06 4.38280
2.65409E+06 4.38154
2.65790E+06 4.37877
2.65944E+06 4.37766
2.66044E+06 4.37694
2.66172E+06 4.37602
2.66554E+06 4.37326
2.66654E+06 4.37254
2.66936E+06 4.37051
2.67317E+06 4.36777
2.67363E+06 4.36744
2.67699E+06 4.36502
2.68072E+06 4.36235
2.68081E+06 4.36229
2.68463E+06 4.35955
2.68782E+06 4.35727
2.68844E+06 4.35683
2.69226E+06 4.35410
2.69491E+06 4.35221
2.69608E+06 4.35138
2.69990E+06 4.34867
2.70201E+06 4.34716
2.70371E+06 4.34595
2.70753E+06 4.34325
2.70911E+06 4.34213
2.71135E+06 4.34054
2.71517E+06 4.33784
2.71620E+06 4.33711
2.71898E+06 4.33515
2.72280E+06 4.33246
2.72329E+06 4.33211
2.72662E+06 4.32977
2.73039E+06 4.32712
2.73044E+06 4.32709
2.73425E+06 4.32441
2.73748E+06 4.32215
2.73807E+06 4.32173
2.74189E+06 4.31906
2.74458E+06 4.31718
2.74571E+06 4.31640
2.74952E+06 4.31374
2.75168E+06 4.31223
2.75334E+06 4.31108
2.75716E+06 4.30842
2.75877E+06 4.30730
2.76098E+06 4.30577
2.76479E+06 4.30313
2.76586E+06 4.30239
2.76861E+06 4.30048
2.76923E+06 4.30006
2.76943E+06 4.29992
2.77197E+06 4.29816
2.77296E+06 4.29747
2.77363E+06 4.29701
2.77451E+06 4.29640
2.77704E+06 4.29465
2.77958E+06 4.29289
2.78005E+06 4.29257
2.78212E+06 4.29114
2.78466E+06 4.28939
2.78715E+06 4.28767
2.78719E+06 4.28764
2.78973E+06 4.28589
2.79029E+06 4.28551
2.79069E+06 4.28524
2.79301E+06 4.28365
2.79425E+06 4.28279
2.79542E+06 4.28199
2.79783E+06 4.28033
2.79783E+06 4.28033
2.80018E+06 4.27872
2.80134E+06 4.27793
2.80252E+06 4.27712
2.80486E+06 4.27552
2.80720E+06 4.27391
2.80843E+06 4.27307
2.80954E+06 4.27231
2.81188E+06 4.27071
2.81422E+06 4.26911
2.81553E+06 4.26822
2.81657E+06 4.26752
2.81891E+06 4.26592
2.82125E+06 4.26433
2.82262E+06 4.26339
2.82359E+06 4.26273
2.82593E+06 4.26114
2.82828E+06 4.25955
2.82972E+06 4.25857
2.83062E+06 4.25796
2.83296E+06 4.25637
2.83530E+06 4.25479
2.83594E+06 4.25436
2.83682E+06 4.25376
2.83966E+06 4.25184
2.84338E+06 4.24933
2.84391E+06 4.24897
2.84709E+06 4.24683
2.85081E+06 4.24432
2.85100E+06 4.24420
2.85470E+06 4.24171
2.85810E+06 4.23942
2.85859E+06 4.23910
2.86247E+06 4.23649
2.86519E+06 4.23467
2.86636E+06 4.23389
2.86636E+06 4.23389
2.86961E+06 4.23171
2.87229E+06 4.22992
2.87286E+06 4.22954
2.87611E+06 4.22737
2.87936E+06 4.22520
2.87939E+06 4.22518
2.88098E+06 4.22412
2.88100E+06 4.22411
2.88342E+06 4.22250
2.88585E+06 4.22088
2.88648E+06 4.22046
2.88681E+06 4.22024
2.88827E+06 4.21927
2.89069E+06 4.21766
2.89311E+06 4.21606
2.89357E+06 4.21575
2.89554E+06 4.21445
2.89796E+06 4.21285
2.90038E+06 4.21124
2.90067E+06 4.21105
2.90103E+06 4.21081
2.90103E+06 4.21081
2.90325E+06 4.20934
2.90325E+06 4.20933
2.90587E+06 4.20761
2.90776E+06 4.20636
2.90848E+06 4.20588
2.91109E+06 4.20416
2.91370E+06 4.20244
2.91486E+06 4.20168
2.91632E+06 4.20072
2.91893E+06 4.19900
2.92155E+06 4.19728
2.92196E+06 4.19700
2.92416E+06 4.19556
2.92677E+06 4.19385
2.92905E+06 4.19235
2.92939E+06 4.19213
2.93200E+06 4.19042
2.93461E+06 4.18871
2.93614E+06 4.18771
2.93723E+06 4.18700
2.93984E+06 4.18530
2.94245E+06 4.18359
2.94324E+06 4.18308
2.94507E+06 4.18189
2.94768E+06 4.18018
2.95029E+06 4.17848
2.95033E+06 4.17846
2.95291E+06 4.17678
2.95552E+06 4.17509
2.95743E+06 4.17385
2.95813E+06 4.17339
2.96075E+06 4.17170
2.96336E+06 4.17000
2.96453E+06 4.16924
2.96597E+06 4.16831
2.96859E+06 4.16662
2.97120E+06 4.16493
2.97162E+06 4.16466
2.97381E+06 4.16324
2.97643E+06 4.16156
2.97871E+06 4.16009
2.97904E+06 4.15988
2.98165E+06 4.15819
2.98427E+06 4.15651
2.98581E+06 4.15552
2.98688E+06 4.15483
2.98755E+06 4.15440
2.98988E+06 4.15291
2.99000E+06 4.15283
2.99000E+06 4.15283
2.99220E+06 4.15142
2.99290E+06 4.15097
2.99453E+06 4.14993
2.99685E+06 4.14844
2.99690E+06 4.14840
2.99695E+06 4.14836
2.99695E+06 4.14836
3.00000E+06 4.14641
3.00758E+06 4.14292
3.01515E+06 4.13944
3.03030E+06 4.13251
3.03120E+06 4.13209
3.03125E+06 4.13207
3.03160E+06 4.13192
3.03190E+06 4.13177
3.03292E+06 4.13131
3.04000E+06 4.12809
3.05125E+06 4.12298
3.06250E+06 4.11789
3.07813E+06 4.11086
3.09375E+06 4.10386
3.09632E+06 4.10271
3.09773E+06 4.10207
3.11137E+06 4.09600
3.12500E+06 4.08996
3.12520E+06 4.08987
3.12523E+06 4.08987
3.14080E+06 4.08300
3.15625E+06 4.07623
3.15637E+06 4.07618
3.17193E+06 4.06938
3.18750E+06 4.06263
3.19817E+06 4.05801
3.20718E+06 4.05413
3.21619E+06 4.05026
3.21875E+06 4.04916
3.22371E+06 4.04704
3.23686E+06 4.04140
3.25000E+06 4.03579
3.26412E+06 4.02980
3.27823E+06 4.02383
3.28125E+06 4.02256
3.29235E+06 4.01789
3.30646E+06 4.01198
3.30712E+06 4.01170
3.31250E+06 4.00945
3.31930E+06 4.00662
3.33147E+06 4.00156
3.34365E+06 3.99652
3.34375E+06 3.99648
3.35582E+06 3.99150
3.36800E+06 3.98649
3.37500E+06 3.98362
3.38017E+06 3.98151
3.39235E+06 3.97655
3.40452E+06 3.97160
3.40608E+06 3.97097
3.40625E+06 3.97090
3.41362E+06 3.96792
3.42624E+06 3.96283
3.43750E+06 3.95830
3.43886E+06 3.95775
3.45148E+06 3.95270
3.46410E+06 3.94767
3.46875E+06 3.94581
3.47308E+06 3.94409
3.48205E+06 3.94052
3.49103E+06 3.93696
3.50000E+06 3.93341
3.50000E+06 3.93341
3.50883E+06 3.93122
3.51765E+06 3.92903
3.52648E+06 3.92685
3.53125E+06 3.92567
3.53530E+06 3.92467
3.53610E+06 3.92447
3.53680E+06 3.92430
3.53760E+06 3.92410
3.54801E+06 3.92153
3.55842E+06 3.91896
3.56250E+06 3.91796
3.56883E+06 3.91640
3.57924E+06 3.91385
3.58087E+06 3.91346
3.59055E+06 3.91110
3.59375E+06 3.91032
3.60023E+06 3.90874
3.60991E+06 3.90639
3.61959E+06 3.90405
3.62153E+06 3.90358
3.62500E+06 3.90275
3.63097E+06 3.90131
3.64040E+06 3.89904
3.64984E+06 3.89678
3.65625E+06 3.89525
3.65927E+06 3.89453
3.66094E+06 3.89413
3.66458E+06 3.89325
3.68056E+06 3.88945
3.68750E+06 3.88781
3.69653E+06 3.88567
3.71251E+06 3.88191
3.71875E+06 3.88045
3.72848E+06 3.87817
3.72850E+06 3.87817
3.73925E+06 3.87566
3.75000E+06 3.87316
3.76151E+06 3.87049
3.77303E+06 3.86782
3.78125E+06 3.86593
3.78454E+06 3.86517
3.79606E+06 3.86252
3.80757E+06 3.85989
3.81250E+06 3.85876
3.81908E+06 3.85726
3.83060E+06 3.85464
3.84211E+06 3.85203
3.84375E+06 3.85166
3.85198E+06 3.84980
3.86185E+06 3.84758
3.87172E+06 3.84536
3.87500E+06 3.84463
3.88158E+06 3.84315
3.89145E+06 3.84095
3.90132E+06 3.83875
3.90625E+06 3.83766
3.91119E+06 3.83656
3.92106E+06 3.83438
3.93092E+06 3.83220
3.93750E+06 3.83075
3.94079E+06 3.83003
3.95066E+06 3.82786
3.96053E+06 3.82570
3.96875E+06 3.82390
3.97040E+06 3.82355
3.98026E+06 3.82140
3.99013E+06 3.81926
4.00000E+06 3.81712
4.02000E+06 3.81543
4.02000E+06 3.81543
4.02741E+06 3.81480
4.05483E+06 3.81251
4.06250E+06 3.81187
4.08224E+06 3.81024
4.10965E+06 3.80798
4.12500E+06 3.80673
4.13706E+06 3.80575
4.16448E+06 3.80354
4.18750E+06 3.80171
4.19189E+06 3.80136
4.21930E+06 3.79919
4.24822E+06 3.79692
4.25000E+06 3.79678
4.27713E+06 3.79468
4.30605E+06 3.79246
4.31250E+06 3.79197
4.33496E+06 3.79026
4.36388E+06 3.78808
4.37500E+06 3.78725
4.39279E+06 3.78593
4.42171E+06 3.78379
4.43750E+06 3.78263
4.45062E+06 3.78168
4.47531E+06 3.77989
4.50000E+06 3.77811
4.51000E+06 3.77858
4.51000E+06 3.77858
4.52433E+06 3.77926
4.54866E+06 3.78040
4.56250E+06 3.78106
4.57298E+06 3.78155
4.59731E+06 3.78269
4.62164E+06 3.78384
4.62500E+06 3.78400
4.64597E+06 3.78498
4.67029E+06 3.78612
4.68750E+06 3.78693
4.69462E+06 3.78726
4.72679E+06 3.78877
4.75000E+06 3.78986
4.75897E+06 3.79028
4.79114E+06 3.79178
4.81250E+06 3.79278
4.82331E+06 3.79329
4.85548E+06 3.79480
4.87500E+06 3.79571
4.88766E+06 3.79631
4.91983E+06 3.79782
4.93750E+06 3.79865
4.95200E+06 3.79933
4.97600E+06 3.80046
5.00000E+06 3.80160
5.00000E+06 3.80160
5.05255E+06 3.81020
5.10510E+06 3.81872
5.12500E+06 3.82194
5.15764E+06 3.82719
5.21019E+06 3.83558
5.25000E+06 3.84190
5.27895E+06 3.84647
5.34772E+06 3.85726
5.37500E+06 3.86152
5.41648E+06 3.86795
5.48524E+06 3.87854
5.50000E+06 3.88080
5.50152E+06 3.88104
5.54350E+06 3.88744
5.58548E+06 3.89381
5.62500E+06 3.89977
5.62746E+06 3.90014
5.66944E+06 3.90645
5.68506E+06 3.90878
5.72443E+06 3.91466
5.75000E+06 3.91846
5.76380E+06 3.92050
5.80316E+06 3.92632
5.84253E+06 3.93212
5.87500E+06 3.93688
5.88190E+06 3.93789
5.92127E+06 3.94364
5.96063E+06 3.94937
6.00000E+06 3.95507
6.02000E+06 3.95886
6.02000E+06 3.95887
6.06332E+06 3.96705
6.12664E+06 3.97894
6.18996E+06 3.99073
6.25328E+06 4.00241
6.32454E+06 4.01536
6.39579E+06 4.02819
6.48074E+06 4.04330
6.56924E+06 4.05888
6.58186E+06 4.06109
6.68298E+06 4.07864
6.78409E+06 4.09597
6.88521E+06 4.11309
6.88694E+06 4.11338
6.88766E+06 4.11350
6.89675E+06 4.11502
6.99205E+06 4.13084
7.00000E+06 4.13215
7.00417E+06 4.13268
7.00834E+06 4.13320
7.01251E+06 4.13372
7.01668E+06 4.13425
7.02084E+06 4.13477
7.02501E+06 4.13529
7.02918E+06 4.13581
7.03335E+06 4.13633
7.03736E+06 4.13684
7.04000E+06 4.13717
7.04000E+06 4.13717
7.04138E+06 4.13734
7.04539E+06 4.13784
7.04941E+06 4.13834
7.05342E+06 4.13885
7.05743E+06 4.13935
7.06145E+06 4.13985
7.06546E+06 4.14035
7.07084E+06 4.14102
7.07622E+06 4.14169
7.08160E+06 4.14236
7.08698E+06 4.14303
7.09236E+06 4.14370
7.09774E+06 4.14437
7.10312E+06 4.14503
7.10850E+06 4.14570
7.11388E+06 4.14637
7.11926E+06 4.14703
7.12464E+06 4.14770
7.13002E+06 4.14837
7.13540E+06 4.14903
7.14078E+06 4.14970
7.14616E+06 4.15036
7.15154E+06 4.15102
7.15692E+06 4.15169
7.16230E+06 4.15235
7.16768E+06 4.15301
7.17306E+06 4.15368
7.17844E+06 4.15434
7.18382E+06 4.15500
7.18920E+06 4.15566
7.19458E+06 4.15632
7.19996E+06 4.15698
7.20534E+06 4.15764
7.21072E+06 4.15830
7.21610E+06 4.15896
7.22148E+06 4.15962
7.22686E+06 4.16027
7.23224E+06 4.16093
7.23762E+06 4.16159
7.24437E+06 4.16241
7.25111E+06 4.16323
7.25786E+06 4.16406
7.26460E+06 4.16488
7.27135E+06 4.16570
7.27809E+06 4.16652
7.28484E+06 4.16734
7.29158E+06 4.16816
7.29833E+06 4.16897
7.30507E+06 4.16979
7.31182E+06 4.17061
7.31856E+06 4.17142
7.32531E+06 4.17224
7.33206E+06 4.17305
7.33880E+06 4.17387
7.34555E+06 4.17468
7.35229E+06 4.17549
7.35904E+06 4.17631
7.36578E+06 4.17712
7.37253E+06 4.17793
7.37927E+06 4.17874
7.38602E+06 4.17955
7.39276E+06 4.18036
7.39951E+06 4.18117
7.40625E+06 4.18197
7.41300E+06 4.18278
7.41974E+06 4.18359
7.42649E+06 4.18439
7.43324E+06 4.18520
7.43998E+06 4.18600
7.44533E+06 4.18664
7.44673E+06 4.18681
7.45347E+06 4.18761
7.45430E+06 4.18770
7.45598E+06 4.18790
7.46281E+06 4.18872
7.46965E+06 4.18953
7.47648E+06 4.19034
7.48331E+06 4.19115
7.48920E+06 4.19185
7.49509E+06 4.19254
7.50098E+06 4.19323
7.50688E+06 4.19392
7.51277E+06 4.19461
7.51866E+06 4.19530
7.52455E+06 4.19599
7.53044E+06 4.19668
7.53728E+06 4.19748
7.54412E+06 4.19827
7.54566E+06 4.19846
7.54755E+06 4.19868
7.55178E+06 4.19917
7.55600E+06 4.19966
7.56023E+06 4.20015
7.56445E+06 4.20065
7.56902E+06 4.20118
7.57358E+06 4.20171
7.57815E+06 4.20224
7.58271E+06 4.20277
7.58728E+06 4.20330
7.59184E+06 4.20383
7.59641E+06 4.20437
7.60097E+06 4.20489
7.60554E+06 4.20543
7.61010E+06 4.20595
7.61467E+06 4.20648
7.61923E+06 4.20701
7.62380E+06 4.20754
7.62837E+06 4.20807
7.63293E+06 4.20860
7.63750E+06 4.20913
7.64206E+06 4.20965
7.64663E+06 4.21018
7.65119E+06 4.21071
7.65576E+06 4.21124
7.66032E+06 4.21176
7.66489E+06 4.21229
7.66945E+06 4.21281
7.67402E+06 4.21334
7.67858E+06 4.21387
7.68315E+06 4.21439
7.68771E+06 4.21492
7.69228E+06 4.21544
7.69685E+06 4.21597
7.70141E+06 4.21649
7.70598E+06 4.21701
7.71054E+06 4.21754
7.71191E+06 4.21769
7.71827E+06 4.21842
7.72463E+06 4.21915
7.73098E+06 4.21988
7.73734E+06 4.22061
7.74213E+06 4.22116
7.74692E+06 4.22170
7.75171E+06 4.22225
7.75650E+06 4.22280
7.76129E+06 4.22334
7.76608E+06 4.22389
7.77088E+06 4.22443
7.77567E+06 4.22498
7.78046E+06 4.22552
7.78525E+06 4.22607
7.79004E+06 4.22661
7.79483E+06 4.22716
7.79962E+06 4.22770
7.80441E+06 4.22824
7.80920E+06 4.22879
7.81399E+06 4.22933
7.81878E+06 4.22987
7.82357E+06 4.23042
7.82836E+06 4.23096
7.83315E+06 4.23150
7.83794E+06 4.23204
7.84273E+06 4.23258
7.84753E+06 4.23312
7.85232E+06 4.23366
7.85711E+06 4.23421
7.86190E+06 4.23475
7.86669E+06 4.23529
7.87148E+06 4.23583
7.87627E+06 4.23636
7.88106E+06 4.23690
7.88585E+06 4.23744
7.89064E+06 4.23798
7.89065E+06 4.23798
7.89749E+06 4.23875
7.90432E+06 4.23951
7.91115E+06 4.24027
7.91799E+06 4.24104
7.92482E+06 4.24180
7.93166E+06 4.24256
7.93849E+06 4.24332
7.94533E+06 4.24409
7.95216E+06 4.24485
7.95899E+06 4.24561
7.96583E+06 4.24637
7.97266E+06 4.24712
7.97950E+06 4.24788
7.98633E+06 4.24864
7.99317E+06 4.24940
8.00000E+06 4.25015
8.00000E+06 4.25015
8.00747E+06 4.25065
8.01494E+06 4.25114
8.02241E+06 4.25164
8.02988E+06 4.25213
8.03736E+06 4.25262
8.04483E+06 4.25311
8.05230E+06 4.25361
8.05977E+06 4.25410
8.06724E+06 4.25459
8.07471E+06 4.25508
8.08218E+06 4.25557
8.08965E+06 4.25606
8.09712E+06 4.25655
8.10459E+06 4.25704
8.11207E+06 4.25753
8.11954E+06 4.25802
8.12701E+06 4.25850
8.13448E+06 4.25899
8.14195E+06 4.25948
8.14942E+06 4.25997
8.15689E+06 4.26045
8.16436E+06 4.26094
8.17183E+06 4.26143
8.17930E+06 4.26191
8.18677E+06 4.26240
8.19425E+06 4.26288
8.20172E+06 4.26337
8.20919E+06 4.26385
8.21666E+06 4.26434
8.22413E+06 4.26482
8.23160E+06 4.26530
8.23907E+06 4.26579
8.24595E+06 4.26623
8.25283E+06 4.26667
8.25971E+06 4.26711
8.26659E+06 4.26756
8.27347E+06 4.26800
8.28035E+06 4.26844
8.28723E+06 4.26888
8.29411E+06 4.26932
8.29944E+06 4.26966
8.30477E+06 4.27001
8.31010E+06 4.27035
8.31543E+06 4.27069
8.32075E+06 4.27104
8.32608E+06 4.27138
8.33141E+06 4.27172
8.33674E+06 4.27206
8.34207E+06 4.27240
8.34740E+06 4.27275
8.35273E+06 4.27309
8.35806E+06 4.27343
8.36338E+06 4.27377
8.36871E+06 4.27411
8.37404E+06 4.27445
8.37937E+06 4.27479
8.38459E+06 4.27512
8.39024E+06 4.27548
8.39590E+06 4.27584
8.40155E+06 4.27620
8.40720E+06 4.27656
8.41286E+06 4.27692
8.41851E+06 4.27728
8.42416E+06 4.27764
8.42982E+06 4.27800
8.43547E+06 4.27836
8.44112E+06 4.27871
8.44678E+06 4.27907
8.45243E+06 4.27943
8.45808E+06 4.27979
8.46373E+06 4.28015
8.46939E+06 4.28050
8.47504E+06 4.28086
8.48528E+06 4.28151
8.49140E+06 4.28189
8.49753E+06 4.28228
8.50365E+06 4.28266
8.50977E+06 4.28304
8.51589E+06 4.28342
8.52202E+06 4.28381
8.52814E+06 4.28419
8.53426E+06 4.28457
8.54038E+06 4.28495
8.54651E+06 4.28533
8.55263E+06 4.28571
8.55875E+06 4.28609
8.56487E+06 4.28647
8.57100E+06 4.28685
8.57712E+06 4.28723
8.58324E+06 4.28761
8.58822E+06 4.28793
8.60227E+06 4.28879
8.61632E+06 4.28966
8.63037E+06 4.29052
8.64442E+06 4.29139
8.65846E+06 4.29225
8.67251E+06 4.29311
8.68656E+06 4.29397
8.70061E+06 4.29483
8.71532E+06 4.29573
8.73003E+06 4.29662
8.73046E+06 4.29665
8.73143E+06 4.29671
8.73609E+06 4.29700
8.73885E+06 4.29716
8.74998E+06 4.29784
8.76111E+06 4.29852
8.77223E+06 4.29919
8.78336E+06 4.29987
8.79449E+06 4.30054
8.80562E+06 4.30122
8.81674E+06 4.30189
8.82787E+06 4.30256
8.83884E+06 4.30323
8.84981E+06 4.30389
8.86078E+06 4.30455
8.87175E+06 4.30521
8.88272E+06 4.30587
8.89369E+06 4.30654
8.90466E+06 4.30719
8.91563E+06 4.30785
8.92462E+06 4.30840
8.93361E+06 4.30894
8.95021E+06 4.30993
8.96681E+06 4.31091
8.98340E+06 4.31190
8.99000E+06 4.31229
8.99000E+06 4.31229
9.00000E+06 4.31288
9.01501E+06 4.31312
9.03003E+06 4.31336
9.04504E+06 4.31360
9.06005E+06 4.31384
9.07507E+06 4.31408
9.09008E+06 4.31432
9.10509E+06 4.31457
9.12011E+06 4.31481
9.13512E+06 4.31505
9.15013E+06 4.31529
9.16515E+06 4.31553
9.18016E+06 4.31577
9.19517E+06 4.31601
9.21018E+06 4.31625
9.22520E+06 4.31650
9.24021E+06 4.31674
9.25057E+06 4.31691
9.25523E+06 4.31698
9.27052E+06 4.31723
9.28581E+06 4.31748
9.30110E+06 4.31772
9.31639E+06 4.31797
9.32621E+06 4.31814
9.34326E+06 4.31841
9.36031E+06 4.31868
9.37735E+06 4.31896
9.39440E+06 4.31923
9.39472E+06 4.31924
9.39988E+06 4.31933
9.40010E+06 4.31934
9.41971E+06 4.31965
9.43931E+06 4.31997
9.45892E+06 4.32029
9.47852E+06 4.32061
9.48683E+06 4.32074
9.50406E+06 4.32101
9.52129E+06 4.32128
9.53852E+06 4.32154
9.55576E+06 4.32181
9.57299E+06 4.32208
9.59022E+06 4.32235
9.60745E+06 4.32262
9.62468E+06 4.32288
9.62972E+06 4.32297
9.64351E+06 4.32319
9.65730E+06 4.32340
9.67109E+06 4.32362
9.68488E+06 4.32384
9.69867E+06 4.32405
9.71246E+06 4.32427
9.72625E+06 4.32448
9.74004E+06 4.32470
9.74409E+06 4.32476
9.76029E+06 4.32502
9.77649E+06 4.32527
9.78944E+06 4.32546
9.79610E+06 4.32556
9.80276E+06 4.32566
9.80943E+06 4.32575
9.81609E+06 4.32585
9.82275E+06 4.32594
9.82941E+06 4.32604
9.83607E+06 4.32614
9.84274E+06 4.32624
9.84940E+06 4.32633
9.85606E+06 4.32643
9.86272E+06 4.32653
9.86938E+06 4.32663
9.87605E+06 4.32673
9.88271E+06 4.32683
9.88937E+06 4.32693
9.89603E+06 4.32703
9.89837E+06 4.32707
9.90472E+06 4.32717
9.91107E+06 4.32726
9.91743E+06 4.32736
9.92378E+06 4.32746
9.93013E+06 4.32756
9.93648E+06 4.32766
9.94283E+06 4.32775
9.94919E+06 4.32785
9.95554E+06 4.32795
9.96189E+06 4.32805
9.96824E+06 4.32815
9.97459E+06 4.32825
9.98095E+06 4.32835
9.98730E+06 4.32845
9.99365E+06 4.32855
1.00000E+07 4.32865
1.00076E+07 4.32831
1.00153E+07 4.32797
1.00229E+07 4.32763
1.00300E+07 4.32732
1.00300E+07 4.32732
1.00305E+07 4.32729
1.00381E+07 4.32696
1.00458E+07 4.32663
1.00534E+07 4.32631
1.00610E+07 4.32598
1.00687E+07 4.32566
1.00763E+07 4.32534
1.00839E+07 4.32503
1.00915E+07 4.32471
1.00992E+07 4.32441
1.01068E+07 4.32410
1.01144E+07 4.32379
1.01220E+07 4.32349
1.01297E+07 4.32319
1.01373E+07 4.32290
1.01449E+07 4.32260
1.01525E+07 4.32231
1.01602E+07 4.32203
1.01678E+07 4.32174
1.01754E+07 4.32146
1.01830E+07 4.32118
1.01907E+07 4.32090
1.01983E+07 4.32063
1.02059E+07 4.32036
1.02136E+07 4.32009
1.02212E+07 4.31983
1.02288E+07 4.31956
1.02364E+07 4.31931
1.02441E+07 4.31905
1.02517E+07 4.31879
1.02593E+07 4.31854
1.02669E+07 4.31829
1.02746E+07 4.31805
1.02822E+07 4.31780
1.02898E+07 4.31756
1.02975E+07 4.31732
1.03051E+07 4.31709
1.03127E+07 4.31686
1.03203E+07 4.31663
1.03280E+07 4.31640
1.03356E+07 4.31617
1.03432E+07 4.31595
1.03508E+07 4.31573
1.03585E+07 4.31552
1.03661E+07 4.31530
1.03737E+07 4.31509
1.03813E+07 4.31488
1.03890E+07 4.31468
1.03966E+07 4.31448
1.04042E+07 4.31427
1.04118E+07 4.31408
1.04195E+07 4.31388
1.04271E+07 4.31369
1.04347E+07 4.31350
1.04424E+07 4.31331
1.04500E+07 4.31313
1.04576E+07 4.31295
1.04652E+07 4.31277
1.04729E+07 4.31259
1.04805E+07 4.31242
1.04881E+07 4.31225
1.04941E+07 4.31211
1.05000E+07 4.31197
1.05069E+07 4.31181
1.05139E+07 4.31165
1.05208E+07 4.31149
1.05277E+07 4.31133
1.05346E+07 4.31118
1.05415E+07 4.31103
1.05485E+07 4.31088
1.05554E+07 4.31073
1.05623E+07 4.31059
1.05692E+07 4.31044
1.05762E+07 4.31030
1.05831E+07 4.31016
1.05900E+07 4.31003
1.05969E+07 4.30989
1.06038E+07 4.30976
1.06108E+07 4.30963
1.06177E+07 4.30950
1.06246E+07 4.30938
1.06315E+07 4.30926
1.06384E+07 4.30913
1.06454E+07 4.30901
1.06523E+07 4.30890
1.06592E+07 4.30878
1.06661E+07 4.30867
1.06731E+07 4.30856
1.06800E+07 4.30845
1.06869E+07 4.30834
1.06938E+07 4.30824
1.07007E+07 4.30813
1.07077E+07 4.30803
1.07146E+07 4.30794
1.07215E+07 4.30784
1.07302E+07 4.30772
1.07389E+07 4.30761
1.07476E+07 4.30750
1.07563E+07 4.30739
1.07650E+07 4.30728
1.07737E+07 4.30718
1.07824E+07 4.30708
1.07911E+07 4.30699
1.07998E+07 4.30690
1.08085E+07 4.30681
1.08172E+07 4.30673
1.08259E+07 4.30664
1.08347E+07 4.30656
1.08434E+07 4.30649
1.08521E+07 4.30642
1.08608E+07 4.30635
1.08695E+07 4.30628
1.08782E+07 4.30622
1.08869E+07 4.30616
1.08956E+07 4.30611
1.09043E+07 4.30606
1.09130E+07 4.30601
1.09217E+07 4.30596
1.09304E+07 4.30592
1.09391E+07 4.30588
1.09478E+07 4.30584
1.09565E+07 4.30581
1.09652E+07 4.30578
1.09739E+07 4.30575
1.09826E+07 4.30573
1.09913E+07 4.30571
1.10000E+07 4.30569
1.10093E+07 4.30503
1.10186E+07 4.30436
1.10279E+07 4.30370
1.10371E+07 4.30305
1.10464E+07 4.30240
1.10557E+07 4.30175
1.10650E+07 4.30110
1.10743E+07 4.30046
1.10835E+07 4.29982
1.10928E+07 4.29918
1.11021E+07 4.29855
1.11114E+07 4.29792
1.11207E+07 4.29730
1.11299E+07 4.29668
1.11392E+07 4.29606
1.11485E+07 4.29544
1.11548E+07 4.29502
1.11611E+07 4.29461
1.11674E+07 4.29420
1.11737E+07 4.29379
1.11799E+07 4.29338
1.11862E+07 4.29297
1.11925E+07 4.29256
1.11988E+07 4.29216
1.12051E+07 4.29175
1.12114E+07 4.29135
1.12177E+07 4.29095
1.12240E+07 4.29055
1.12302E+07 4.29015
1.12365E+07 4.28976
1.12428E+07 4.28936
1.12491E+07 4.28897
1.12566E+07 4.28850
1.12641E+07 4.28804
1.12716E+07 4.28757
1.12791E+07 4.28711
1.12866E+07 4.28665
1.12941E+07 4.28620
1.13016E+07 4.28574
1.13091E+07 4.28529
1.13166E+07 4.28484
1.13241E+07 4.28439
1.13316E+07 4.28395
1.13391E+07 4.28350
1.13466E+07 4.28306
1.13541E+07 4.28262
1.13616E+07 4.28218
1.13691E+07 4.28175
1.13766E+07 4.28131
1.13841E+07 4.28088
1.13916E+07 4.28045
1.13991E+07 4.28003
1.14066E+07 4.27960
1.14141E+07 4.27918
1.14216E+07 4.27876
1.14291E+07 4.27834
1.14366E+07 4.27792
1.14441E+07 4.27750
1.14516E+07 4.27709
1.14591E+07 4.27668
1.14666E+07 4.27627
1.14741E+07 4.27587
1.14816E+07 4.27546
1.14891E+07 4.27506
1.15000E+07 4.27448
1.15092E+07 4.27399
1.15183E+07 4.27351
1.15274E+07 4.27303
1.15366E+07 4.27256
1.15457E+07 4.27209
1.15549E+07 4.27162
1.15640E+07 4.27115
1.15732E+07 4.27069
1.15823E+07 4.27023
1.15914E+07 4.26977
1.16006E+07 4.26931
1.16097E+07 4.26886
1.16189E+07 4.26841
1.16280E+07 4.26797
1.16372E+07 4.26753
1.16463E+07 4.26709
1.16555E+07 4.26665
1.16646E+07 4.26622
1.16737E+07 4.26579
1.16829E+07 4.26536
1.16920E+07 4.26493
1.17012E+07 4.26451
1.17103E+07 4.26409
1.17195E+07 4.26368
1.17286E+07 4.26327
1.17377E+07 4.26286
1.17469E+07 4.26245
1.17560E+07 4.26205
1.17652E+07 4.26164
1.17743E+07 4.26125
1.17835E+07 4.26085
1.17926E+07 4.26046
1.18025E+07 4.26004
1.18123E+07 4.25962
1.18222E+07 4.25921
1.18321E+07 4.25880
1.18419E+07 4.25839
1.18518E+07 4.25799
1.18616E+07 4.25759
1.18715E+07 4.25719
1.18795E+07 4.25687
1.18876E+07 4.25655
1.18956E+07 4.25624
1.19036E+07 4.25593
1.19117E+07 4.25562
1.19197E+07 4.25531
1.19277E+07 4.25500
1.19358E+07 4.25470
1.19438E+07 4.25439
1.19518E+07 4.25409
1.19599E+07 4.25380
1.19679E+07 4.25350
1.19759E+07 4.25321
1.19839E+07 4.25292
1.19920E+07 4.25263
1.20000E+07 4.25234
1.20000E+07 4.25234
1.20129E+07 4.25119
1.20257E+07 4.25004
1.20386E+07 4.24889
1.20515E+07 4.24775
1.20643E+07 4.24661
1.20772E+07 4.24548
1.20901E+07 4.24435
1.21029E+07 4.24323
1.21158E+07 4.24212
1.21287E+07 4.24101
1.21415E+07 4.23990
1.21544E+07 4.23880
1.21673E+07 4.23770
1.21801E+07 4.23661
1.21930E+07 4.23552
1.22058E+07 4.23444
1.22187E+07 4.23336
1.22316E+07 4.23229
1.22444E+07 4.23122
1.22573E+07 4.23016
1.22702E+07 4.22910
1.22830E+07 4.22805
1.22959E+07 4.22700
1.23087E+07 4.22596
1.23216E+07 4.22492
1.23345E+07 4.22389
1.23473E+07 4.22286
1.23602E+07 4.22183
1.23731E+07 4.22082
1.23859E+07 4.21980
1.23988E+07 4.21879
1.24117E+07 4.21779
1.24245E+07 4.21679
1.24374E+07 4.21579
1.24503E+07 4.21480
1.24631E+07 4.21381
1.24760E+07 4.21283
1.24888E+07 4.21186
1.25017E+07 4.21089
1.25146E+07 4.20992
1.25274E+07 4.20896
1.25403E+07 4.20800
1.25532E+07 4.20705
1.25660E+07 4.20610
1.25789E+07 4.20515
1.25918E+07 4.20422
1.26046E+07 4.20328
1.26175E+07 4.20235
1.26304E+07 4.20143
1.26432E+07 4.20051
1.26561E+07 4.19959
1.26689E+07 4.19868
1.26818E+07 4.19778
1.26947E+07 4.19687
1.27075E+07 4.19598
1.27204E+07 4.19509
1.27333E+07 4.19420
1.27461E+07 4.19332
1.27590E+07 4.19244
1.27719E+07 4.19156
1.27847E+07 4.19069
1.27976E+07 4.18983
1.28104E+07 4.18897
1.28233E+07 4.18812
1.28314E+07 4.18758
1.28419E+07 4.18688
1.28525E+07 4.18619
1.28630E+07 4.18550
1.28736E+07 4.18482
1.28841E+07 4.18413
1.28946E+07 4.18345
1.29052E+07 4.18278
1.29157E+07 4.18211
1.29262E+07 4.18144
1.29368E+07 4.18077
1.29473E+07 4.18010
1.29579E+07 4.17944
1.29684E+07 4.17879
1.29789E+07 4.17813
1.29895E+07 4.17748
1.30000E+07 4.17683
1.30156E+07 4.17503
1.30313E+07 4.17323
1.30469E+07 4.17143
1.30625E+07 4.16965
1.30781E+07 4.16786
1.30938E+07 4.16609
1.31094E+07 4.16432
1.31250E+07 4.16255
1.31406E+07 4.16079
1.31563E+07 4.15904
1.31719E+07 4.15729
1.31875E+07 4.15555
1.32031E+07 4.15381
1.32188E+07 4.15208
1.32344E+07 4.15035
1.32500E+07 4.14863
1.32656E+07 4.14691
1.32813E+07 4.14520
1.32969E+07 4.14350
1.33125E+07 4.14180
1.33281E+07 4.14010
1.33438E+07 4.13841
1.33594E+07 4.13673
1.33750E+07 4.13505
1.33906E+07 4.13338
1.34063E+07 4.13171
1.34219E+07 4.13005
1.34375E+07 4.12840
1.34531E+07 4.12674
1.34688E+07 4.12510
1.34844E+07 4.12346
1.35000E+07 4.12183
1.35259E+07 4.11913
1.35517E+07 4.11645
1.35776E+07 4.11379
1.36035E+07 4.11114
1.36293E+07 4.10850
1.36552E+07 4.10588
1.36810E+07 4.10327
1.37069E+07 4.10068
1.37228E+07 4.09909
1.37387E+07 4.09751
1.37546E+07 4.09593
1.37706E+07 4.09436
1.37865E+07 4.09280
1.38024E+07 4.09124
1.38183E+07 4.08968
1.38342E+07 4.08813
1.38501E+07 4.08659
1.38660E+07 4.08505
1.38819E+07 4.08352
1.38979E+07 4.08199
1.39138E+07 4.08047
1.39297E+07 4.07895
1.39456E+07 4.07744
1.39615E+07 4.07593
1.39800E+07 4.07419
1.39800E+07 4.07419
1.39808E+07 4.07412
1.40000E+07 4.07231
1.40226E+07 4.06918
1.40451E+07 4.06606
1.40677E+07 4.06296
1.40903E+07 4.05986
1.41129E+07 4.05678
1.41354E+07 4.05370
1.41580E+07 4.05063
1.41806E+07 4.04757
1.42031E+07 4.04453
1.42257E+07 4.04149
1.42483E+07 4.03846
1.42708E+07 4.03544
1.42934E+07 4.03243
1.43160E+07 4.02943
1.43385E+07 4.02644
1.43611E+07 4.02346
1.43671E+07 4.02266
1.43694E+07 4.02237
1.43857E+07 4.02022
1.44021E+07 4.01808
1.44184E+07 4.01594
1.44347E+07 4.01381
1.44510E+07 4.01168
1.44674E+07 4.00956
1.44837E+07 4.00744
1.45000E+07 4.00532
1.45009E+07 4.00521
1.45019E+07 4.00508
1.45039E+07 4.00482
1.45058E+07 4.00456
1.45078E+07 4.00430
1.45117E+07 4.00381
1.45156E+07 4.00329
1.45195E+07 4.00279
1.45234E+07 4.00229
1.45312E+07 4.00128
1.45390E+07 4.00027
1.45468E+07 3.99926
1.45625E+07 3.99723
1.45781E+07 3.99522
1.45937E+07 3.99321
1.46094E+07 3.99121
1.46250E+07 3.98921
1.46406E+07 3.98722
1.46562E+07 3.98522
1.46719E+07 3.98323
1.46875E+07 3.98125
1.47031E+07 3.97927
1.47187E+07 3.97730
1.47344E+07 3.97533
1.47500E+07 3.97335
1.47656E+07 3.97140
1.47812E+07 3.96945
1.47969E+07 3.96749
1.48125E+07 3.96554
1.48281E+07 3.96360
1.48438E+07 3.96165
1.48594E+07 3.95972
1.48750E+07 3.95778
1.48962E+07 3.95517
1.49174E+07 3.95258
1.49385E+07 3.94998
1.49597E+07 3.94740
1.49799E+07 3.94495
1.50000E+07 3.94250
1.50232E+07 3.93934
1.50463E+07 3.93619
1.50695E+07 3.93304
1.50926E+07 3.92991
1.51158E+07 3.92678
1.51389E+07 3.92366
1.51621E+07 3.92055
1.51852E+07 3.91744
1.52122E+07 3.91380
1.52393E+07 3.91018
1.52663E+07 3.90656
1.52933E+07 3.90296
1.53204E+07 3.89936
1.53474E+07 3.89578
1.53744E+07 3.89221
1.54015E+07 3.88865
1.54285E+07 3.88509
1.54555E+07 3.88155
1.54826E+07 3.87802
1.55096E+07 3.87450
1.55366E+07 3.87100
1.55636E+07 3.86750
1.55907E+07 3.86401
1.56177E+07 3.86053
1.56321E+07 3.85868
1.56503E+07 3.85634
1.56675E+07 3.85414
1.56847E+07 3.85195
1.57061E+07 3.84923
1.57274E+07 3.84652
1.57461E+07 3.84414
1.57649E+07 3.84177
1.57836E+07 3.83941
1.58024E+07 3.83705
1.58211E+07 3.83469
1.58398E+07 3.83234
1.58586E+07 3.83000
1.58773E+07 3.82766
1.59080E+07 3.82384
1.59387E+07 3.82004
1.59693E+07 3.81625
1.60000E+07 3.81247
1.60341E+07 3.80871
1.60683E+07 3.80495
1.61024E+07 3.80121
1.61365E+07 3.79749
1.61510E+07 3.79591
1.61872E+07 3.79198
1.62234E+07 3.78806
1.62596E+07 3.78415
1.62958E+07 3.78026
1.63186E+07 3.77782
1.63414E+07 3.77538
1.63641E+07 3.77295
1.63869E+07 3.77053
1.64171E+07 3.76733
1.64472E+07 3.76414
1.64792E+07 3.76076
1.65112E+07 3.75740
1.65432E+07 3.75405
1.65752E+07 3.75070
1.66072E+07 3.74737
1.66392E+07 3.74405
1.66712E+07 3.74074
1.67032E+07 3.73744
1.67087E+07 3.73687
1.67104E+07 3.73671
1.67348E+07 3.73420
1.67592E+07 3.73170
1.67836E+07 3.72920
1.68080E+07 3.72672
1.68324E+07 3.72423
1.68568E+07 3.72176
1.68812E+07 3.71929
1.69056E+07 3.71683
1.69528E+07 3.71204
1.69900E+07 3.70828
1.69900E+07 3.70828
1.70000E+07 3.70728
1.70286E+07 3.70509
1.70572E+07 3.70290
1.70858E+07 3.70073
1.71145E+07 3.69856
1.71431E+07 3.69639
1.71717E+07 3.69423
1.72003E+07 3.69208
1.72289E+07 3.68994
1.72426E+07 3.68891
1.72823E+07 3.68595
1.73221E+07 3.68300
1.73618E+07 3.68006
1.74015E+07 3.67714
1.74349E+07 3.67469
1.74683E+07 3.67225
1.75016E+07 3.66981
1.75350E+07 3.66739
1.75684E+07 3.66497
1.76018E+07 3.66257
1.76351E+07 3.66017
1.76685E+07 3.65778
1.77019E+07 3.65539
1.77353E+07 3.65302
1.77686E+07 3.65065
1.78020E+07 3.64830
1.78354E+07 3.64595
1.78688E+07 3.64361
1.79021E+07 3.64127
1.79355E+07 3.63895
1.79355E+07 3.63895
1.79482E+07 3.63804
1.79483E+07 3.63803
1.80000E+07 3.63437
1.80625E+07 3.62986
1.81250E+07 3.62538
1.81875E+07 3.62092
1.82500E+07 3.61649
1.83125E+07 3.61209
1.83750E+07 3.60771
1.84375E+07 3.60336
1.85000E+07 3.59904
1.85625E+07 3.59474
1.86250E+07 3.59047
1.86875E+07 3.58623
1.87500E+07 3.58201
1.88125E+07 3.57783
1.88750E+07 3.57366
1.89375E+07 3.56953
1.90000E+07 3.56542
1.90625E+07 3.56116
1.91250E+07 3.55692
1.91875E+07 3.55270
1.92500E+07 3.54851
1.93125E+07 3.54434
1.93750E+07 3.54019
1.94375E+07 3.53607
1.95000E+07 3.53197
1.95625E+07 3.52789
1.96250E+07 3.52384
1.96875E+07 3.51981
1.97500E+07 3.51580
1.98125E+07 3.51181
1.98750E+07 3.50785
1.99375E+07 3.50391
2.00000E+07 3.50000
