Ru-101(n,g) ENDFB-8.0
Energy(eV) XS(b)
1.00000E-05 262.417
1.03125E-05 258.410
1.06250E-05 254.582
1.09375E-05 250.918
1.12500E-05 247.409
1.15625E-05 244.043
1.18750E-05 240.810
1.21875E-05 237.703
1.25000E-05 234.713
1.28125E-05 231.833
1.31250E-05 229.056
1.34375E-05 226.377
1.37500E-05 223.790
1.43750E-05 218.871
1.50000E-05 214.263
1.56250E-05 209.934
1.62500E-05 205.857
1.68750E-05 202.009
1.75000E-05 198.369
1.81250E-05 194.918
1.87500E-05 191.642
1.93750E-05 188.526
2.00000E-05 185.557
2.09375E-05 181.355
2.18750E-05 177.426
2.28125E-05 173.742
2.37500E-05 170.279
2.46875E-05 167.014
2.56250E-05 163.931
2.65625E-05 161.012
2.75000E-05 158.243
2.84375E-05 155.613
2.93750E-05 153.110
3.03125E-05 150.724
3.12500E-05 148.446
3.21875E-05 146.268
3.31250E-05 144.183
3.40625E-05 142.185
3.50000E-05 140.268
3.59375E-05 138.426
3.68750E-05 136.655
3.78125E-05 134.951
3.87500E-05 133.308
3.96875E-05 131.724
4.06250E-05 130.195
4.25000E-05 127.291
4.43750E-05 124.573
4.62500E-05 122.022
4.81250E-05 119.621
5.00000E-05 117.357
5.15625E-05 115.565
5.31250E-05 113.853
5.46875E-05 112.214
5.62500E-05 110.645
5.78125E-05 109.140
5.93750E-05 107.694
6.09375E-05 106.304
6.25000E-05 104.967
6.40625E-05 103.679
6.56250E-05 102.437
6.71875E-05 101.239
6.87500E-05 100.082
7.18750E-05 97.8823
7.50000E-05 95.8214
7.81250E-05 93.8854
8.12500E-05 92.0622
8.43750E-05 90.3413
8.75000E-05 88.7134
9.06250E-05 87.1705
9.37500E-05 85.7053
9.68750E-05 84.3117
0.000100000 82.9839
0.000103125 81.7169
0.000106250 80.5062
0.000109375 79.3478
0.000112500 78.2380
0.000115625 77.1735
0.000118750 76.1513
0.000121875 75.1687
0.000125000 74.2231
0.000128125 73.3124
0.000131250 72.4344
0.000134375 71.5872
0.000137500 70.7690
0.000143750 69.2135
0.000150000 67.7562
0.000156250 66.3873
0.000162500 65.0981
0.000168750 63.8812
0.000175000 62.7302
0.000181250 61.6391
0.000187500 60.6031
0.000193750 59.6177
0.000200000 58.6788
0.000209375 57.3501
0.000218750 56.1077
0.000228125 54.9427
0.000237500 53.8474
0.000246875 52.8152
0.000256250 51.8401
0.000265625 50.9170
0.000275000 50.0416
0.000284375 49.2099
0.000293750 48.4183
0.000303125 47.6637
0.000312500 46.9433
0.000321875 46.2546
0.000331250 45.5954
0.000340625 44.9636
0.000350000 44.3574
0.000359375 43.7750
0.000368750 43.2150
0.000378125 42.6759
0.000387500 42.1565
0.000396875 41.6557
0.000406250 41.1722
0.000425000 40.2538
0.000443750 39.3942
0.000462500 38.5875
0.000481250 37.8284
0.000500000 37.1123
0.000515625 36.5457
0.000531250 36.0043
0.000546875 35.4863
0.000562500 34.9900
0.000578125 34.5139
0.000593750 34.0568
0.000609375 33.6174
0.000625000 33.1945
0.000640625 32.7873
0.000656250 32.3946
0.000671875 32.0158
0.000687500 31.6499
0.000718750 30.9542
0.000750000 30.3026
0.000781250 29.6904
0.000812500 29.1139
0.000843750 28.5697
0.000875000 28.0549
0.000906250 27.5670
0.000937500 27.1037
0.000968750 26.6631
0.00100000 26.2432
0.00103125 25.8426
0.00106250 25.4597
0.00109375 25.0934
0.00112500 24.7425
0.00115625 24.4059
0.00118750 24.0827
0.00121875 23.7720
0.00125000 23.4730
0.00128125 23.1850
0.00131250 22.9074
0.00134375 22.6395
0.00137500 22.3808
0.00143750 21.8889
0.00150000 21.4281
0.00156250 20.9953
0.00162500 20.5876
0.00168750 20.2028
0.00175000 19.8389
0.00181250 19.4939
0.00187500 19.1663
0.00193750 18.8547
0.00200000 18.5578
0.00209375 18.1377
0.00218750 17.7448
0.00228125 17.3765
0.00237500 17.0301
0.00246875 16.7037
0.00256250 16.3954
0.00265625 16.1035
0.00275000 15.8268
0.00284375 15.5638
0.00293750 15.3135
0.00303125 15.0749
0.00312500 14.8471
0.00321875 14.6293
0.00331250 14.4209
0.00340625 14.2211
0.00350000 14.0295
0.00359375 13.8453
0.00368750 13.6683
0.00378125 13.4978
0.00387500 13.3336
0.00396875 13.1753
0.00406250 13.0224
0.00425000 12.7320
0.00443750 12.4603
0.00462500 12.2052
0.00481250 11.9652
0.00500000 11.7388
0.00515625 11.5597
0.00531250 11.3886
0.00546875 11.2248
0.00562500 11.0679
0.00578125 10.9174
0.00593750 10.7729
0.00609375 10.6340
0.00625000 10.5003
0.00640625 10.3715
0.00656250 10.2474
0.00671875 10.1276
0.00687500 10.0120
0.00718750 9.79209
0.00750000 9.58608
0.00781250 9.39256
0.00812500 9.21032
0.00843750 9.03830
0.00875000 8.87558
0.00906250 8.72135
0.00937500 8.57490
0.00968750 8.43560
0.0100000 8.30288
0.0103125 8.17625
0.0106250 8.05525
0.0109375 7.93948
0.0112500 7.82857
0.0115625 7.72219
0.0118750 7.62004
0.0121875 7.52185
0.0125000 7.42737
0.0128125 7.33637
0.0131250 7.24864
0.0134375 7.16399
0.0137500 7.08225
0.0143750 6.92683
0.0150000 6.78123
0.0156250 6.64446
0.0162500 6.51565
0.0168750 6.39407
0.0175000 6.27906
0.0181250 6.17005
0.0187500 6.06654
0.0193750 5.96808
0.0200000 5.87428
0.0206625 5.77954
0.0213250 5.68925
0.0219875 5.60308
0.0226500 5.52072
0.0233125 5.44190
0.0239750 5.36638
0.0246375 5.29393
0.0253000 5.22434
0.0264578 5.10908
0.0276156 5.00116
0.0287734 4.89984
0.0299313 4.80447
0.0310891 4.71449
0.0322469 4.62941
0.0334047 4.54879
0.0345625 4.47227
0.0355274 4.41137
0.0364922 4.35290
0.0374570 4.29671
0.0384219 4.24264
0.0393867 4.19058
0.0403516 4.14039
0.0413164 4.09197
0.0422813 4.04521
0.0442109 3.95635
0.0461406 3.87313
0.0480703 3.79498
0.0500000 3.72141
0.0515625 3.66490
0.0531250 3.61091
0.0546875 3.55925
0.0562500 3.50976
0.0578125 3.46231
0.0593750 3.41675
0.0609375 3.37296
0.0625000 3.33083
0.0640625 3.29026
0.0656250 3.25115
0.0671875 3.21343
0.0687500 3.17700
0.0718750 3.10775
0.0750000 3.04287
0.0781250 2.98191
0.0812500 2.92451
0.0843750 2.87032
0.0875000 2.81908
0.0906250 2.77052
0.0937500 2.72442
0.0968750 2.68057
0.100000 2.63881
0.103125 2.59897
0.106250 2.56090
0.109375 2.52449
0.112500 2.48961
0.115625 2.45616
0.118750 2.42405
0.121875 2.39319
0.125000 2.36351
0.128125 2.33492
0.131250 2.30738
0.134375 2.28082
0.137500 2.25517
0.143750 2.20642
0.150000 2.16074
0.156250 2.11783
0.162500 2.07742
0.168750 2.03930
0.175000 2.00325
0.181250 1.96910
0.187500 1.93669
0.193750 1.90589
0.200000 1.87657
0.209375 1.83508
0.218750 1.79629
0.228125 1.75992
0.237500 1.72575
0.246875 1.69356
0.256250 1.66317
0.265625 1.63443
0.275000 1.60719
0.284375 1.58132
0.293750 1.55671
0.303125 1.53328
0.312500 1.51092
0.321875 1.48955
0.331250 1.46912
0.340625 1.44954
0.350000 1.43077
0.359375 1.41275
0.368750 1.39544
0.378125 1.37879
0.387500 1.36276
0.396875 1.34732
0.406250 1.33244
0.425000 1.30419
0.443750 1.27775
0.462500 1.25296
0.500000 1.20780
0.531250 1.17398
0.562500 1.14301
0.625000 1.08840
0.687500 1.04167
0.750000 1.00113
0.812500 0.965556
0.875000 0.934143
0.937500 0.906089
1.00000 0.880776
1.06250 0.857881
1.12500 0.837064
1.25000 0.800603
1.37500 0.769706
1.50000 0.743195
1.62500 0.720214
1.75000 0.700181
1.87500 0.682554
2.00000 0.666888
2.18750 0.646602
2.37500 0.629516
2.56250 0.615047
2.75000 0.602810
2.93750 0.592446
3.12500 0.583670
3.31250 0.576325
3.50000 0.570257
3.87500 0.561477
4.25000 0.556606
4.43750 0.555486
4.71875 0.555358
5.00000 0.556980
5.31250 0.560812
5.62500 0.566721
5.93750 0.574766
6.25000 0.585031
6.56250 0.597642
6.87500 0.612780
7.18750 0.630680
7.50000 0.651641
7.81250 0.676043
8.12500 0.704354
8.43750 0.737160
8.75000 0.775051
8.90625 0.796163
9.06250 0.819054
9.21875 0.843762
9.37500 0.870456
9.53125 0.899331
9.68750 0.930605
9.84375 0.964529
10.0000 1.00151
10.1781 1.04766
10.3562 1.09850
10.5343 1.15426
10.7124 1.21668
10.8905 1.28629
11.0686 1.36416
11.2466 1.45165
11.3357 1.49949
11.4247 1.55038
11.5754 1.64417
11.7261 1.74894
11.8768 1.86647
11.9522 1.93069
12.0275 1.99896
12.1028 2.07165
12.1782 2.14914
12.2535 2.23191
12.3289 2.32044
12.4042 2.41534
12.4796 2.51726
12.5549 2.62698
12.6303 2.74529
12.7125 2.88524
12.7947 3.03833
12.8769 3.20723
12.9590 3.39489
13.0412 3.60548
13.0823 3.72136
13.1234 3.84586
13.1645 3.98081
13.2056 4.12884
13.2467 4.29407
13.2878 4.48304
13.3152 4.62713
13.3426 4.79026
13.3700 4.97701
13.3974 5.19165
13.4248 5.43712
13.4522 5.71261
13.5070 6.32281
13.5303 6.58271
13.5535 6.82660
13.5768 7.04437
13.6000 7.23012
13.6116 7.31083
13.6344 7.44846
13.6571 7.56808
13.7026 7.81465
13.7291 8.00624
13.7423 8.12473
13.7556 8.26072
13.7688 8.41525
13.7820 8.58798
13.8085 8.98280
13.8626 9.89650
13.8897 10.3224
13.9032 10.5074
13.9168 10.6673
13.9342 10.8312
13.9516 10.9441
13.9633 10.9911
13.9797 11.0216
13.9960 11.0154
14.0288 10.9266
14.0616 10.7998
14.0944 10.7046
14.1105 10.6848
14.1266 10.6875
14.1427 10.7142
14.1588 10.7655
14.1749 10.8410
14.1910 10.9394
14.2233 11.1997
14.2555 11.5348
14.2877 11.9349
14.3199 12.3933
14.3521 12.9064
14.3859 13.5021
14.4196 14.1581
14.4534 14.8780
14.4871 15.6665
14.5209 16.5300
14.5546 17.4763
14.5884 18.5148
14.6221 19.6566
14.6559 20.9154
14.6896 22.3062
14.7234 23.8479
14.7571 25.5628
14.7740 26.4937
14.7909 27.4782
14.8078 28.5206
14.8247 29.6249
14.8415 30.7974
14.8584 32.0424
14.8753 33.3676
14.8922 34.7783
14.9182 37.1480
14.9443 39.7744
14.9704 42.6974
14.9834 44.2845
14.9965 45.9641
15.0095 47.7437
15.0226 49.6315
15.0356 51.6365
15.0486 53.7689
15.0617 56.0399
15.0747 58.4619
15.0878 61.0489
15.1008 63.8164
15.1162 67.3294
15.1315 71.1467
15.1468 75.3080
15.1622 79.8564
15.1775 84.8424
15.1929 90.3249
15.2082 96.3732
15.2235 103.069
15.2320 107.064
15.2404 111.302
15.2489 115.804
15.2573 120.592
15.2657 125.692
15.2742 131.129
15.2826 136.935
15.2910 143.136
15.2995 149.783
15.3079 156.910
15.3164 164.562
15.3248 172.778
15.3332 181.633
15.3417 191.178
15.3501 201.477
15.3585 212.590
15.3639 220.135
15.3693 228.067
15.3747 236.409
15.3800 245.185
15.3854 254.418
15.3908 264.135
15.3961 274.361
15.4015 285.123
15.4069 296.451
15.4122 308.371
15.4176 320.914
15.4230 334.108
15.4284 347.983
15.4337 362.568
15.4391 377.892
15.4445 393.984
15.4529 420.894
15.4613 449.867
15.4698 480.993
15.4782 514.304
15.4867 549.931
15.4951 587.866
15.5035 628.106
15.5120 670.564
15.5204 715.265
15.5288 762.043
15.5373 810.730
15.5457 861.049
15.5542 912.850
15.5626 965.751
15.5710 1019.38
15.5795 1073.24
15.5961 1178.57
15.6127 1279.11
15.6211 1326.27
15.6294 1370.59
15.6377 1411.53
15.6460 1448.52
15.6528 1475.36
15.6595 1499.05
15.6663 1519.40
15.6730 1536.20
15.6798 1549.30
15.6865 1558.57
15.6933 1563.94
15.7000 1565.34
15.7090 1561.02
15.7180 1549.73
15.7270 1531.64
15.7360 1507.07
15.7450 1476.43
15.7540 1440.21
15.7630 1399.01
15.7720 1353.44
15.7810 1304.18
15.7900 1251.94
15.8038 1167.50
15.8176 1080.14
15.8315 992.140
15.8453 905.565
15.8566 836.911
15.8679 771.070
15.8792 708.539
15.8904 649.714
15.9017 594.846
15.9130 544.053
15.9243 497.345
15.9300 475.481
15.9356 454.638
15.9413 434.723
15.9469 415.780
15.9525 397.716
15.9582 380.566
15.9638 364.237
15.9695 348.755
15.9751 334.034
15.9808 320.090
15.9864 306.841
15.9921 294.301
15.9977 282.393
16.0033 271.124
16.0090 260.425
16.0146 250.301
16.0203 240.704
16.0259 231.604
16.0372 214.775
16.0485 199.622
16.0598 185.958
16.0711 173.614
16.0824 162.439
16.0937 152.300
16.1049 143.079
16.1162 134.674
16.1270 127.326
16.1378 120.569
16.1486 114.342
16.1593 108.597
16.1701 103.275
16.1809 98.3410
16.1917 93.7574
16.2025 89.4954
16.2132 85.5182
16.2240 81.8040
16.2348 78.3300
16.2456 75.0784
16.2563 72.0250
16.2671 69.1589
16.2779 66.4601
16.2887 63.9204
16.3000 61.4106
16.3113 59.0494
16.3225 56.8231
16.3338 54.7216
16.3451 52.7356
16.3564 50.8567
16.3790 47.3905
16.4016 44.2696
16.4242 41.4492
16.4467 38.8919
16.4693 36.5656
16.4847 35.0975
16.5001 33.7176
16.5155 32.4171
16.5309 31.1917
16.5463 30.0342
16.5617 28.9410
16.5925 26.9265
16.6233 25.1161
16.6541 23.4828
16.6848 22.0041
16.7156 20.6609
16.7382 19.7526
16.7608 18.9029
16.7834 18.1071
16.8060 17.3605
16.8285 16.6592
16.8511 15.9997
16.8737 15.3787
16.8963 14.7933
16.9189 14.2408
16.9414 13.7188
16.9866 12.7575
17.0318 11.8942
17.0769 11.1160
17.1221 10.4121
17.1672 9.77320
17.2124 9.19168
17.2576 8.66085
17.3027 8.17501
17.3479 7.72926
17.3930 7.31939
17.4382 6.94171
17.4793 6.62350
17.5203 6.32703
17.5614 6.05015
17.6024 5.79123
17.6435 5.54860
17.6845 5.32105
17.7256 5.10730
17.7666 4.90637
17.8077 4.71720
17.8487 4.53898
17.8898 4.37082
17.9309 4.21204
18.0130 3.91984
18.0951 3.65766
18.1402 3.52480
18.1854 3.39924
18.2757 3.16796
18.3660 2.96019
18.4564 2.77286
18.5467 2.60340
18.6370 2.44961
18.7273 2.30963
18.8176 2.18188
18.8833 2.09586
18.9490 2.01511
19.0147 1.93922
19.0804 1.86786
19.1461 1.80071
19.2118 1.73745
19.3431 1.62120
19.4745 1.51688
19.6059 1.42312
19.7373 1.33860
19.8686 1.26219
20.0000 1.19295
20.1067 1.14136
20.2134 1.09346
20.3202 1.04893
20.4269 1.00750
20.5336 0.968898
20.6403 0.932876
20.7470 0.899218
20.8537 0.867729
20.9604 0.838232
21.0671 0.810576
21.2806 0.760224
21.4940 0.715691
21.7074 0.676183
21.9208 0.641036
22.1343 0.609714
22.3477 0.581774
22.5611 0.556863
22.7746 0.534705
22.9880 0.515114
23.2014 0.498005
23.4148 0.483448
23.6477 0.470869
23.7641 0.466158
23.8805 0.462795
23.9581 0.461534
24.0357 0.461316
24.1060 0.462272
24.1764 0.464657
24.2467 0.468960
24.3170 0.475955
24.3522 0.480835
24.3874 0.486931
24.4225 0.494554
24.4577 0.504126
24.4929 0.516242
24.5280 0.531740
24.5456 0.541122
24.5632 0.551841
24.5808 0.564148
24.5984 0.578338
24.6214 0.600398
24.6329 0.613181
24.6445 0.627326
24.6560 0.642999
24.6675 0.660384
24.6790 0.679684
24.6905 0.701120
24.7021 0.724931
24.7136 0.751370
24.7251 0.780706
24.7366 0.813213
24.7481 0.849170
24.7597 0.888852
24.7712 0.932521
24.7827 0.980416
24.7960 1.04142
24.8094 1.10859
24.8227 1.18205
24.8361 1.26175
24.8494 1.34748
24.8627 1.43882
24.8761 1.53511
24.8894 1.63537
24.9209 1.88149
24.9367 2.00430
24.9525 2.12294
24.9706 2.25024
24.9888 2.36247
24.9979 2.41141
25.0070 2.45474
25.0161 2.49205
25.0251 2.52282
25.0339 2.54591
25.0426 2.56239
25.0513 2.57209
25.0600 2.57489
25.0695 2.57011
25.0789 2.55725
25.0884 2.53650
25.0978 2.50815
25.1072 2.47252
25.1167 2.43015
25.1261 2.38148
25.1356 2.32723
25.1508 2.22927
25.1661 2.12124
25.1814 2.00617
25.1966 1.88704
25.2293 1.63065
25.2457 1.50746
25.2620 1.39062
25.2770 1.29023
25.2920 1.19721
25.3070 1.11189
25.3220 1.03441
25.3370 0.964626
25.3520 0.902238
25.3670 0.846796
25.3820 0.797763
25.3949 0.760115
25.4079 0.726427
25.4208 0.696317
25.4338 0.669438
25.4467 0.645400
25.4596 0.623919
25.4726 0.604669
25.4855 0.587413
25.4985 0.571886
25.5114 0.557894
25.5244 0.545248
25.5373 0.533796
25.5632 0.513885
25.5891 0.497232
25.6082 0.486631
25.6273 0.477200
25.6654 0.461170
25.7036 0.448078
25.7417 0.437194
25.7799 0.428010
25.8181 0.420157
25.8562 0.413366
25.8944 0.407431
25.9707 0.397535
26.0470 0.389599
26.1233 0.383085
26.1996 0.377639
26.3305 0.370053
26.4613 0.363993
26.5921 0.359040
26.7230 0.354928
26.9846 0.348625
27.2463 0.343910
27.5079 0.340455
27.7696 0.338017
28.0312 0.336436
28.2929 0.335630
28.7726 0.335987
29.2523 0.338525
29.7320 0.343197
30.2117 0.350047
30.6914 0.359164
31.1711 0.370775
31.6508 0.385155
31.8907 0.393502
32.1305 0.402693
32.4576 0.416752
32.7847 0.432769
33.1117 0.451036
33.4388 0.471881
33.7659 0.495706
33.9294 0.509083
34.0929 0.523540
34.2565 0.539228
34.4200 0.556345
34.5835 0.575162
34.7471 0.596060
34.8670 0.613017
34.9869 0.631672
35.1069 0.652474
35.2268 0.676198
35.3467 0.704046
35.4067 0.720069
35.4666 0.737948
35.5266 0.758211
35.5866 0.781610
35.6465 0.809276
35.6765 0.825219
35.7065 0.842956
35.7392 0.864823
35.7719 0.889986
35.8046 0.919390
35.8373 0.954331
35.8659 0.990879
35.8802 1.01176
35.8945 1.03472
35.9089 1.06003
35.9232 1.08803
35.9375 1.11910
35.9518 1.15365
35.9661 1.19217
35.9804 1.23515
35.9947 1.28317
36.0090 1.33683
36.0233 1.39676
36.0376 1.46363
36.0520 1.53809
36.0663 1.62078
36.0813 1.71690
36.0962 1.82333
36.1112 1.94055
36.1262 2.06888
36.1412 2.20838
36.1562 2.35888
36.1712 2.51984
36.1862 2.69041
36.2066 2.93622
36.2271 3.19291
36.2680 3.71466
36.2831 3.90157
36.2983 4.07947
36.3135 4.24478
36.3286 4.39400
36.3475 4.55232
36.3570 4.61844
36.3664 4.67493
36.3759 4.72141
36.3853 4.75735
36.3948 4.78249
36.4042 4.79656
36.4100 4.79967
36.4195 4.79570
36.4289 4.78060
36.4384 4.75455
36.4478 4.71788
36.4572 4.67089
36.4667 4.61416
36.4856 4.47361
36.5061 4.28581
36.5265 4.06918
36.5470 3.83226
36.5675 3.58373
36.6119 3.04335
36.6340 2.78838
36.6562 2.55158
36.6753 2.36454
36.6945 2.19511
36.7041 2.11712
36.7136 2.04373
36.7232 1.97472
36.7328 1.91014
36.7424 1.84974
36.7519 1.79352
36.7615 1.74119
36.7711 1.69270
36.7807 1.64774
36.7902 1.60624
36.8094 1.53265
36.8255 1.47948
36.8457 1.42289
36.8658 1.37579
36.8860 1.33671
36.9061 1.30437
36.9263 1.27764
36.9464 1.25562
36.9666 1.23750
36.9868 1.22266
37.0271 1.20077
37.0674 1.18680
37.1077 1.17864
37.1480 1.17487
37.2004 1.17497
37.2528 1.17945
37.3052 1.18737
37.3576 1.19812
37.4624 1.22656
37.5673 1.26273
37.6721 1.30574
37.7769 1.35558
37.8817 1.41331
37.9341 1.44586
37.9865 1.48154
38.0389 1.52127
38.0913 1.56651
38.1437 1.61975
38.1699 1.65057
38.1961 1.68508
38.2223 1.72416
38.2485 1.76879
38.2747 1.82013
38.3009 1.87938
38.3272 1.94773
38.3534 2.02610
38.3796 2.11511
38.4058 2.21474
38.4299 2.31546
38.4541 2.42312
38.5025 2.64965
38.5464 2.84915
38.5683 2.93885
38.5903 3.01768
38.6135 3.08638
38.6397 3.14228
38.6527 3.16101
38.6658 3.17340
38.6862 3.18012
38.7065 3.17212
38.7298 3.14653
38.7481 3.11554
38.7665 3.07679
38.8104 2.96363
38.8543 2.84134
38.8982 2.73068
38.9201 2.68420
38.9421 2.64495
38.9691 2.60715
39.0028 2.57602
39.0366 2.56149
39.0703 2.56133
39.1041 2.57313
39.1378 2.59458
39.1716 2.62378
39.2391 2.69970
39.3066 2.79305
39.3741 2.90000
39.4417 3.01899
39.5092 3.14962
39.5834 3.30707
39.6577 3.47973
39.7320 3.66896
39.8062 3.87637
39.8805 4.10409
39.9548 4.35453
40.0290 4.63069
40.1033 4.93601
40.1776 5.27471
40.2518 5.65168
40.2890 5.85640
40.3261 6.07297
40.3632 6.30238
40.4003 6.54566
40.4375 6.80403
40.4746 7.07861
40.5117 7.37086
40.5489 7.68234
40.5860 8.01486
40.6231 8.37017
40.6603 8.75050
40.6974 9.15827
40.7447 9.72132
40.7919 10.3398
40.8392 11.0213
40.8864 11.7749
40.9337 12.6115
40.9810 13.5438
41.0046 14.0505
41.0282 14.5873
41.0519 15.1564
41.0755 15.7607
41.1126 16.7888
41.1498 17.9242
41.1869 19.1829
41.2240 20.5841
41.2426 21.3452
41.2612 22.1509
41.2797 23.0047
41.2983 23.9103
41.3169 24.8729
41.3354 25.8967
41.3540 26.9881
41.3725 28.1523
41.3928 29.5150
41.4131 30.9830
41.4333 32.5694
41.4536 34.2861
41.4806 36.8075
41.4941 38.1791
41.5076 39.6335
41.5211 41.1788
41.5346 42.8209
41.5481 44.5700
41.5616 46.4360
41.5751 48.4319
41.5886 50.5677
41.6021 52.8593
41.6156 55.3233
41.6291 57.9806
41.6426 60.8487
41.6561 63.9541
41.6696 67.3249
41.6789 69.8151
41.6882 72.4548
41.6975 75.2625
41.7067 78.2462
41.7160 81.4277
41.7253 84.8170
41.7346 88.4358
41.7439 92.3040
41.7532 96.4482
41.7624 100.883
41.7717 105.639
41.7810 110.744
41.7903 116.234
41.7996 122.130
41.8089 128.473
41.8181 135.299
41.8245 140.253
41.8308 145.464
41.8371 150.945
41.8435 156.711
41.8498 162.777
41.8561 169.157
41.8624 175.867
41.8688 182.924
41.8751 190.344
41.8814 198.142
41.8878 206.337
41.8941 214.945
41.9004 223.984
41.9068 233.469
41.9131 243.419
41.9194 253.834
41.9287 270.048
41.9380 287.366
41.9473 305.852
41.9565 325.550
41.9658 346.523
41.9751 368.758
41.9844 392.304
41.9937 417.179
42.0030 443.421
42.0122 470.971
42.0215 499.875
42.0308 530.045
42.0401 561.504
42.0494 594.131
42.0587 627.887
42.0679 662.685
42.0772 698.462
42.0865 735.018
42.1051 810.022
42.1236 886.483
42.1422 962.790
42.1625 1043.93
42.1827 1120.42
42.1937 1159.12
42.2047 1195.31
42.2157 1228.67
42.2266 1258.78
42.2436 1298.15
42.2605 1328.04
42.2774 1347.62
42.2859 1353.36
42.2944 1356.34
42.3000 1356.79
42.3113 1353.97
42.3205 1348.06
42.3296 1338.97
42.3388 1326.76
42.3480 1311.54
42.3572 1293.43
42.3663 1272.58
42.3755 1249.15
42.3847 1223.34
42.3973 1184.30
42.4099 1141.66
42.4225 1096.01
42.4351 1047.94
42.4597 949.312
42.4844 848.065
42.5057 761.422
42.5269 677.759
42.5376 637.577
42.5482 598.721
42.5589 561.327
42.5695 525.533
42.5818 486.110
42.5941 448.978
42.6064 414.179
42.6188 381.744
42.6311 351.593
42.6434 323.702
42.6557 297.994
42.6680 274.395
42.6803 252.759
42.6927 232.992
42.7050 214.971
42.7173 198.586
42.7296 183.685
42.7419 170.161
42.7543 157.896
42.7666 146.786
42.7789 136.705
42.7912 127.564
42.8035 119.270
42.8158 111.744
42.8282 104.895
42.8405 98.6594
42.8528 92.9734
42.8651 87.7830
42.8774 83.0285
42.8897 78.6680
42.9021 74.6607
42.9144 70.9728
42.9267 67.5660
42.9390 64.4149
42.9513 61.4940
42.9636 58.7829
42.9760 56.2575
42.9883 53.9022
43.0006 51.7016
43.0129 49.6417
43.0252 47.7101
43.0376 45.8960
43.0499 44.1893
43.0622 42.5827
43.0745 41.0657
43.0868 39.6325
43.1115 36.9928
43.1361 34.6195
43.1607 32.4775
43.1775 31.1329
43.1943 29.8732
43.2111 28.6911
43.2279 27.5808
43.2447 26.5353
43.2615 25.5500
43.2783 24.6203
43.2951 23.7424
43.3287 22.1246
43.3623 20.6713
43.3959 19.3600
43.4295 18.1724
43.4541 17.3709
43.4788 16.6227
43.5034 15.9226
43.5280 15.2671
43.5527 14.6518
43.5773 14.0739
43.6019 13.5301
43.6266 13.0181
43.6512 12.5350
43.6758 12.0791
43.7251 11.2402
43.7744 10.4876
43.8237 9.80976
43.8729 9.19694
43.9222 8.64126
43.9715 8.13572
44.0207 7.67446
44.0700 7.25238
44.1193 6.86532
44.1686 6.50946
44.2178 6.18152
44.2649 5.89183
44.3119 5.62283
44.3589 5.37252
44.4060 5.13919
44.4530 4.92132
44.5000 4.71759
44.5471 4.52681
44.5941 4.34794
44.6411 4.18001
44.6881 4.02217
44.7352 3.87363
44.7822 3.73370
44.8292 3.60173
44.8763 3.47715
44.9703 3.24803
45.0689 3.03341
45.1674 2.84134
45.2660 2.66887
45.3645 2.51356
45.4631 2.37335
45.5616 2.24653
45.6601 2.13166
45.7587 2.02756
45.8572 1.93327
45.9558 1.84811
46.0543 1.77167
46.1528 1.70390
46.2514 1.64543
46.3499 1.59823
46.3992 1.58024
46.4485 1.56748
46.4977 1.56199
46.5224 1.56290
46.5470 1.56695
46.5829 1.57982
46.6187 1.60321
46.6366 1.61976
46.6545 1.64006
46.6724 1.66453
46.6904 1.69355
46.7083 1.72751
46.7262 1.76669
46.7463 1.81734
46.7665 1.87508
46.7867 1.93984
46.8068 2.01123
46.8270 2.08865
46.8471 2.17099
46.8874 2.34463
46.9351 2.54683
46.9590 2.63725
46.9828 2.71492
47.0003 2.76138
47.0235 2.80721
47.0468 2.83232
47.0584 2.83656
47.0700 2.83512
47.0816 2.82794
47.0933 2.81510
47.1165 2.77284
47.1398 2.71001
47.1594 2.64265
47.1791 2.56434
47.1988 2.47730
47.2184 2.38391
47.2794 2.07870
47.3099 1.93085
47.3403 1.79380
47.3680 1.68133
47.3819 1.62988
47.3957 1.58176
47.4096 1.53690
47.4235 1.49531
47.4373 1.45686
47.4512 1.42143
47.4733 1.37064
47.4969 1.32392
47.5204 1.28380
47.5440 1.24937
47.5675 1.21979
47.5911 1.19427
47.6146 1.17213
47.6382 1.15280
47.6617 1.13578
47.7088 1.10712
47.7559 1.08375
47.8030 1.06411
47.8501 1.04719
47.9443 1.01911
48.0385 0.996459
48.1327 0.977732
48.2269 0.962112
48.3155 0.949811
48.4042 0.939566
48.5815 0.924553
48.7588 0.916282
48.9361 0.914716
49.0580 0.917792
49.1799 0.924588
49.3018 0.935446
49.4237 0.950806
49.5457 0.971275
49.6676 0.997655
49.7895 1.03099
49.8504 1.05068
49.9114 1.07265
50.0000 1.10920
50.0868 1.15107
50.1737 1.20004
50.2605 1.25742
50.3039 1.28978
50.3473 1.32490
50.3907 1.36306
50.4342 1.40458
50.4776 1.44983
50.5210 1.49922
50.5644 1.55325
50.6078 1.61245
50.6512 1.67749
50.6946 1.74913
50.7381 1.82830
50.7815 1.91600
50.8249 2.01352
50.8683 2.12236
50.9117 2.24433
50.9551 2.38156
50.9985 2.53674
51.0202 2.62209
51.0419 2.71318
51.0617 2.80152
51.0814 2.89549
51.1011 2.99572
51.1209 3.10266
51.1406 3.21706
51.1603 3.33953
51.1801 3.47096
51.1998 3.61226
51.2195 3.76458
51.2393 3.92898
51.2590 4.10705
51.2787 4.30021
51.2985 4.51056
51.3182 4.74009
51.3379 4.99150
51.3577 5.26784
51.3794 5.60508
51.4011 5.98270
51.4120 6.18890
51.4228 6.40775
51.4337 6.64055
51.4445 6.88853
51.4554 7.15329
51.4662 7.43586
51.4771 7.73810
51.4879 8.06182
51.4988 8.40936
51.5096 8.78223
51.5205 9.18314
51.5313 9.61468
51.5422 10.0801
51.5530 10.5817
51.5639 11.1237
51.5747 11.7086
51.5856 12.3415
51.5965 13.0252
51.6073 13.7648
51.6182 14.5648
51.6290 15.4310
51.6399 16.3668
51.6507 17.3793
51.6616 18.4721
51.6724 19.6528
51.6833 20.9247
51.6941 22.2946
51.7050 23.7680
51.7168 25.5001
51.7287 27.3683
51.7405 29.3787
51.7523 31.5364
51.7642 33.8457
51.7760 36.3100
51.7879 38.9311
51.7997 41.7091
51.8106 44.3940
51.8214 47.2045
51.8323 50.1390
51.8431 53.1916
51.8648 59.6227
51.8865 66.4109
51.9082 73.4517
51.9299 80.6030
51.9517 87.7006
51.9734 94.5573
51.9930 100.384
52.0126 105.710
52.0322 110.393
52.0517 114.302
52.0688 116.989
52.0859 118.941
52.1029 120.116
52.1200 120.485
52.1371 120.041
52.1541 118.793
52.1712 116.771
52.1883 114.021
52.1945 112.854
52.2088 109.842
52.2231 106.430
52.2374 102.665
52.2517 98.6037
52.2772 90.8122
52.3027 82.5766
52.3259 74.9617
52.3490 67.4354
52.3722 60.1708
52.3838 56.6808
52.3953 53.3046
52.4081 49.7351
52.4208 46.3287
52.4336 43.0939
52.4463 40.0364
52.4590 37.1590
52.4718 34.4622
52.4845 31.9442
52.4972 29.6033
52.5111 27.2410
52.5250 25.0729
52.5389 23.0891
52.5528 21.2804
52.5667 19.6327
52.5806 18.1370
52.5945 16.7793
52.6084 15.5503
52.6212 14.5257
52.6339 13.5910
52.6466 12.7383
52.6594 11.9603
52.6721 11.2502
52.6849 10.6016
52.6976 10.0087
52.7103 9.46641
52.7231 8.96908
52.7358 8.51267
52.7485 8.09315
52.7613 7.70718
52.7740 7.35089
52.7868 7.02166
52.7995 6.71687
52.8122 6.43438
52.8250 6.17165
52.8377 5.92705
52.8504 5.69890
52.8632 5.48571
52.8759 5.28616
52.8887 5.09906
52.9014 4.92335
52.9141 4.75820
52.9396 4.45561
52.9651 4.18560
52.9906 3.94345
53.0160 3.72534
53.0404 3.53649
53.0647 3.36422
53.0890 3.20659
53.1133 3.06191
53.1376 2.92876
53.1620 2.80591
53.1863 2.69230
53.2106 2.58703
53.2349 2.48921
53.2592 2.39819
53.2836 2.31333
53.3079 2.23408
53.3322 2.15995
53.3565 2.09051
53.4051 1.96419
53.4329 1.89866
53.4607 1.83749
53.4885 1.78025
53.5163 1.72665
53.5719 1.62914
53.6275 1.54294
53.6831 1.46636
53.7387 1.39806
53.7943 1.33688
53.8498 1.28191
53.9008 1.23627
53.9517 1.19466
54.0027 1.15662
54.0537 1.12179
54.1046 1.08983
54.1556 1.06048
54.2065 1.03345
54.2575 1.00856
54.3594 0.964386
54.4613 0.926662
54.5632 0.894369
54.6651 0.866698
54.7439 0.848045
54.8226 0.831475
54.9014 0.816759
54.9801 0.803709
55.1376 0.782011
55.2951 0.765412
55.4526 0.753156
55.6101 0.744662
55.7676 0.739482
55.9251 0.737284
56.1289 0.738471
56.3327 0.743882
56.5365 0.753313
56.7403 0.766694
56.9441 0.784080
57.1479 0.805638
57.3518 0.831663
57.5556 0.862584
57.7409 0.895441
57.9262 0.933420
58.1114 0.977280
58.2967 1.02800
58.3894 1.05631
58.4820 1.08684
58.5747 1.11980
58.6673 1.15543
58.7600 1.19399
58.8526 1.23583
58.9452 1.28136
59.0379 1.33108
59.1398 1.39128
59.2417 1.45808
59.3436 1.53253
59.4455 1.61588
59.5474 1.70972
59.6493 1.81601
59.7003 1.87458
59.7512 1.93722
59.8022 2.00437
59.8531 2.07649
59.9226 2.18385
59.9921 2.30305
60.0616 2.43605
60.1311 2.58527
60.2006 2.75370
60.2353 2.84624
60.2700 2.94504
60.3048 3.05072
60.3395 3.16398
60.3743 3.28560
60.4090 3.41648
60.4600 3.62740
60.5109 3.86426
60.5364 3.99389
60.5619 4.13188
60.5874 4.27900
60.6128 4.43607
60.6383 4.60418
60.6638 4.78441
60.6893 4.97801
60.7147 5.18636
60.7402 5.41126
60.7657 5.65448
60.7912 5.91839
60.8166 6.20540
60.8467 6.57876
60.8769 6.99476
60.9070 7.46077
60.9220 7.71539
60.9371 7.98592
60.9521 8.27424
60.9672 8.58165
60.9822 8.91048
60.9973 9.26243
61.0124 9.64042
61.0274 10.0467
61.0425 10.4850
61.0575 10.9582
61.0703 11.3892
61.0830 11.8511
61.0957 12.3470
61.1085 12.8802
61.1212 13.4544
61.1340 14.0739
61.1467 14.7434
61.1594 15.4672
61.1722 16.2522
61.1849 17.1041
61.1976 18.0295
61.2104 19.0350
61.2231 20.1302
61.2359 21.3230
61.2486 22.6226
61.2613 24.0378
61.2706 25.1476
61.2799 26.3277
61.2891 27.5850
61.2984 28.9212
61.3077 30.3438
61.3169 31.8546
61.3262 33.4614
61.3354 35.1655
61.3447 36.9755
61.3540 38.8921
61.3632 40.9241
61.3725 43.0715
61.3818 45.3434
61.3910 47.7387
61.4003 50.2636
61.4096 52.9214
61.4235 57.1665
61.4374 61.7250
61.4501 66.1819
61.4628 70.9063
61.4756 75.8957
61.4883 81.1444
61.5011 86.6431
61.5138 92.3786
61.5265 98.3336
61.5393 104.482
61.5636 116.679
61.5879 129.274
61.6122 141.988
61.6365 154.490
61.6620 166.978
61.6875 178.405
61.7035 184.853
61.7195 190.610
61.7355 195.589
61.7515 199.701
61.7661 202.646
61.7808 204.768
61.7954 206.039
61.8100 206.439
61.8263 205.856
61.8425 204.202
61.8616 200.942
61.8806 196.335
61.8997 190.492
61.9187 183.555
61.9316 178.311
61.9445 172.690
61.9703 160.542
61.9914 149.960
62.0125 139.059
62.0336 128.069
62.0547 117.195
62.0805 104.322
62.0934 98.1341
62.1063 92.1546
62.1192 86.3961
62.1321 80.8849
62.1450 75.6254
62.1578 70.6350
62.1707 65.9113
62.1836 61.4635
62.1965 57.2838
62.2094 53.3749
62.2223 49.7248
62.2352 46.3313
62.2481 43.1796
62.2610 40.2641
62.2733 37.6871
62.2856 35.3020
62.2979 33.0978
62.3102 31.0636
62.3226 29.1882
62.3349 27.4609
62.3472 25.8710
62.3595 24.4095
62.3718 23.0641
62.3841 21.8268
62.3964 20.6887
62.4087 19.6424
62.4210 18.6784
62.4333 17.7905
62.4456 16.9720
62.4579 16.2174
62.4708 15.4877
62.4837 14.8160
62.4966 14.1957
62.5095 13.6231
62.5224 13.0928
62.5353 12.6017
62.5482 12.1456
62.5611 11.7218
62.5740 11.3269
62.5869 10.9588
62.5998 10.6148
62.6127 10.2932
62.6385 9.70913
62.6642 9.19394
62.6877 8.77619
62.7111 8.40043
62.7346 8.06100
62.7580 7.75373
62.7815 7.47459
62.8049 7.22061
62.8284 6.98887
62.8518 6.77721
62.8753 6.58344
62.8987 6.40597
62.9221 6.24312
62.9456 6.09370
62.9925 5.83033
63.0394 5.60802
63.0675 5.49169
63.0956 5.38683
63.1519 5.20758
63.2082 5.06382
63.2644 4.95048
63.3207 4.86356
63.3770 4.79992
63.4333 4.75704
63.4895 4.73295
63.5411 4.72605
63.5927 4.73269
63.6443 4.75215
63.6958 4.78388
63.7474 4.82746
63.7990 4.88263
63.8506 4.94924
63.9021 5.02721
63.9537 5.11666
64.0053 5.21772
64.0569 5.33066
64.1084 5.45583
64.1600 5.59373
64.2116 5.74491
64.2632 5.91005
64.3148 6.08992
64.3992 6.41864
64.4836 6.79425
64.5258 7.00149
64.5680 7.22283
64.6102 7.45925
64.6524 7.71185
64.6946 7.98192
64.7368 8.27069
64.7790 8.57976
64.8212 8.91086
64.8634 9.26589
64.9056 9.64704
64.9478 10.0567
64.9900 10.4977
65.0416 11.0836
65.0931 11.7272
65.1447 12.4361
65.1963 13.2190
65.2479 14.0863
65.2995 15.0505
65.3510 16.1262
65.3768 16.7114
65.4026 17.3312
65.4495 18.5573
65.4729 19.2234
65.4964 19.9280
65.5198 20.6751
65.5433 21.4674
65.5667 22.3094
65.5902 23.2047
65.6136 24.1589
65.6371 25.1765
65.6605 26.2643
65.6839 27.4283
65.7074 28.6770
65.7308 30.0180
65.7543 31.4625
65.7777 33.0203
65.8035 34.8817
65.8293 36.9171
65.8551 39.1502
65.8680 40.3500
65.8809 41.6094
65.8938 42.9346
65.9067 44.3285
65.9196 45.7986
65.9325 47.3485
65.9454 48.9871
65.9583 50.7190
65.9712 52.5548
65.9840 54.5006
65.9969 56.5691
66.0098 58.7679
66.0227 61.1126
66.0356 63.6128
66.0485 66.2875
66.0614 69.1489
66.0743 72.2201
66.0872 75.5167
66.1001 79.0666
66.1130 82.8894
66.1259 87.0189
66.1388 91.4794
66.1517 96.3119
66.1646 101.546
66.1775 107.226
66.1904 113.396
66.1980 117.294
66.2056 121.390
66.2132 125.697
66.2208 130.225
66.2285 134.986
66.2361 139.994
66.2437 145.261
66.2513 150.800
66.2589 156.627
66.2666 162.754
66.2742 169.198
66.2818 175.973
66.2894 183.095
66.2970 190.579
66.3047 198.442
66.3123 206.688
66.3252 221.613
66.3381 237.783
66.3510 255.302
66.3638 274.220
66.3767 294.638
66.3896 316.594
66.4025 340.163
66.4154 365.397
66.4283 392.359
66.4412 421.057
66.4541 451.503
66.4670 483.667
66.4799 517.574
66.4928 553.124
66.5057 590.303
66.5186 628.958
66.5409 698.918
66.5631 772.179
66.5854 847.685
66.6077 924.149
66.6335 1011.92
66.6592 1096.40
66.6850 1174.82
66.6979 1210.91
66.7108 1244.42
66.7300 1288.82
66.7491 1325.94
66.7682 1354.97
66.7874 1375.25
66.8037 1385.28
66.8200 1388.42
66.8265 1387.73
66.8372 1384.25
66.8478 1377.86
66.8584 1368.62
66.8690 1356.59
66.8902 1324.51
66.9114 1282.56
66.9329 1231.18
66.9544 1172.27
66.9759 1107.33
66.9974 1037.95
67.0196 963.055
67.0419 886.846
67.0864 736.486
67.1087 664.852
67.1310 596.955
67.1421 564.621
67.1532 533.453
67.1643 503.502
67.1755 474.805
67.1907 437.729
67.2058 403.060
67.2210 370.788
67.2362 340.878
67.2514 313.264
67.2666 287.864
67.2817 264.575
67.2969 243.298
67.3080 228.874
67.3192 215.423
67.3303 202.882
67.3414 191.199
67.3526 180.324
67.3637 170.208
67.3748 160.803
67.3860 152.062
67.3971 143.932
67.4082 136.385
67.4194 129.373
67.4305 122.855
67.4416 116.796
67.4527 111.160
67.4639 105.916
67.4750 101.031
67.4861 96.4757
67.4973 92.2303
67.5084 88.2668
67.5195 84.5627
67.5307 81.0974
67.5418 77.8519
67.5529 74.8088
67.5641 71.9521
67.5752 69.2672
67.5863 66.7406
67.5974 64.3601
67.6086 62.1146
67.6308 57.9884
67.6531 54.2906
67.6723 51.3949
67.6916 48.7418
67.7108 46.3035
67.7300 44.0573
67.7492 41.9802
67.7685 40.0565
67.7877 38.2690
67.8069 36.6059
67.8261 35.0537
67.8454 33.6031
67.8646 32.2448
67.8838 30.9715
67.9030 29.7747
67.9223 28.6493
67.9415 27.5883
67.9607 26.5878
67.9830 25.4975
68.0052 24.4755
68.0275 23.5156
68.0498 22.6128
68.0720 21.7621
68.0943 20.9602
68.1166 20.2029
68.1388 19.4871
68.1833 18.1673
68.2279 16.9804
68.2724 15.9083
68.3169 14.9370
68.3695 13.9017
68.4222 12.9724
68.4748 12.1350
68.5274 11.3777
68.5800 10.6903
68.6326 10.0645
68.6853 9.49296
68.7379 8.96958
68.7824 8.56018
68.8269 8.17866
68.8714 7.82236
68.9160 7.48923
68.9605 7.17717
69.0050 6.88455
69.0495 6.60967
69.0941 6.35123
69.1386 6.10784
69.1831 5.87844
69.2276 5.66189
69.2722 5.45733
69.3612 5.08057
69.4503 4.74214
69.5393 4.43697
69.6284 4.16082
69.7174 3.91011
69.8065 3.68179
69.8955 3.47328
69.9846 3.28234
70.0736 3.10708
70.1627 2.94586
70.2436 2.81021
70.3246 2.68396
70.4055 2.56620
70.4865 2.45617
70.5674 2.35317
70.6484 2.25664
70.7293 2.16605
70.8103 2.08094
70.8912 2.00086
70.9722 1.92544
71.0532 1.85432
71.1341 1.78719
71.2960 1.66372
71.4579 1.55300
71.5470 1.49690
71.6360 1.44389
71.8141 1.34626
71.9922 1.25855
72.1703 1.17946
72.3484 1.10788
72.5265 1.04291
72.7046 0.983727
72.8827 0.929684
73.0122 0.893266
73.1417 0.859064
73.2713 0.826900
73.4008 0.796631
73.5303 0.768126
73.6598 0.741256
73.9189 0.691816
74.1779 0.647376
74.4370 0.607358
74.6960 0.571218
74.9551 0.538471
75.1332 0.517711
75.3113 0.498242
75.4894 0.479962
75.6675 0.462777
75.8456 0.446599
76.0237 0.431354
76.3799 0.403389
76.7361 0.378398
77.0923 0.355980
77.4485 0.335802
77.8046 0.317581
78.0313 0.306896
78.2580 0.296853
78.7113 0.278506
79.1647 0.262209
79.6180 0.247692
80.0713 0.234802
80.5247 0.223177
80.9780 0.212735
81.4314 0.203358
81.7876 0.196666
82.1437 0.190508
82.4999 0.184844
82.8561 0.179646
83.2123 0.174877
83.5685 0.170505
83.9247 0.166514
84.2809 0.162881
84.6371 0.159584
84.9933 0.156614
85.7057 0.151604
86.4181 0.147782
87.1305 0.145120
87.6486 0.143924
88.1667 0.143374
88.6848 0.143505
89.2029 0.144374
89.7210 0.146058
90.2391 0.148663
90.7572 0.152290
91.0162 0.154544
91.2753 0.157163
91.5343 0.160162
91.7934 0.163577
92.0524 0.167455
92.3115 0.171849
92.6191 0.177829
92.9267 0.184760
93.2344 0.192804
93.5420 0.202159
93.6958 0.207404
93.8496 0.213074
94.0034 0.219209
94.1572 0.225850
94.3110 0.233043
94.4649 0.240856
94.6187 0.249371
94.7725 0.258674
94.9506 0.270546
95.1287 0.283751
95.3068 0.298482
95.4849 0.314975
95.6630 0.333515
95.8411 0.354446
95.9301 0.365935
96.0192 0.378186
96.1082 0.391268
96.1973 0.405255
96.3349 0.428857
96.4725 0.455188
96.6101 0.484680
96.7477 0.517847
96.8166 0.536001
96.8854 0.555323
96.9542 0.575918
97.0230 0.597904
97.0918 0.621414
97.1606 0.646594
97.2294 0.673610
97.2982 0.702643
97.3873 0.743549
97.4763 0.788695
97.5654 0.838688
97.6544 0.894244
97.7435 0.956243
97.7880 0.989979
97.8325 1.02572
97.8770 1.06366
97.9216 1.10395
97.9661 1.14681
98.0106 1.19247
98.0835 1.27388
98.1563 1.36474
98.1928 1.41417
98.2292 1.46658
98.2656 1.52219
98.3020 1.58128
98.3385 1.64417
98.3749 1.71118
98.4113 1.78269
98.4478 1.85914
98.4842 1.94100
98.5206 2.02880
98.5571 2.12316
98.5935 2.22473
98.6380 2.35992
98.6825 2.50875
98.7271 2.67327
98.7716 2.85579
98.8161 3.05924
98.8384 3.16985
98.8606 3.28705
98.8829 3.41141
98.9051 3.54357
98.9274 3.68424
98.9497 3.83422
98.9719 3.99450
98.9942 4.16598
99.0165 4.34991
99.0387 4.54765
99.0610 4.76089
99.0832 4.99126
99.1055 5.24100
99.1278 5.51261
99.1500 5.80921
99.1723 6.13403
99.1946 6.49135
99.2168 6.88613
99.2391 7.32427
99.2613 7.81280
99.2836 8.36011
99.2947 8.65885
99.3059 8.97617
99.3170 9.31392
99.3281 9.67316
99.3393 10.0560
99.3504 10.4645
99.3615 10.9006
99.3726 11.3668
99.3838 11.8655
99.3949 12.3994
99.4060 12.9720
99.4172 13.5853
99.4283 14.2431
99.4394 14.9489
99.4506 15.7067
99.4617 16.5202
99.4728 17.3939
99.4840 18.3322
99.4951 19.3407
99.5062 20.4225
99.5174 21.5837
99.5285 22.8297
99.5396 24.1660
99.5507 25.5984
99.5619 27.1326
99.5730 28.7747
99.5841 30.5323
99.5953 32.4084
99.6064 34.4107
99.6175 36.5450
99.6287 38.8175
99.6398 41.2337
99.6509 43.7993
99.6621 46.5194
99.6782 50.7618
99.6944 55.3543
99.7106 60.3072
99.7268 65.6277
99.7430 71.3194
99.7592 77.3813
99.7754 83.8078
99.7916 90.5877
99.8098 98.6191
99.8280 107.043
99.8462 115.816
99.8644 124.879
99.8867 136.261
99.9090 147.846
99.9312 159.475
99.9535 170.971
99.9818 185.096
100.010 198.285
100.032 207.745
100.055 216.174
100.074 222.588
100.094 227.957
100.108 231.019
100.121 233.506
100.135 235.398
100.148 236.679
100.170 237.429
100.184 237.079
100.197 236.103
100.214 234.090
100.230 231.215
100.247 227.505
100.263 223.004
100.279 217.769
100.296 211.899
100.312 205.391
100.328 198.399
100.345 190.912
100.361 183.103
100.394 166.697
100.426 149.702
100.459 132.793
100.489 117.787
100.519 103.574
100.533 96.7975
100.548 90.3313
100.563 84.1051
100.578 78.2152
100.594 72.0419
100.611 66.2803
100.627 60.8612
100.643 55.8475
100.660 51.1706
100.676 46.8773
100.692 42.9249
100.709 39.2985
100.719 37.1473
100.729 35.1174
100.740 33.2039
100.750 31.4022
100.761 29.7072
100.771 28.1140
100.781 26.6177
100.792 25.2134
100.802 23.8964
100.813 22.6618
100.823 21.5052
100.833 20.4221
100.844 19.4080
100.854 18.4588
100.865 17.5706
100.875 16.7472
100.891 15.5429
100.908 14.4643
100.924 13.4857
100.940 12.6081
100.957 11.8102
100.973 11.0927
100.989 10.4422
101.006 9.85130
101.022 9.31033
101.038 8.81997
101.055 8.36895
101.071 7.95816
101.087 7.57844
101.104 7.23085
101.120 6.90982
101.136 6.61259
101.153 6.33509
101.169 6.07856
101.185 5.83795
101.202 5.61451
101.218 5.40404
101.234 5.20779
101.251 5.02331
101.267 4.84957
101.300 4.52994
101.332 4.24473
101.365 3.98728
101.398 3.75520
101.427 3.56175
101.457 3.38460
101.487 3.22132
101.517 3.07043
101.546 2.93065
101.576 2.80087
101.606 2.68011
101.635 2.56753
101.665 2.46238
101.695 2.36401
101.724 2.27182
101.754 2.18529
101.784 2.10396
101.814 2.02741
101.843 1.95527
101.873 1.88720
101.906 1.81660
101.938 1.75019
101.971 1.68764
102.004 1.62884
102.069 1.52052
102.134 1.42370
102.200 1.33654
102.265 1.25803
102.330 1.18685
102.396 1.12230
102.446 1.07637
102.497 1.03357
102.547 0.993612
102.598 0.956265
102.648 0.921302
102.699 0.888526
102.749 0.857759
102.800 0.828897
102.901 0.776045
103.002 0.729045
103.103 0.687092
103.204 0.649551
103.269 0.627285
103.334 0.606518
103.400 0.587068
103.465 0.568888
103.596 0.535849
103.726 0.506741
103.857 0.481024
103.988 0.458250
104.118 0.438050
104.249 0.420130
104.356 0.406956
104.463 0.395020
104.570 0.384192
104.677 0.374396
104.784 0.365526
104.891 0.357522
104.998 0.350315
105.105 0.343852
105.318 0.332988
105.532 0.324648
105.746 0.318599
105.960 0.314686
106.150 0.312913
106.275 0.312601
106.400 0.312958
106.524 0.313988
106.649 0.315695
106.774 0.318095
106.899 0.321205
107.023 0.325053
107.148 0.329666
107.273 0.335090
107.398 0.341364
107.522 0.348552
107.647 0.356706
107.772 0.365911
107.897 0.376237
108.021 0.387807
108.146 0.400732
108.277 0.415909
108.407 0.432952
108.538 0.452085
108.669 0.473573
108.800 0.497732
108.930 0.524942
109.061 0.555664
109.192 0.590421
109.310 0.626127
109.429 0.666360
109.489 0.688400
109.548 0.711862
109.607 0.736862
109.667 0.763533
109.726 0.792020
109.786 0.822484
109.845 0.855107
109.904 0.890093
109.964 0.927674
110.023 0.968109
110.083 1.01170
110.142 1.05877
110.207 1.11508
110.273 1.17657
110.338 1.24409
110.403 1.31823
110.469 1.40015
110.534 1.49067
110.599 1.59138
110.665 1.70352
110.697 1.76460
110.730 1.82932
110.763 1.89798
110.795 1.97068
110.828 2.04823
110.861 2.13083
110.894 2.21894
110.926 2.31278
110.959 2.41349
110.992 2.52146
111.024 2.63742
111.057 2.76183
111.090 2.89640
111.122 3.04187
111.155 3.19952
111.188 3.37029
111.223 3.57492
111.259 3.79991
111.295 4.04976
111.330 4.32698
111.366 4.63795
111.384 4.80716
111.401 4.98692
111.419 5.17824
111.437 5.38222
111.455 5.60011
111.473 5.83333
111.489 6.06315
111.505 6.30720
111.522 6.57004
111.538 6.85022
111.554 7.15315
111.571 7.47734
111.587 7.82925
111.603 8.20735
111.620 8.61939
111.636 9.06378
111.653 9.54985
111.669 10.0759
111.685 10.6533
111.702 11.2800
111.718 11.9652
111.734 12.7151
111.748 13.3850
111.761 14.1073
111.774 14.8865
111.788 15.7206
111.801 16.6272
111.814 17.5977
111.828 18.6523
111.841 19.7807
111.854 21.0057
111.868 22.3254
111.881 23.7459
111.895 25.2618
111.908 26.9023
111.921 28.6492
111.935 30.5352
111.948 32.5383
111.964 35.1970
111.981 38.0556
111.997 41.1589
112.013 44.4773
112.030 48.0583
112.046 51.8634
112.062 55.9165
112.079 60.2183
112.091 63.5146
112.102 66.9406
112.126 74.1693
112.150 81.8708
112.174 89.9599
112.187 94.6944
112.200 99.4909
112.227 109.347
112.254 119.379
112.281 129.414
112.313 141.426
112.346 152.770
112.379 163.051
112.395 167.659
112.411 171.863
112.428 175.641
112.444 178.911
112.460 181.662
112.477 183.866
112.490 185.251
112.503 186.241
112.517 186.827
112.530 187.007
112.547 186.659
112.564 185.682
112.584 183.674
112.604 180.811
112.624 177.131
112.644 172.692
112.663 167.834
112.682 162.420
112.701 156.522
112.720 150.216
112.740 143.580
112.759 136.693
112.797 122.475
112.835 108.146
112.873 94.2484
112.892 87.5605
112.911 81.1149
112.930 74.9444
112.950 69.0746
112.969 63.5245
112.988 58.3064
113.007 53.4267
113.026 48.8866
113.045 44.6824
113.064 40.8067
113.083 37.2486
113.093 35.5759
113.102 33.9944
113.112 32.4687
113.121 31.0286
113.131 29.6416
113.141 28.3342
113.150 27.0768
113.160 25.8933
113.169 24.7563
113.179 23.6873
113.192 22.3007
113.205 21.0195
113.218 19.8272
113.231 18.7182
113.244 17.6796
113.257 16.7219
113.270 15.8321
113.283 15.0053
113.296 14.2315
113.309 13.5181
113.322 12.8549
113.335 12.2382
113.348 11.6645
113.361 11.1304
113.374 10.6329
113.387 10.1690
113.406 9.54304
113.425 8.97644
113.444 8.46240
113.463 7.99489
113.483 7.56863
113.502 7.17894
113.521 6.82172
113.540 6.49341
113.559 6.19084
113.578 5.91128
113.597 5.65232
113.616 5.41186
113.635 5.18805
113.654 4.97927
113.674 4.78409
113.693 4.60220
113.712 4.43058
113.731 4.26923
113.750 4.11729
113.769 3.97398
113.807 3.71055
113.845 3.47425
113.884 3.26124
113.922 3.06841
113.960 2.89314
113.998 2.73369
114.035 2.59362
114.071 2.46459
114.108 2.34543
114.144 2.23541
114.180 2.13305
114.217 2.03814
114.253 1.94948
114.290 1.86697
114.326 1.78961
114.363 1.71738
114.399 1.64944
114.436 1.58582
114.472 1.52581
114.508 1.46945
114.545 1.41617
114.581 1.36600
114.620 1.31630
114.658 1.26940
114.734 1.18317
114.811 1.10585
114.887 1.03634
114.963 0.973440
115.040 0.916414
115.116 0.864543
115.192 0.817279
115.255 0.781577
115.317 0.748321
115.380 0.717289
115.442 0.688283
115.505 0.661127
115.567 0.635662
115.630 0.611749
115.692 0.589262
115.755 0.568087
115.817 0.548125
115.942 0.511480
116.067 0.478696
116.192 0.449271
116.269 0.432722
116.345 0.417166
116.421 0.402526
116.498 0.388729
116.651 0.363416
116.803 0.340796
116.956 0.320470
117.109 0.302159
117.262 0.285583
117.414 0.270545
117.532 0.259846
117.650 0.249888
117.769 0.240590
117.887 0.231909
118.005 0.223776
118.123 0.216154
118.241 0.208984
118.359 0.202241
118.595 0.189890
118.831 0.178881
119.067 0.169030
119.303 0.160182
119.456 0.154922
119.609 0.149995
119.914 0.141031
120.220 0.133098
120.525 0.126044
120.831 0.119742
121.136 0.114089
121.442 0.109001
121.747 0.104411
122.039 0.100445
122.330 0.0968207
122.622 0.0934910
122.914 0.0904368
123.205 0.0876307
123.497 0.0850498
123.789 0.0826716
124.080 0.0804773
124.664 0.0765759
125.247 0.0732379
125.830 0.0703775
126.413 0.0679296
126.969 0.0659345
127.524 0.0642327
128.080 0.0627982
128.635 0.0616120
129.191 0.0606614
129.746 0.0599401
130.302 0.0594476
130.857 0.0591906
131.385 0.0591774
131.913 0.0594101
132.440 0.0599193
132.968 0.0607491
133.496 0.0619626
133.760 0.0627401
134.023 0.0636480
134.287 0.0646993
134.551 0.0659150
134.815 0.0673325
135.079 0.0689832
135.301 0.0705805
135.523 0.0723967
135.745 0.0744666
135.968 0.0768331
136.190 0.0795489
136.412 0.0826783
136.634 0.0863001
136.856 0.0905164
136.968 0.0928899
137.079 0.0954682
137.190 0.0982754
137.301 0.101339
137.454 0.106028
137.606 0.111352
137.759 0.117440
137.836 0.120814
137.912 0.124432
137.988 0.128329
138.065 0.132528
138.141 0.137062
138.217 0.141959
138.294 0.147275
138.370 0.153052
138.447 0.159346
138.523 0.166212
138.592 0.173035
138.662 0.180457
138.731 0.188577
138.801 0.197458
138.877 0.208254
138.953 0.220277
139.030 0.233725
139.106 0.248814
139.144 0.257081
139.183 0.265879
139.221 0.275255
139.259 0.285263
139.297 0.295963
139.335 0.307423
139.374 0.319719
139.412 0.332902
139.467 0.353995
139.523 0.377574
139.551 0.390469
139.578 0.404172
139.606 0.418759
139.634 0.434254
139.662 0.450865
139.689 0.468645
139.717 0.487718
139.745 0.508153
139.773 0.530263
139.801 0.554175
139.828 0.580123
139.856 0.608280
139.875 0.629205
139.894 0.651509
139.913 0.675338
139.932 0.700863
139.952 0.728278
139.971 0.757812
139.990 0.789726
140.009 0.824327
140.028 0.861969
140.047 0.903066
140.066 0.948096
140.085 0.997620
140.104 1.05228
140.123 1.11284
140.143 1.18015
140.162 1.25523
140.179 1.33134
140.196 1.41584
140.214 1.50983
140.231 1.61395
140.249 1.73078
140.257 1.79423
140.266 1.86053
140.275 1.93144
140.283 2.00644
140.292 2.08577
140.301 2.16870
140.309 2.25743
140.318 2.35129
140.327 2.45059
140.335 2.55438
140.344 2.66539
140.353 2.78279
140.361 2.90690
140.370 3.03654
140.379 3.17508
140.387 3.32143
140.396 3.47598
140.405 3.63720
140.413 3.80924
140.422 3.99069
140.431 4.18198
140.439 4.38117
140.449 4.61588
140.458 4.86157
140.468 5.12399
140.478 5.39826
140.487 5.69077
140.497 5.99601
140.506 6.32099
140.516 6.65953
140.525 7.01931
140.535 7.39341
140.544 7.79023
140.554 8.20201
140.564 8.63792
140.573 9.08933
140.583 9.56616
140.592 10.0589
140.602 10.5782
140.611 11.1135
140.630 12.2553
140.649 13.4855
140.669 14.8041
140.688 16.2100
140.707 17.7008
140.726 19.2725
140.745 20.9107
140.767 22.9467
140.790 25.0635
140.835 29.4643
140.873 33.2448
140.912 36.9334
140.948 40.2572
140.966 41.7964
140.984 43.2357
141.004 44.6220
141.023 45.8584
141.030 46.2750
141.049 47.2977
141.068 48.1431
141.088 48.8469
141.109 49.3174
141.125 49.5158
141.140 49.5785
141.158 49.4857
141.175 49.2224
141.196 48.6724
141.217 47.8846
141.239 46.8696
141.260 45.6437
141.281 44.2257
141.302 42.6450
141.333 40.0824
141.364 37.2948
141.406 33.2152
141.448 29.0369
141.491 24.9262
141.512 22.9468
141.533 21.0472
141.551 19.4660
141.570 17.9532
141.588 16.5136
141.606 15.1582
141.624 13.8745
141.643 12.6714
141.661 11.5493
141.679 10.5128
141.690 9.94505
141.700 9.40334
141.711 8.88715
141.721 8.40045
141.732 7.93339
141.743 7.49006
141.753 7.06978
141.764 6.67548
141.774 6.29891
141.785 5.94314
141.796 5.60740
141.806 5.29378
141.817 4.99550
141.827 4.71484
141.838 4.45100
141.848 4.20543
141.862 3.91156
141.875 3.64081
141.889 3.39163
141.902 3.16416
141.916 2.95356
141.929 2.76160
141.943 2.58410
141.956 2.42249
141.970 2.27317
141.983 2.13629
141.997 2.01084
142.010 1.89664
142.023 1.79111
142.037 1.69499
142.050 1.60608
142.064 1.52498
142.074 1.46547
142.085 1.40972
142.096 1.35747
142.106 1.30846
142.117 1.26245
142.127 1.21923
142.138 1.17858
142.148 1.14067
142.170 1.07060
142.191 1.00842
142.212 0.952480
142.233 0.902414
142.254 0.856973
142.275 0.815940
142.297 0.778373
142.318 0.744161
142.339 0.712586
142.360 0.683610
142.381 0.656674
142.402 0.631789
142.427 0.604510
142.452 0.579347
142.477 0.556058
142.502 0.534436
142.527 0.514307
142.552 0.495521
142.577 0.477948
142.602 0.461476
142.627 0.446006
142.652 0.431454
142.702 0.404803
142.752 0.381009
142.802 0.359658
142.845 0.343214
142.887 0.328147
142.929 0.314270
142.972 0.301458
143.014 0.289603
143.056 0.278609
143.098 0.268393
143.141 0.258884
143.183 0.249997
143.225 0.241716
143.268 0.233970
143.310 0.226713
143.395 0.213511
143.479 0.201834
143.541 0.194162
143.602 0.187118
143.664 0.180616
143.725 0.174622
143.818 0.166455
143.910 0.159161
143.995 0.153136
144.079 0.147677
144.164 0.142714
144.249 0.138191
144.333 0.134057
144.418 0.130280
144.502 0.126822
144.587 0.123650
144.756 0.118059
144.926 0.113335
145.095 0.109333
145.264 0.105943
145.379 0.103935
145.495 0.102147
145.726 0.0991489
145.956 0.0968068
146.187 0.0950181
146.418 0.0937108
146.649 0.0928299
146.880 0.0923318
147.110 0.0921831
147.449 0.0925487
147.787 0.0935680
148.126 0.0952216
148.464 0.0975149
148.803 0.100476
149.141 0.104156
149.480 0.108633
149.649 0.111201
149.818 0.114010
150.080 0.118874
150.341 0.124446
150.603 0.130828
150.864 0.138143
150.995 0.142198
151.126 0.146546
151.257 0.151212
151.388 0.156225
151.518 0.161629
151.649 0.167458
151.780 0.173756
151.911 0.180562
152.080 0.190229
152.249 0.200976
152.418 0.212977
152.588 0.226412
152.757 0.241534
152.842 0.249806
152.926 0.258609
153.011 0.267990
153.095 0.277997
153.180 0.288690
153.265 0.300130
153.388 0.318258
153.511 0.338370
153.634 0.360765
153.757 0.385802
153.819 0.399457
153.880 0.413921
153.942 0.429314
154.003 0.445662
154.065 0.463105
154.126 0.481683
154.188 0.501531
154.249 0.522767
154.334 0.554535
154.419 0.589552
154.503 0.628325
154.588 0.671421
154.672 0.719576
154.715 0.745750
154.757 0.773495
154.799 0.802939
154.842 0.834228
154.884 0.867523
154.926 0.903003
154.996 0.966385
155.065 1.03710
155.099 1.07573
155.134 1.11660
155.169 1.16002
155.203 1.20620
155.238 1.25556
155.273 1.30807
155.307 1.36421
155.342 1.42433
155.376 1.48884
155.411 1.55820
155.446 1.63295
155.480 1.71371
155.523 1.82193
155.565 1.94154
155.607 2.07472
155.628 2.14731
155.649 2.22389
155.671 2.30561
155.692 2.39255
155.713 2.48526
155.734 2.58386
155.755 2.68996
155.776 2.80334
155.798 2.92600
155.819 3.05782
155.840 3.20126
155.861 3.35636
155.882 3.52623
155.903 3.71114
155.925 3.91503
155.946 4.13847
155.967 4.38651
155.988 4.66015
156.009 4.96584
156.030 5.30509
156.051 5.68619
156.062 5.89362
156.073 6.11123
156.083 6.34397
156.094 6.59073
156.104 6.85246
156.115 7.12744
156.125 7.42198
156.136 7.73463
156.147 8.06657
156.157 8.41560
156.170 8.85910
156.182 9.33513
156.195 9.84604
156.207 10.3943
156.220 10.9824
156.232 11.6132
156.245 12.2893
156.257 13.0137
156.270 13.7894
156.282 14.6194
156.295 15.5069
156.307 16.4550
156.320 17.4670
156.332 18.5461
156.345 19.6957
156.357 20.9190
156.368 22.0164
156.378 23.1711
156.389 24.3848
156.399 25.6471
156.410 26.9837
156.421 28.3846
156.431 29.8513
156.442 31.3704
156.452 32.9721
156.463 34.6435
156.484 38.1814
156.505 42.0230
156.526 46.1340
156.542 49.3144
156.557 52.6443
156.573 56.1201
156.588 59.7365
156.603 63.4871
156.619 67.3636
156.634 71.3563
156.649 75.4268
156.671 81.2138
156.692 87.1073
156.713 93.1188
156.734 99.1424
156.776 111.148
156.819 122.595
156.846 129.368
156.873 135.592
156.894 140.030
156.915 143.974
156.936 147.395
156.957 150.248
156.986 153.140
157.014 154.840
157.040 155.325
157.061 154.975
157.076 154.284
157.092 153.238
157.108 151.832
157.123 150.095
157.150 146.299
157.177 141.617
157.204 136.138
157.231 129.977
157.265 121.355
157.299 112.096
157.326 104.541
157.353 96.8812
157.407 81.7327
157.434 74.4135
157.460 67.3832
157.487 60.7055
157.514 54.4288
157.536 49.6179
157.558 45.1100
157.580 40.9113
157.602 37.0228
157.613 35.1940
157.624 33.4412
157.635 31.7633
157.646 30.1592
157.657 28.6273
157.668 27.1663
157.679 25.7743
157.690 24.4496
157.704 22.9130
157.717 21.4813
157.731 20.1295
157.744 18.8736
157.758 17.6909
157.771 16.5948
157.784 15.5650
157.798 14.6127
157.811 13.7198
157.825 12.8956
157.838 12.1240
157.852 11.4128
157.865 10.7478
157.879 10.1356
157.892 9.56768
157.905 9.04107
157.920 8.50739
157.935 8.01621
157.949 7.56412
157.964 7.15062
157.979 6.76707
157.993 6.41364
158.008 6.08775
158.023 5.78899
158.037 5.51108
158.052 5.25412
158.067 5.01627
158.081 4.79729
158.096 4.59262
158.111 4.40367
158.125 4.22658
158.140 4.06259
158.154 3.92061
158.167 3.78810
158.194 3.54477
158.221 3.32787
158.248 3.13350
158.275 2.95840
158.301 2.79987
158.328 2.65566
158.355 2.52437
158.382 2.40347
158.409 2.29216
158.436 2.18932
158.463 2.09401
158.490 2.00544
158.517 1.92292
158.543 1.84585
158.570 1.77399
158.597 1.70634
158.624 1.64279
158.651 1.58300
158.678 1.52664
158.732 1.42319
158.785 1.33073
158.839 1.24739
158.893 1.17210
158.947 1.10382
159.000 1.04180
159.045 0.994927
159.089 0.951431
159.133 0.910898
159.177 0.873058
159.221 0.837672
159.265 0.804528
159.309 0.773436
159.353 0.744226
159.397 0.716747
159.441 0.690863
159.485 0.666449
159.529 0.643395
159.617 0.600975
159.705 0.562903
159.758 0.541517
159.812 0.521423
159.866 0.502519
159.920 0.484745
159.973 0.467949
160.027 0.452092
160.135 0.422945
160.242 0.396771
160.350 0.373219
160.457 0.351912
160.565 0.332608
160.643 0.319658
160.721 0.307568
160.800 0.296249
160.878 0.285637
160.956 0.275662
161.034 0.266298
161.191 0.249173
161.347 0.233914
161.504 0.220273
161.660 0.208018
161.817 0.196984
161.924 0.190017
162.032 0.183509
162.139 0.177420
162.247 0.171722
162.462 0.161352
162.677 0.152185
162.892 0.144042
163.107 0.136785
163.322 0.130294
163.538 0.124467
163.723 0.119908
163.909 0.115740
164.095 0.111920
164.281 0.108407
164.467 0.105170
164.652 0.102183
164.838 0.0994241
165.024 0.0968764
165.395 0.0923356
165.767 0.0884384
166.139 0.0850829
166.510 0.0821908
166.823 0.0800655
167.136 0.0781898
167.449 0.0765363
167.762 0.0750822
168.075 0.0738105
168.387 0.0727102
169.013 0.0709282
169.639 0.0696267
170.265 0.0687540
170.891 0.0682580
171.516 0.0681000
171.947 0.0681729
172.377 0.0683854
173.237 0.0692120
174.098 0.0705585
174.958 0.0724243
175.819 0.0748267
176.679 0.0778027
177.110 0.0795225
177.540 0.0814084
177.970 0.0834706
178.400 0.0857212
179.065 0.0896050
179.730 0.0940346
180.395 0.0990864
181.060 0.104854
181.392 0.108040
181.725 0.111447
182.057 0.115081
182.390 0.118969
182.722 0.123158
183.055 0.127667
183.387 0.132520
183.719 0.137746
184.150 0.145130
184.580 0.153296
185.010 0.162359
185.440 0.172445
185.871 0.183714
186.301 0.196350
186.516 0.203250
186.731 0.210580
186.946 0.218378
187.161 0.226682
187.494 0.240621
187.826 0.256069
188.159 0.273247
188.491 0.292413
188.658 0.302841
188.824 0.313875
188.990 0.325573
189.156 0.337997
189.322 0.351226
189.489 0.365319
189.655 0.380358
189.821 0.396424
190.036 0.418906
190.251 0.443487
190.466 0.470450
190.682 0.500111
190.897 0.532846
191.112 0.569096
191.327 0.609383
191.542 0.654333
191.747 0.702298
191.850 0.728372
191.953 0.755960
192.055 0.785240
192.158 0.816323
192.261 0.849361
192.363 0.884486
192.466 0.921950
192.569 0.961925
192.671 1.00464
192.774 1.05030
192.877 1.09929
192.979 1.15188
193.082 1.20846
193.185 1.26938
193.292 1.33851
193.400 1.41357
193.507 1.49542
193.615 1.58472
193.723 1.68260
193.830 1.79001
193.938 1.90844
194.045 2.03924
194.153 2.18447
194.260 2.34623
194.314 2.43411
194.368 2.52715
194.422 2.62577
194.475 2.73023
194.529 2.84143
194.583 2.95975
194.637 3.08581
194.691 3.22007
194.744 3.36381
194.798 3.51768
194.852 3.68267
194.906 3.85956
194.950 4.01448
194.994 4.17924
195.038 4.35470
195.082 4.54184
195.126 4.74177
195.170 4.95572
195.214 5.18509
195.258 5.43146
195.311 5.75844
195.365 6.11737
195.419 6.51277
195.473 6.95009
195.527 7.43591
195.580 7.97828
195.607 8.27372
195.634 8.58723
195.661 8.92049
195.688 9.27402
195.714 9.63518
195.739 10.0202
195.765 10.4314
195.791 10.8699
195.816 11.3422
195.842 11.8504
195.868 12.3987
195.893 12.9897
195.919 13.6335
195.945 14.3347
195.970 15.1009
195.996 15.9377
196.009 16.3905
196.022 16.8621
196.035 17.3577
196.047 17.8789
196.060 18.4320
196.073 19.0102
196.086 19.6198
196.099 20.2632
196.112 20.9810
196.126 21.7361
196.139 22.5432
196.152 23.3937
196.166 24.3041
196.179 25.2649
196.193 26.2946
196.206 27.3827
196.220 28.5501
196.233 29.7847
196.247 31.1106
196.260 32.5138
196.274 34.0216
196.287 35.6179
196.300 37.3205
196.314 39.1365
196.327 41.0883
196.341 43.1548
196.354 45.3751
196.368 47.7249
196.381 50.2481
196.394 52.9166
196.408 55.7796
196.421 58.8044
196.435 62.0460
196.448 65.4664
196.462 69.1269
196.475 72.9835
196.489 77.1042
196.502 81.4379
196.515 86.0246
196.529 90.8739
196.540 95.0577
196.551 99.4302
196.562 103.996
196.573 108.761
196.584 113.728
196.595 118.902
196.606 124.287
196.617 129.887
196.628 135.704
196.639 141.741
196.661 154.483
196.683 168.124
196.705 182.665
196.718 192.029
196.732 201.651
196.759 221.922
196.786 243.405
196.812 265.993
196.839 289.547
196.866 313.893
196.920 364.003
196.974 414.482
197.027 462.725
197.057 487.287
197.086 509.911
197.113 528.694
197.140 545.204
197.170 560.928
197.201 573.101
197.220 579.062
197.240 583.342
197.260 585.900
197.280 586.711
197.287 586.591
197.308 584.855
197.330 581.095
197.351 575.351
197.373 567.688
197.402 554.160
197.432 537.442
197.460 518.927
197.488 498.174
197.514 477.621
197.539 455.877
197.565 433.150
197.590 409.724
197.647 356.983
197.703 304.974
197.731 279.878
197.759 255.725
197.787 232.696
197.815 210.932
197.843 190.532
197.857 180.832
197.871 171.561
197.885 162.591
197.899 154.049
197.913 145.870
197.927 138.051
197.941 130.537
197.955 123.428
197.969 116.665
197.983 110.239
197.998 104.100
198.012 98.3250
198.026 92.8608
198.040 87.6965
198.054 82.7877
198.068 78.1928
198.082 73.8347
198.096 69.7637
198.110 65.9098
198.124 62.3163
198.138 58.9201
198.152 55.7581
198.166 52.7739
198.180 49.9988
198.194 47.3827
198.208 44.9521
198.222 42.6625
198.236 40.5366
198.250 38.5486
198.264 36.6897
198.283 34.3351
198.303 32.1982
198.322 30.2376
198.341 28.4568
198.360 26.8208
198.379 25.3323
198.398 23.9623
198.417 22.7127
198.437 21.5595
198.456 20.5046
198.475 19.5279
198.494 18.6314
198.513 17.7983
198.532 17.0307
198.552 16.3147
198.571 15.6525
198.599 14.7590
198.627 13.9504
198.655 13.2154
198.683 12.5470
198.711 11.9324
198.739 11.3675
198.767 10.8465
198.795 10.3660
198.823 9.91855
198.851 9.50221
198.880 9.11387
198.908 8.75209
198.936 8.41191
198.964 8.09262
198.992 7.79238
199.020 7.51056
199.048 7.24374
199.076 6.99168
199.132 6.52739
199.188 6.10990
199.245 5.73347
199.301 5.39150
199.357 5.08082
199.413 4.79663
199.469 4.53680
199.536 4.25642
199.602 4.00194
199.668 3.77018
199.735 3.55876
199.801 3.36475
199.867 3.18678
199.934 3.02260
200.000 2.87125
200.059 2.74652
200.118 2.62990
200.176 2.52068
200.235 2.41842
200.294 2.32222
200.353 2.23174
200.412 2.14655
200.470 2.06637
200.529 1.99055
200.588 1.91891
200.705 1.78706
200.823 1.66849
200.940 1.56163
201.058 1.46482
201.176 1.37699
201.293 1.29691
201.411 1.22383
201.528 1.15684
201.646 1.09539
201.763 1.03878
201.881 0.986604
201.998 0.938321
202.116 0.893616
202.234 0.852070
202.351 0.813452
202.469 0.777434
202.586 0.743847
202.704 0.712426
202.821 0.683042
202.939 0.655476
203.056 0.629625
203.174 0.605309
203.291 0.582449
203.409 0.560893
203.527 0.540579
203.644 0.521396
203.762 0.503264
203.997 0.469839
204.232 0.439797
204.467 0.412696
204.702 0.388166
204.937 0.365894
205.172 0.345611
205.407 0.327090
205.642 0.310145
205.845 0.296638
206.048 0.284092
206.251 0.272403
206.454 0.261495
206.658 0.251283
206.861 0.241721
207.064 0.232756
207.267 0.224343
207.470 0.216436
207.673 0.209002
208.079 0.195405
208.485 0.183298
208.891 0.172482
209.126 0.166738
209.361 0.161340
209.831 0.151478
210.301 0.142715
210.771 0.134904
211.242 0.127917
211.712 0.121652
212.182 0.116022
212.652 0.110953
213.058 0.106977
213.464 0.103347
213.870 0.100035
214.276 0.0969868
214.683 0.0941820
215.089 0.0916096
215.495 0.0892533
215.901 0.0870962
216.307 0.0851238
216.713 0.0833246
217.525 0.0801984
218.337 0.0776432
219.149 0.0756019
220.004 0.0739613
220.859 0.0728075
221.714 0.0721178
222.568 0.0718832
223.466 0.0721299
224.364 0.0728991
225.261 0.0742257
225.710 0.0751146
226.159 0.0761649
226.608 0.0773877
227.057 0.0787956
227.505 0.0804028
227.954 0.0822268
228.403 0.0842883
228.852 0.0866080
229.301 0.0892012
229.749 0.0921050
230.220 0.0955485
230.690 0.0994418
231.160 0.103842
231.630 0.108820
232.100 0.114469
232.570 0.120896
233.041 0.128234
233.276 0.132295
233.511 0.136646
233.874 0.144014
234.237 0.152257
234.601 0.161517
234.964 0.171956
235.146 0.177677
235.327 0.183766
235.509 0.190257
235.691 0.197186
235.872 0.204605
236.054 0.212555
236.236 0.221096
236.417 0.230273
236.652 0.243209
236.888 0.257484
237.123 0.273289
237.358 0.290841
237.593 0.310423
237.828 0.332353
237.945 0.344323
238.063 0.357021
238.180 0.370521
238.298 0.384890
238.480 0.409004
238.661 0.435707
238.843 0.465378
239.025 0.498454
239.116 0.516463
239.206 0.535524
239.297 0.555745
239.388 0.577225
239.479 0.600099
239.570 0.624439
239.660 0.650404
239.751 0.678142
239.869 0.716976
239.986 0.759440
240.104 0.806085
240.221 0.857391
240.339 0.914109
240.457 0.976925
240.574 1.04688
240.633 1.08486
240.692 1.12499
240.750 1.16756
240.809 1.21273
240.868 1.26069
240.927 1.31161
240.986 1.36592
241.044 1.42384
241.103 1.48570
241.162 1.55176
241.221 1.62267
241.279 1.69878
241.338 1.78065
241.397 1.86871
241.456 1.96398
241.515 2.06711
241.573 2.17902
241.632 2.30057
241.691 2.43341
241.750 2.57881
241.808 2.73847
241.867 2.91414
241.926 3.10887
241.985 3.32534
242.044 3.56721
242.073 3.69905
242.102 3.83854
242.132 3.98738
242.161 4.14596
242.190 4.31527
242.220 4.49641
242.249 4.69065
242.279 4.89944
242.308 5.12447
242.337 5.36682
242.367 5.63038
242.396 5.91696
242.426 6.22959
242.455 6.57058
242.484 6.94633
242.514 7.36048
242.543 7.81856
242.572 8.32513
242.592 8.70528
242.612 9.11290
242.633 9.55498
242.653 10.0303
242.673 10.5470
242.693 11.1039
242.713 11.7105
242.733 12.3654
242.753 13.0799
242.773 13.8522
242.793 14.6956
242.813 15.6078
242.833 16.6042
242.853 17.6818
242.873 18.8524
242.893 20.1235
242.908 21.1264
242.922 22.1911
242.937 23.3208
242.952 24.5188
242.967 25.7887
242.981 27.1339
242.996 28.5578
243.011 30.0534
243.025 31.6446
243.040 33.3249
243.055 35.0978
243.069 36.9665
243.084 38.9341
243.099 41.0039
243.113 43.1786
243.128 45.4451
243.149 48.9640
243.171 52.7228
243.192 56.7266
243.214 60.9584
243.236 65.7409
243.259 70.8041
243.282 76.1441
243.304 81.7540
243.327 87.6232
243.350 93.7377
243.372 100.079
243.395 106.625
243.425 115.365
243.454 124.337
243.483 133.463
243.513 142.624
243.558 156.750
243.604 170.376
243.633 178.754
243.662 186.645
243.692 193.936
243.721 200.497
243.753 206.776
243.785 211.966
243.808 214.902
243.831 217.213
243.853 218.892
243.876 219.922
243.900 220.294
243.925 219.876
243.949 218.672
243.974 216.694
243.998 213.968
244.023 210.539
244.043 207.238
244.063 203.534
244.103 194.978
244.142 185.203
244.181 174.420
244.208 166.585
244.235 158.512
244.289 141.910
244.367 117.550
244.407 105.859
244.446 94.7111
244.466 89.3676
244.485 84.2047
244.505 79.2325
244.525 74.4828
244.544 69.9129
244.564 65.5516
244.584 61.4010
244.603 57.4811
244.619 54.4170
244.636 51.4920
244.652 48.7044
244.668 46.0518
244.684 43.5315
244.700 41.1403
244.716 38.8748
244.732 36.7441
244.748 34.7175
244.764 32.8047
244.780 31.0012
244.796 29.3026
244.813 27.7044
244.829 26.2019
244.845 24.7908
244.861 23.4744
244.880 21.9647
244.900 20.5702
244.920 19.2832
244.939 18.1018
244.959 17.0069
244.979 15.9977
244.999 15.0677
245.018 14.2149
245.038 13.4247
245.058 12.6963
245.077 12.0245
245.097 11.4076
245.117 10.8349
245.136 10.3082
245.156 9.81830
245.175 9.36684
245.197 8.90913
245.218 8.48703
245.240 8.09715
245.261 7.73803
245.283 7.40356
245.304 7.09439
245.326 6.80540
245.347 6.53727
245.369 6.28572
245.390 6.05043
245.412 5.82993
245.433 5.62388
245.455 5.42918
245.476 5.24662
245.519 4.91076
245.558 4.63330
245.598 4.38198
245.637 4.15219
245.676 3.94234
245.716 3.74905
245.755 3.57134
245.794 3.40706
245.834 3.25477
245.873 3.11293
245.912 2.98119
245.952 2.85796
245.991 2.74305
246.030 2.63517
246.070 2.53424
246.109 2.43941
246.148 2.35018
246.188 2.26592
246.227 2.18663
246.306 2.04076
246.384 1.91008
246.463 1.79269
246.542 1.68657
246.620 1.59057
246.699 1.50325
246.778 1.42380
246.842 1.36387
246.906 1.30815
246.971 1.25627
247.035 1.20796
247.099 1.16280
247.164 1.12060
247.228 1.08112
247.293 1.04422
247.357 1.00960
247.421 0.977146
247.550 0.918213
247.679 0.866313
247.808 0.820708
247.886 0.795615
247.965 0.772486
248.044 0.751216
248.122 0.731735
248.201 0.713919
248.280 0.697732
248.358 0.683127
248.437 0.670084
248.516 0.658553
248.594 0.648547
248.673 0.640077
248.752 0.633182
248.830 0.627893
248.909 0.624293
248.988 0.622481
249.066 0.622588
249.159 0.625425
249.252 0.631559
249.345 0.641492
249.438 0.655907
249.485 0.665075
249.531 0.675741
249.578 0.688084
249.624 0.702318
249.671 0.718709
249.717 0.737581
249.764 0.759340
249.810 0.784442
249.841 0.803029
249.871 0.823569
249.901 0.846327
249.932 0.871617
249.962 0.899813
249.993 0.931356
250.023 0.966774
250.053 1.00669
250.084 1.05185
250.114 1.10312
250.145 1.16154
250.175 1.22832
250.190 1.26527
250.205 1.30486
250.221 1.34730
250.236 1.39281
250.251 1.44165
250.266 1.49406
250.281 1.55034
250.297 1.61036
250.316 1.69536
250.336 1.78861
250.356 1.89092
250.375 2.00253
250.395 2.12550
250.415 2.26025
250.434 2.40779
250.454 2.56835
250.474 2.74469
250.493 2.93719
250.513 3.14704
250.533 3.37429
250.552 3.62249
250.572 3.89037
250.592 4.18193
250.611 4.49544
250.625 4.72559
250.638 4.96593
250.652 5.21848
250.665 5.48357
250.678 5.76153
250.692 6.05266
250.705 6.35721
250.719 6.67544
250.732 7.01009
250.745 7.35638
250.772 8.09163
250.799 8.88417
250.826 9.73377
250.846 10.3941
250.865 11.0838
250.885 11.8019
250.905 12.5431
250.944 14.1066
250.983 15.7485
251.051 18.7129
251.119 21.6921
251.158 23.3522
251.198 24.9163
251.237 26.3478
251.276 27.6009
251.296 28.1521
251.316 28.6441
251.335 29.0784
251.355 29.4471
251.388 29.9147
251.420 30.1893
251.450 30.2665
251.480 30.1788
251.509 29.9273
251.529 29.6706
251.549 29.3450
251.569 28.9530
251.589 28.5000
251.609 27.9794
251.628 27.4045
251.668 26.0983
251.708 24.6191
251.748 23.0116
251.799 20.8385
251.849 18.6026
251.889 16.8493
251.929 15.1419
251.969 13.4996
252.009 11.9526
252.029 11.2150
252.049 10.5098
252.069 9.83085
252.089 9.18601
252.109 8.56933
252.129 7.98726
252.148 7.43667
252.168 6.91737
252.187 6.44798
252.206 6.00872
252.225 5.59642
252.244 5.21029
252.264 4.84762
252.283 4.51126
252.302 4.19820
252.321 3.90740
252.340 3.63637
252.359 3.38684
252.378 3.15620
252.397 2.94333
252.416 2.74712
252.435 2.56647
252.454 2.40034
252.473 2.24769
252.493 2.10049
252.513 1.96669
252.533 1.84390
252.552 1.73238
252.572 1.63008
252.592 1.53718
252.612 1.45235
252.632 1.37486
252.652 1.30369
252.672 1.23892
252.692 1.17961
252.712 1.12525
252.732 1.07511
252.752 1.02926
252.772 0.987049
252.792 0.948120
252.811 0.913547
252.830 0.881611
252.849 0.851896
252.868 0.824197
252.887 0.798199
252.906 0.774006
252.944 0.730034
252.982 0.691020
253.020 0.656341
253.058 0.625223
253.096 0.597125
253.134 0.571547
253.172 0.548265
253.210 0.526861
253.248 0.507206
253.286 0.488994
253.324 0.472150
253.362 0.456483
253.400 0.441870
253.451 0.423802
253.502 0.407252
253.552 0.392008
253.603 0.377920
253.654 0.364839
253.705 0.352706
253.755 0.341403
253.806 0.330847
253.907 0.311685
254.009 0.294785
254.110 0.279744
254.212 0.266299
254.292 0.256673
254.371 0.247795
254.451 0.239570
254.531 0.231931
254.610 0.224816
254.690 0.218174
254.849 0.206133
255.009 0.195507
255.168 0.186060
255.328 0.177605
255.487 0.169993
255.647 0.163096
255.806 0.156820
255.965 0.151081
256.125 0.145810
256.284 0.140949
256.444 0.136459
256.603 0.132296
256.762 0.128425
257.081 0.121444
257.400 0.115324
257.719 0.109916
258.038 0.105105
258.328 0.101176
258.617 0.0976133
258.907 0.0943596
259.197 0.0913762
259.487 0.0886333
259.777 0.0861091
260.067 0.0837798
260.357 0.0816272
260.936 0.0777828
261.516 0.0744634
262.096 0.0715829
262.675 0.0690735
263.197 0.0670876
263.719 0.0653276
264.241 0.0637712
264.762 0.0624048
265.284 0.0611831
265.806 0.0600982
266.327 0.0591408
266.849 0.0583041
267.893 0.0569443
268.936 0.0559559
269.980 0.0552920
271.023 0.0549182
271.950 0.0548088
273.226 0.0549777
274.501 0.0554968
275.777 0.0563578
277.052 0.0575631
278.327 0.0591221
279.603 0.0610582
280.878 0.0634026
282.153 0.0661990
283.255 0.0690246
284.356 0.0722803
285.458 0.0760263
286.559 0.0803374
287.110 0.0827355
287.660 0.0853098
288.211 0.0880818
288.762 0.0910622
289.313 0.0942670
289.863 0.0977053
290.414 0.101442
290.965 0.105494
291.602 0.110616
292.240 0.116254
292.878 0.122481
293.515 0.129376
294.153 0.137040
294.791 0.145588
295.428 0.155162
295.747 0.160385
296.066 0.165930
296.617 0.176355
297.167 0.187987
297.718 0.201026
297.993 0.208146
298.269 0.215709
298.544 0.223758
298.820 0.232331
299.095 0.241475
299.370 0.251229
299.646 0.261655
299.921 0.272816
300.196 0.284814
300.472 0.297730
300.791 0.313967
301.109 0.331720
301.428 0.351191
301.747 0.372613
302.066 0.396266
302.385 0.422461
302.703 0.451592
303.022 0.484122
303.312 0.517125
303.602 0.553897
303.747 0.573900
303.892 0.595074
304.037 0.617528
304.182 0.641369
304.327 0.666731
304.472 0.693710
304.616 0.722464
304.761 0.753154
304.906 0.785986
305.051 0.821123
305.196 0.858824
305.341 0.899360
305.501 0.947620
305.660 1.00011
305.819 1.05737
305.979 1.12001
306.138 1.18879
306.298 1.26445
306.457 1.34801
306.616 1.44064
306.776 1.54381
306.856 1.59981
306.935 1.65907
307.015 1.72188
307.095 1.78853
307.174 1.85934
307.254 1.93467
307.334 2.01494
307.414 2.10058
307.493 2.19211
307.573 2.29010
307.653 2.39519
307.732 2.50810
307.812 2.62966
307.892 2.76081
307.964 2.88936
308.037 3.02747
308.109 3.17658
308.182 3.33747
308.261 3.53036
308.341 3.74137
308.421 3.97326
308.500 4.22900
308.580 4.51218
308.660 4.82710
308.740 5.17903
308.779 5.37108
308.819 5.57443
308.856 5.77106
308.892 5.97867
308.928 6.19941
308.964 6.43319
309.001 6.68258
309.037 6.94764
309.073 7.23065
309.109 7.53347
309.145 7.85914
309.182 8.20832
309.218 8.58469
309.254 8.99150
309.290 9.43383
309.327 9.91365
309.363 10.4373
309.399 11.0108
309.419 11.3516
309.439 11.7092
309.459 12.0887
309.479 12.4880
309.499 12.9127
309.519 13.3604
309.539 13.8353
309.558 14.3397
309.578 14.8786
309.598 15.4493
309.618 16.0572
309.638 16.7055
309.658 17.4010
309.678 18.1404
309.698 18.9308
309.718 19.7764
309.738 20.6864
309.758 21.6564
309.778 22.6958
309.798 23.8101
309.818 25.0112
309.837 26.2932
309.857 27.6682
309.877 29.1429
309.897 30.7327
309.917 32.4289
309.937 34.2468
309.957 36.1944
309.977 38.2796
309.997 40.5109
310.017 42.8966
310.037 45.4453
310.050 47.2852
310.064 49.2080
310.077 51.2164
310.091 53.3131
310.105 55.5006
310.118 57.7816
310.132 60.1586
310.145 62.6155
310.159 65.1910
310.172 67.8694
310.200 73.5436
310.227 79.6529
310.254 86.1843
310.274 91.2942
310.294 96.6250
310.314 102.231
310.334 108.055
310.354 114.154
310.374 120.461
310.394 127.003
310.413 133.770
310.453 147.977
310.493 162.911
310.533 178.512
310.573 194.531
310.653 227.152
310.692 243.268
310.732 258.842
310.772 273.668
310.812 287.384
310.852 299.779
310.892 310.527
310.921 317.270
310.950 322.911
310.979 327.405
311.009 330.695
311.039 332.818
311.070 333.528
311.080 333.449
311.114 332.108
311.147 329.130
311.180 324.564
311.214 318.486
311.239 312.777
311.265 306.294
311.291 299.079
311.317 291.199
311.367 274.087
311.418 255.262
311.482 229.751
311.547 203.625
311.597 183.296
311.648 163.648
311.699 145.032
311.724 136.197
311.749 127.746
311.774 119.630
311.800 111.899
311.825 104.564
311.850 97.6293
311.876 91.0976
311.901 84.9671
311.926 79.2329
311.951 73.9076
311.973 69.5852
311.995 65.5570
312.017 61.7774
312.039 58.2722
312.061 54.9994
312.082 51.9791
312.104 49.1859
312.126 46.6097
312.148 44.2303
312.170 42.0595
312.192 40.0680
312.213 38.2649
312.235 36.6251
312.257 35.1555
312.279 33.8411
312.301 32.6750
312.319 31.8019
312.338 31.0270
312.356 30.3476
312.374 29.7612
312.393 29.2659
312.411 28.8601
312.430 28.5425
312.448 28.3124
312.466 28.1693
312.485 28.1133
312.503 28.1448
312.522 28.2644
312.540 28.4734
312.558 28.7732
312.577 29.1657
312.595 29.6501
312.616 30.3140
312.636 31.1048
312.657 32.0267
312.678 33.0844
312.699 34.2827
312.719 35.6266
312.740 37.1213
312.761 38.7636
312.781 40.5747
312.802 42.5520
312.823 44.7003
312.843 47.0240
312.864 49.5270
312.885 52.2129
312.905 55.0844
312.926 58.1281
312.951 62.1216
312.977 66.3963
313.002 70.9492
313.027 75.7746
313.053 80.8633
313.078 86.2030
313.103 91.7776
313.128 97.5441
313.170 107.418
313.211 117.678
313.253 128.173
313.294 138.701
313.344 151.393
313.395 163.493
313.446 174.600
313.471 179.657
313.496 184.301
313.524 188.888
313.551 192.899
313.580 196.431
313.609 199.224
313.630 200.783
313.651 201.924
313.672 202.640
313.693 202.926
313.700 202.924
313.714 202.778
313.737 202.127
313.760 200.977
313.782 199.328
313.805 197.205
313.836 193.537
313.867 189.049
313.898 183.933
313.928 178.187
313.957 172.151
313.986 165.688
314.015 158.850
314.044 151.713
314.105 136.111
314.166 120.190
314.205 110.142
314.244 100.368
314.282 90.9562
314.321 81.9999
314.351 75.3099
314.382 68.9940
314.412 63.0482
314.443 57.4835
314.473 52.2886
314.504 47.4965
314.519 45.2431
314.534 43.0834
314.549 41.0159
314.564 39.0390
314.581 36.9814
314.598 35.0270
314.614 33.1730
314.631 31.4163
314.647 29.7538
314.664 28.1822
314.681 26.6980
314.697 25.2978
314.714 23.9782
314.730 22.7355
314.747 21.5664
314.764 20.4672
314.780 19.4346
314.797 18.4652
314.813 17.5556
314.830 16.7076
314.845 15.9685
314.860 15.2768
314.876 14.6253
314.891 14.0117
314.906 13.4341
314.921 12.8902
314.936 12.3782
314.952 11.8961
314.967 11.4394
314.982 11.0122
314.997 10.6099
315.012 10.2309
315.028 9.87367
315.043 9.53697
315.073 8.91981
315.104 8.36809
315.134 7.87692
315.165 7.43692
315.195 7.04156
315.225 6.68514
315.256 6.36268
315.286 6.06990
315.317 5.80308
315.350 5.53757
315.383 5.29563
315.416 5.07423
315.449 4.87079
315.483 4.68314
315.516 4.50940
315.549 4.34800
315.582 4.19803
315.615 4.05742
315.648 3.92565
315.715 3.68529
315.781 3.47132
315.848 3.27973
315.908 3.12028
315.969 2.97473
316.030 2.84090
316.091 2.71782
316.152 2.60389
316.213 2.49846
316.274 2.40032
316.334 2.30904
316.395 2.22369
316.456 2.14396
316.517 2.06910
316.578 1.99892
316.699 1.87062
316.821 1.75652
316.899 1.69017
316.976 1.62832
317.053 1.57040
317.131 1.51621
317.208 1.46531
317.286 1.41753
317.441 1.33023
317.595 1.25250
317.750 1.18303
317.905 1.12071
318.060 1.06465
318.182 1.02445
318.303 0.987318
318.425 0.952993
318.547 0.921237
318.669 0.891846
318.790 0.864639
318.912 0.839456
319.034 0.816179
319.155 0.794646
319.277 0.774772
319.520 0.739643
319.764 0.710205
320.007 0.686056
320.140 0.675008
320.273 0.665444
320.405 0.657344
320.538 0.650731
320.671 0.645620
320.804 0.642064
320.936 0.640120
321.069 0.639876
321.246 0.642391
321.423 0.648479
321.600 0.658615
321.777 0.673445
321.866 0.682884
321.954 0.693847
322.043 0.706494
322.131 0.721013
322.220 0.737622
322.308 0.756580
322.397 0.778194
322.485 0.802830
322.590 0.836626
322.695 0.876228
322.748 0.898581
322.800 0.922806
322.853 0.949197
322.905 0.977889
322.958 1.00926
323.011 1.04352
323.063 1.08115
323.116 1.12248
323.168 1.16819
323.221 1.21877
323.273 1.27522
323.326 1.33833
323.356 1.37860
323.387 1.42173
323.417 1.46820
323.448 1.51841
323.478 1.57301
323.508 1.63220
323.539 1.69678
323.569 1.76749
323.600 1.84548
323.630 1.93123
323.661 2.02618
323.691 2.13171
323.721 2.24940
323.752 2.38112
323.782 2.52898
323.813 2.69546
323.837 2.84764
323.862 3.01592
323.887 3.20224
323.912 3.40872
323.937 3.63773
323.962 3.89181
323.987 4.17380
324.012 4.48671
324.037 4.83385
324.062 5.21874
324.074 5.42737
324.086 5.64514
324.099 5.87610
324.111 6.11704
324.124 6.37241
324.136 6.63864
324.149 6.92060
324.161 7.21432
324.174 7.52513
324.186 7.84862
324.211 8.54327
324.226 9.00516
324.241 9.49055
324.257 10.0035
324.272 10.5449
324.287 11.1161
324.302 11.7179
324.317 12.3513
324.333 13.0175
324.348 13.7220
324.363 14.4564
324.378 15.2262
324.393 16.0321
324.409 16.8747
324.424 17.7547
324.439 18.6725
324.454 19.6286
324.482 21.4701
324.510 23.4328
324.537 25.5300
324.565 27.7441
324.593 30.0866
324.620 32.5342
324.648 35.0962
324.675 37.7435
324.706 40.7634
324.736 43.8526
324.767 46.9976
324.797 50.1727
324.828 53.3596
324.858 56.5069
324.919 62.5822
324.941 64.6763
324.982 68.3773
325.024 71.7046
325.054 73.8580
325.085 75.7387
325.114 77.2646
325.143 78.4955
325.184 79.6897
325.212 80.1454
325.240 80.2931
325.278 80.0061
325.315 79.1886
325.352 77.8621
325.383 76.3625
325.414 74.5462
325.445 72.4351
325.476 70.0590
325.502 67.9360
325.527 65.6758
325.578 60.8339
325.640 54.5169
325.702 48.0271
325.765 41.6124
325.796 38.5019
325.827 35.4998
325.857 32.7421
325.886 30.1045
325.916 27.5979
325.946 25.2298
325.975 23.0056
326.005 20.9280
326.035 18.9977
326.064 17.2190
326.080 16.3390
326.096 15.4978
326.111 14.6948
326.127 13.9339
326.142 13.2045
326.158 12.5150
326.173 11.8555
326.189 11.2335
326.205 10.6399
326.220 10.0776
326.236 9.54551
326.251 9.04567
326.267 8.57044
326.282 8.12476
326.298 7.70174
326.313 7.30565
326.338 6.73512
326.362 6.21819
326.386 5.74656
326.410 5.32036
326.434 4.93237
326.458 4.58239
326.482 4.26424
326.506 3.97752
326.530 3.71701
326.554 3.48226
326.578 3.26887
326.602 3.07641
326.626 2.90123
326.650 2.74294
326.674 2.59912
326.698 2.46825
326.729 2.31526
326.760 2.17965
326.792 2.05862
326.823 1.95021
326.854 1.85244
326.885 1.76448
326.916 1.68477
326.947 1.61224
326.978 1.54578
327.009 1.48504
327.041 1.42914
327.072 1.37753
327.103 1.32956
327.134 1.28512
327.165 1.24372
327.196 1.20503
327.244 1.14994
327.292 1.09990
327.340 1.05423
327.389 1.01240
327.437 0.973936
327.485 0.938462
327.533 0.905654
327.581 0.875234
327.629 0.846965
327.677 0.820639
327.725 0.796076
327.773 0.773118
327.870 0.731474
327.966 0.694802
328.028 0.673303
328.090 0.653420
328.152 0.634941
328.215 0.617796
328.339 0.586947
328.464 0.560123
328.588 0.536672
328.713 0.516125
328.837 0.498083
328.961 0.482233
329.063 0.470680
329.165 0.460291
329.267 0.450939
329.369 0.442553
329.573 0.428336
329.776 0.417140
329.980 0.408591
330.184 0.402418
330.387 0.398424
330.591 0.396478
330.840 0.396772
331.089 0.399972
331.338 0.406149
331.587 0.415471
331.711 0.421402
331.836 0.428241
331.960 0.436046
332.085 0.444879
332.209 0.454834
332.334 0.466000
332.458 0.478487
332.583 0.492413
332.730 0.510970
332.877 0.532055
333.024 0.556046
333.171 0.583388
333.318 0.614649
333.465 0.650456
333.539 0.670339
333.613 0.691661
333.686 0.714620
333.760 0.739306
333.884 0.785635
333.946 0.811211
334.009 0.838530
334.071 0.867849
334.133 0.899260
334.195 0.933020
334.258 0.969371
334.320 1.00865
334.382 1.05105
334.444 1.09706
334.507 1.14696
334.569 1.20138
334.631 1.26073
334.693 1.32576
334.755 1.39727
334.818 1.47635
334.880 1.56393
334.942 1.66173
335.004 1.77127
335.036 1.83140
335.067 1.89523
335.098 1.96336
335.129 2.03623
335.160 2.11463
335.191 2.19868
335.222 2.28932
335.253 2.38736
335.285 2.49410
335.316 2.60997
335.347 2.73658
335.378 2.87541
335.409 3.02821
335.440 3.19698
335.471 3.38406
335.502 3.59217
335.534 3.82519
335.565 4.08524
335.580 4.22739
335.596 4.37713
335.611 4.53698
335.627 4.70553
335.642 4.88566
335.658 5.07578
335.674 5.27911
335.689 5.49386
335.705 5.72367
335.720 5.96650
335.736 6.22646
335.751 6.50121
335.770 6.85013
335.788 7.22553
335.806 7.62935
335.825 8.06365
335.843 8.53058
335.862 9.03240
335.880 9.57145
335.898 10.1501
335.917 10.7710
335.935 11.4366
335.954 12.1495
335.972 12.9126
335.990 13.7284
336.009 14.5997
336.027 15.5294
336.046 16.5145
336.071 17.9928
336.096 19.5939
336.122 21.3371
336.147 23.2148
336.173 25.2472
336.198 27.4233
336.224 29.7639
336.249 32.2534
336.277 35.2146
336.306 38.3732
336.334 41.7265
336.362 45.2693
336.391 48.9932
336.419 52.8868
336.447 56.9355
336.475 61.1061
336.507 65.8534
336.538 70.6922
336.600 80.5353
336.662 90.3171
336.724 99.6080
336.761 104.710
336.798 109.411
336.829 113.010
336.860 116.215
336.891 118.984
336.922 121.279
336.964 123.538
337.005 124.850
337.040 125.193
337.054 125.131
337.077 124.787
337.100 124.147
337.122 123.211
337.145 121.994
337.169 120.438
337.192 118.597
337.216 116.486
337.239 114.122
337.287 108.610
337.335 102.302
337.383 95.3840
337.431 88.0669
337.501 77.0551
337.571 66.1103
337.619 58.8626
337.667 51.9801
337.691 48.7047
337.715 45.5519
337.739 42.5285
337.763 39.6400
337.787 36.8900
337.811 34.2809
337.835 31.8135
337.859 29.4877
337.883 27.3021
337.907 25.2543
337.931 23.3411
337.955 21.5658
337.979 19.9088
338.003 18.3729
338.027 16.9526
338.051 15.6421
338.075 14.4355
338.099 13.3268
338.123 12.3099
338.147 11.3788
338.171 10.5275
338.195 9.75029
338.219 9.04149
338.243 8.39577
338.267 7.80799
338.291 7.27329
338.315 6.78708
338.339 6.34507
338.363 5.94326
338.387 5.57791
338.411 5.24559
338.435 4.94314
338.459 4.66764
338.483 4.41646
338.507 4.18717
338.531 3.97758
338.555 3.78572
338.579 3.60978
338.603 3.44817
338.627 3.29944
338.651 3.16228
338.675 3.03553
338.699 2.91817
338.723 2.80971
338.764 2.63893
338.806 2.48772
338.847 2.35236
338.889 2.23108
338.930 2.12130
338.971 2.02191
339.013 1.93108
339.054 1.84813
339.096 1.77173
339.137 1.70147
339.179 1.63634
339.220 1.57610
339.262 1.51998
339.303 1.46784
339.344 1.41918
339.386 1.37369
339.434 1.32455
339.482 1.27893
339.530 1.23651
339.578 1.19698
339.626 1.16012
339.674 1.12568
339.770 1.06335
339.866 1.00863
339.962 0.960453
340.058 0.917942
340.154 0.880411
340.237 0.851482
340.320 0.825469
340.402 0.802096
340.485 0.781125
340.568 0.762349
340.651 0.745595
340.734 0.730709
340.817 0.717578
340.900 0.706058
340.983 0.696072
341.066 0.687540
341.148 0.680396
341.314 0.670059
341.480 0.664749
341.572 0.663903
341.663 0.664530
341.755 0.666635
341.846 0.670234
341.938 0.675362
342.030 0.682053
342.121 0.690371
342.213 0.700388
342.305 0.712212
342.396 0.725927
342.488 0.741677
342.579 0.759623
342.671 0.779973
342.763 0.802906
342.854 0.828702
342.946 0.857670
343.042 0.891827
343.138 0.930361
343.234 0.973865
343.330 1.02300
343.426 1.07874
343.522 1.14209
343.570 1.17702
343.618 1.21437
343.666 1.25435
343.714 1.29713
343.760 1.34106
343.805 1.38805
343.851 1.43850
343.897 1.49275
343.943 1.55122
343.989 1.61438
344.034 1.68276
344.080 1.75703
344.126 1.83812
344.172 1.92660
344.218 2.02373
344.264 2.13085
344.309 2.24958
344.355 2.38195
344.401 2.53043
344.424 2.61165
344.447 2.69811
344.471 2.79491
344.495 2.89867
344.519 3.01013
344.543 3.13011
344.567 3.25953
344.591 3.39942
344.615 3.55093
344.639 3.71534
344.663 3.89408
344.687 4.08875
344.711 4.30111
344.735 4.53313
344.759 4.78697
344.783 5.06499
344.807 5.36983
344.831 5.70287
344.855 6.07002
344.879 6.47332
344.903 6.91645
344.927 7.40334
344.951 7.93824
344.975 8.52565
344.999 9.17037
345.023 9.87746
345.047 10.6522
345.071 11.5002
345.095 12.4272
345.119 13.4390
345.143 14.5417
345.167 15.7413
345.191 17.0438
345.215 18.4493
345.241 20.1209
345.267 21.9365
345.293 23.9029
345.319 26.0176
345.345 28.3020
345.372 30.7526
345.398 33.3724
345.424 36.1518
345.448 38.8572
345.472 41.7046
345.496 44.6913
345.520 47.8132
345.544 51.0647
345.568 54.4386
345.592 57.9261
345.616 61.5164
345.657 67.9306
345.699 74.5233
345.740 81.2369
345.782 87.9371
345.830 95.5603
345.878 102.834
345.926 109.594
345.974 115.636
346.000 118.564
346.026 121.198
346.050 123.330
346.074 125.177
346.112 127.497
346.151 129.004
346.175 129.530
346.200 129.699
346.214 129.635
346.237 129.280
346.260 128.622
346.283 127.660
346.306 126.410
346.349 123.341
346.391 119.385
346.434 114.573
346.477 109.081
346.520 103.026
346.563 96.5464
346.598 91.0093
346.633 85.3700
346.703 74.0023
346.746 67.1773
346.789 60.5861
346.832 54.2935
346.875 48.3630
346.906 44.2920
346.938 40.4631
346.969 36.8711
347.000 33.5200
347.020 31.5384
347.039 29.6610
347.059 27.8763
347.078 26.1831
347.098 24.5795
347.117 23.0635
347.137 21.6328
347.156 20.2848
347.176 19.0167
347.195 17.8257
347.215 16.7085
347.234 15.6622
347.254 14.6835
347.273 13.7691
347.293 12.9159
347.312 12.1206
347.334 11.3070
347.355 10.5558
347.377 9.86276
347.398 9.22691
347.420 8.63847
347.441 8.09686
347.463 7.59861
347.484 7.14245
347.505 6.72099
347.527 6.33352
347.548 5.97726
347.570 5.65109
347.591 5.34955
347.613 5.07325
347.634 4.81753
347.656 4.58287
347.685 4.29060
347.714 4.02821
347.744 3.79213
347.773 3.57988
347.802 3.38722
347.831 3.21248
347.861 3.05351
347.890 2.90892
347.919 2.77609
347.948 2.65412
347.978 2.54178
348.007 2.43833
348.036 2.34214
348.065 2.25306
348.095 2.16977
348.124 2.09224
348.167 1.98689
348.210 1.89102
348.253 1.80317
348.296 1.72235
348.339 1.64759
348.382 1.57853
348.424 1.51440
348.467 1.45470
348.510 1.39886
348.553 1.34677
348.596 1.29796
348.639 1.25214
348.682 1.20897
348.725 1.16841
348.811 1.09404
348.865 1.05082
348.920 1.01057
348.975 0.972875
349.029 0.937648
349.084 0.904550
349.139 0.873520
349.193 0.844330
349.248 0.816833
349.357 0.766361
349.466 0.721243
349.576 0.680730
349.685 0.644235
349.771 0.617983
349.857 0.593658
349.943 0.571073
350.028 0.550089
350.114 0.530510
350.200 0.512256
350.286 0.495169
350.372 0.479188
350.544 0.450116
350.715 0.424420
350.887 0.401599
351.059 0.381242
351.184 0.367786
351.308 0.355345
351.433 0.343820
351.558 0.333135
351.683 0.323196
351.808 0.313944
352.058 0.297270
352.307 0.282689
352.557 0.269890
352.807 0.258605
353.057 0.248636
353.260 0.241376
353.463 0.234791
353.665 0.228808
353.868 0.223369
354.071 0.218417
354.274 0.213915
354.680 0.206100
355.086 0.199665
355.492 0.194407
355.898 0.190136
356.303 0.186723
356.803 0.183572
357.302 0.181452
357.802 0.180254
358.301 0.179896
358.988 0.180671
359.675 0.182827
360.362 0.186320
361.049 0.191151
361.736 0.197364
362.423 0.205042
363.109 0.214314
363.453 0.219601
363.796 0.225356
364.358 0.235870
364.920 0.247887
365.482 0.261607
366.044 0.277274
366.325 0.285930
366.606 0.295187
366.887 0.305086
367.168 0.315675
367.449 0.327029
367.730 0.339230
368.011 0.352362
368.292 0.366503
368.635 0.385311
368.979 0.405971
369.322 0.428730
369.666 0.453873
370.009 0.481749
370.352 0.512745
370.696 0.547354
370.868 0.566192
371.039 0.586164
371.336 0.623614
371.632 0.665292
371.929 0.711876
372.077 0.737257
372.226 0.764166
372.374 0.792768
372.522 0.823193
372.670 0.855602
372.819 0.890182
372.967 0.927146
373.115 0.966736
373.264 1.00923
373.412 1.05491
373.584 1.11235
373.755 1.17520
373.927 1.24422
374.099 1.32033
374.270 1.40459
374.442 1.49833
374.614 1.60316
374.700 1.66038
374.786 1.72109
374.926 1.82907
375.067 1.94920
375.207 2.08363
375.277 2.15706
375.348 2.23501
375.418 2.31814
375.488 2.40674
375.558 2.50164
375.629 2.60323
375.699 2.71259
375.769 2.83031
375.839 2.95760
375.909 3.09570
375.995 3.28161
376.081 3.48938
376.124 3.60291
376.167 3.72339
376.210 3.85183
376.253 3.98913
376.296 4.13671
376.339 4.29513
376.382 4.46622
376.425 4.65174
376.468 4.85434
376.511 5.07568
376.553 5.31933
376.596 5.58914
376.630 5.81880
376.663 6.06945
376.696 6.34405
376.729 6.64511
376.762 6.97844
376.795 7.34778
376.829 7.75847
376.862 8.21514
376.878 8.46406
376.895 8.72752
376.912 9.00654
376.928 9.30221
376.945 9.61569
376.961 9.94819
376.978 10.3010
376.994 10.6732
377.011 11.0707
377.028 11.4929
377.044 11.9413
377.061 12.4147
377.077 12.9205
377.094 13.4579
377.111 14.0287
377.127 14.6311
377.142 15.1989
377.156 15.7935
377.171 16.4244
377.186 17.0846
377.200 17.7848
377.215 18.5170
377.230 19.2875
377.244 20.0981
377.259 20.9563
377.273 21.8523
377.288 22.7934
377.303 23.7814
377.317 24.8253
377.332 25.9126
377.347 27.0520
377.361 28.2452
377.373 29.2413
377.385 30.2739
377.396 31.3437
377.408 32.4517
377.424 33.9997
377.439 35.6089
377.455 37.2907
377.470 39.0467
377.486 40.8783
377.502 42.7867
377.517 44.7731
377.533 46.8385
377.554 49.8157
377.576 52.9455
377.597 56.2284
377.619 59.6475
377.640 63.2334
377.662 66.9502
377.683 70.8290
377.705 74.8289
377.726 78.9812
377.748 83.2602
377.769 87.6571
377.790 92.1408
377.833 101.405
377.876 110.948
377.919 120.665
377.962 130.369
378.005 139.947
378.048 149.184
378.091 157.929
378.134 166.007
378.177 173.249
378.220 179.499
378.262 184.553
378.304 188.394
378.349 191.024
378.393 192.166
378.400 192.210
378.415 192.172
378.439 191.753
378.463 190.895
378.487 189.604
378.511 187.900
378.537 185.528
378.564 182.690
378.590 179.391
378.617 175.687
378.644 171.486
378.671 166.921
378.726 156.885
378.780 145.912
378.834 134.359
378.923 115.069
378.968 105.618
379.012 96.5120
379.039 91.1452
379.067 85.9673
379.094 80.9978
379.121 76.2696
379.148 71.7610
379.175 67.5147
379.202 63.5064
379.229 59.7700
379.249 57.2035
379.269 54.7870
379.289 52.4953
379.308 50.3506
379.328 48.3297
379.348 46.4511
379.368 44.6935
379.387 43.0722
379.417 40.8623
379.447 38.9315
379.476 37.2565
379.506 35.8381
379.533 34.7470
379.560 33.8513
379.588 33.1438
379.615 32.6199
379.642 32.2697
379.669 32.0912
379.696 32.0788
379.723 32.2300
379.751 32.5437
379.778 33.0191
379.805 33.6563
379.832 34.4537
379.859 35.4198
379.886 36.5510
379.914 37.8606
379.941 39.3448
379.962 40.6223
379.983 42.0150
380.004 43.5266
380.025 45.1614
380.046 46.9238
380.067 48.8182
380.088 50.8496
380.109 53.0229
380.130 55.3430
380.151 57.8152
380.172 60.4444
380.193 63.2358
380.214 66.1941
380.235 69.3242
380.256 72.6305
380.277 76.1171
380.304 80.9072
380.331 86.0130
380.358 91.4400
380.385 97.1696
380.413 103.246
380.440 109.622
380.467 116.341
380.494 123.348
380.521 130.682
380.548 138.306
380.576 146.202
380.603 154.318
380.657 171.224
380.711 188.776
380.800 218.079
380.889 246.622
380.943 262.901
380.998 277.707
381.032 286.096
381.066 293.636
381.100 300.235
381.134 305.792
381.171 310.516
381.207 313.924
381.244 315.965
381.280 316.606
381.295 316.467
381.342 314.457
381.389 310.125
381.437 303.578
381.484 294.978
381.516 288.056
381.548 280.356
381.581 271.961
381.613 262.988
381.674 244.635
381.734 225.106
381.856 184.811
381.917 165.148
381.978 146.372
382.008 137.420
382.038 128.799
382.069 120.535
382.099 112.645
382.130 105.143
382.160 98.0356
382.190 91.3268
382.221 85.0153
382.254 78.5708
382.287 72.5840
382.320 67.0407
382.354 61.9234
382.387 57.2123
382.420 52.8859
382.453 48.9214
382.486 45.3060
382.517 42.2523
382.547 39.4553
382.578 36.8867
382.608 34.5295
382.638 32.3672
382.669 30.3842
382.699 28.5655
382.730 26.8971
382.760 25.3660
382.790 23.9599
382.821 22.6677
382.851 21.4789
382.882 20.3839
382.912 19.3742
382.942 18.4417
382.973 17.5793
383.003 16.7779
383.034 16.0369
383.064 15.3482
383.095 14.7071
383.125 14.1091
383.155 13.5505
383.186 13.0278
383.216 12.5379
383.247 12.0778
383.277 11.6452
383.307 11.2378
383.338 10.8534
383.399 10.1469
383.459 9.51316
383.509 9.04093
383.559 8.60578
383.609 8.20368
383.658 7.83185
383.708 7.48579
383.758 7.16429
383.808 6.86377
383.857 6.58344
383.907 6.32040
383.957 6.07369
384.007 5.84191
384.057 5.62425
384.106 5.41874
384.156 5.22521
384.256 4.86902
384.316 4.66947
384.377 4.48276
384.438 4.30750
384.499 4.14274
384.560 3.98739
384.621 3.84119
384.681 3.70321
384.742 3.57281
384.864 3.33241
384.985 3.11650
385.107 2.92148
385.229 2.74498
385.306 2.64113
385.384 2.54329
385.461 2.45097
385.538 2.36378
385.693 2.20327
385.848 2.05913
386.003 1.92915
386.158 1.81151
386.312 1.70466
386.467 1.60728
386.589 1.53666
386.710 1.47079
386.832 1.40916
386.954 1.35151
387.075 1.29741
387.197 1.24666
387.319 1.19890
387.440 1.15398
387.562 1.11160
387.684 1.07164
387.927 0.998157
388.170 0.932290
388.413 0.873037
388.657 0.819495
388.900 0.770967
389.143 0.726844
389.387 0.686623
389.630 0.649833
389.873 0.616113
390.116 0.585137
390.360 0.556625
390.603 0.530288
390.846 0.505907
391.090 0.483287
391.333 0.462275
391.576 0.442713
391.819 0.424483
392.063 0.407469
392.306 0.391574
392.549 0.376689
392.792 0.362740
393.036 0.349649
393.279 0.337354
393.522 0.325785
393.766 0.314890
394.252 0.294933
394.739 0.277127
395.225 0.261188
395.712 0.246876
396.198 0.233990
396.685 0.222355
397.171 0.211830
397.658 0.202289
398.145 0.193642
398.609 0.186142
399.073 0.179281
399.538 0.172985
400.002 0.167220
400.467 0.161946
400.931 0.157125
401.396 0.152721
401.860 0.148704
402.325 0.145046
402.789 0.141724
403.253 0.138718
403.718 0.136011
404.182 0.133586
404.647 0.131431
405.576 0.127891
406.283 0.125851
406.991 0.124361
407.699 0.123414
408.406 0.123012
409.203 0.123232
409.999 0.124196
410.795 0.125965
411.591 0.128623
411.989 0.130320
412.387 0.132285
412.785 0.134536
413.184 0.137090
413.582 0.139980
413.980 0.143254
414.378 0.146956
414.776 0.151125
415.262 0.156933
415.749 0.163636
416.236 0.171383
416.722 0.180358
416.965 0.185377
417.209 0.190796
417.452 0.196653
417.695 0.202989
417.939 0.209860
418.182 0.217319
418.425 0.225428
418.668 0.234256
418.934 0.244816
419.199 0.256475
419.465 0.269400
419.730 0.283779
419.995 0.299836
420.261 0.317835
420.526 0.338101
420.659 0.349205
420.791 0.361024
421.024 0.383670
421.256 0.409133
421.372 0.423075
421.488 0.437920
421.604 0.453746
421.720 0.470644
421.837 0.488732
421.953 0.508089
422.069 0.528861
422.185 0.551189
422.301 0.575241
422.417 0.601202
422.533 0.629290
422.649 0.659750
422.771 0.694540
422.893 0.732600
423.014 0.774439
423.136 0.820512
423.258 0.871517
423.379 0.928112
423.501 0.991227
423.562 1.02556
423.622 1.06194
423.683 1.10062
423.744 1.14166
423.805 1.18533
423.866 1.23188
423.927 1.28166
423.987 1.33482
424.048 1.39177
424.109 1.45292
424.170 1.51883
424.231 1.58979
424.291 1.66650
424.352 1.74967
424.413 1.84011
424.474 1.93877
424.535 2.04681
424.595 2.16563
424.656 2.29714
424.717 2.44302
424.778 2.60610
424.808 2.69509
424.839 2.78969
424.869 2.89080
424.900 2.99839
424.930 3.11349
424.960 3.23693
424.991 3.36964
425.021 3.51267
425.052 3.66722
425.082 3.83466
425.113 4.01718
425.143 4.21533
425.173 4.43171
425.204 4.66858
425.234 4.92850
425.265 5.21436
425.295 5.52940
425.325 5.87726
425.356 6.26200
425.386 6.68812
425.417 7.16064
425.447 7.68506
425.477 8.26743
425.508 8.91436
425.523 9.26425
425.538 9.63301
425.553 10.0216
425.569 10.4311
425.591 11.0689
425.613 11.7537
425.635 12.4918
425.657 13.2867
425.675 13.9789
425.693 14.7134
425.711 15.4923
425.729 16.3132
425.747 17.1873
425.765 18.1125
425.783 19.0908
425.801 20.1188
425.819 21.2099
425.837 22.3609
425.855 23.5737
425.873 24.8433
425.891 26.1858
425.909 27.5881
425.927 29.0677
425.945 30.6099
425.960 31.9760
425.975 33.3948
425.990 34.8672
426.005 36.3939
426.036 39.6117
426.066 43.0511
426.097 46.7128
426.127 50.5952
426.157 54.6937
426.188 59.0013
426.209 62.0637
426.229 65.1997
426.271 71.7316
426.312 78.5492
426.354 85.5929
426.415 96.1692
426.475 106.811
426.536 117.213
426.597 127.043
426.641 133.650
426.685 139.630
426.716 143.323
426.746 146.633
426.777 149.526
426.807 151.963
426.832 153.622
426.857 154.949
426.882 155.935
426.907 156.570
426.940 156.873
426.957 156.788
426.984 156.315
427.011 155.433
427.038 154.149
427.065 152.474
427.101 149.614
427.138 146.110
427.173 142.119
427.209 137.633
427.243 132.918
427.277 127.866
427.311 122.522
427.345 116.944
427.416 104.769
427.487 92.3524
427.564 79.0551
427.603 72.6680
427.642 66.5398
427.677 61.1509
427.713 56.0396
427.748 51.2088
427.784 46.6709
427.819 42.4217
427.855 38.4871
427.873 36.6276
427.890 34.8528
427.908 33.1418
427.926 31.5128
427.944 29.9462
427.962 28.4499
427.979 27.0225
427.997 25.6696
428.015 24.3743
428.033 23.1493
428.050 21.9786
428.068 20.8736
428.086 19.8197
428.104 18.8212
428.121 17.8759
428.139 16.9866
428.157 16.1412
428.175 15.3470
428.192 14.5931
428.210 13.8857
428.239 12.8094
428.268 11.8332
428.297 10.9488
428.326 10.1510
428.356 9.42679
428.385 8.77206
428.414 8.18027
428.443 7.64709
428.472 7.16325
428.501 6.72554
428.530 6.32925
428.559 5.97130
428.588 5.64533
428.617 5.35010
428.646 5.08045
428.675 4.83541
428.711 4.56327
428.746 4.31956
428.782 4.09938
428.817 3.90091
428.853 3.72040
428.889 3.55661
428.924 3.40704
428.960 3.27004
428.995 3.14383
429.031 3.02787
429.066 2.92073
429.102 2.82148
429.137 2.72909
429.173 2.64339
429.208 2.56349
429.244 2.48889
429.295 2.38877
429.347 2.29770
429.399 2.21466
429.450 2.13896
429.502 2.06958
429.554 2.00606
429.606 1.94787
429.657 1.89467
429.709 1.84584
429.761 1.80115
429.812 1.76032
429.864 1.72314
429.967 1.65850
430.071 1.60589
430.135 1.57855
430.200 1.55523
430.264 1.53575
430.329 1.51998
430.394 1.50783
430.458 1.49923
430.523 1.49414
430.587 1.49257
430.704 1.49872
430.762 1.50626
430.820 1.51687
430.878 1.53070
430.936 1.54787
430.994 1.56858
431.052 1.59305
431.111 1.62162
431.169 1.65450
431.227 1.69220
431.285 1.73504
431.343 1.78375
431.401 1.83883
431.459 1.90118
431.518 1.97184
431.589 2.07149
431.624 2.12754
431.660 2.18837
431.695 2.25473
431.731 2.32687
431.766 2.40572
431.802 2.49213
431.837 2.58741
431.873 2.69221
431.908 2.80817
431.944 2.93694
431.979 3.08084
432.015 3.24130
432.050 3.42130
432.086 3.62387
432.115 3.80917
432.144 4.01417
432.173 4.24130
432.202 4.49240
432.231 4.77224
432.260 5.08337
432.290 5.42952
432.319 5.81339
432.348 6.24209
432.377 6.71924
432.391 6.97853
432.406 7.25012
432.420 7.53646
432.435 7.83827
432.449 8.15859
432.464 8.49380
432.479 8.84936
432.493 9.22124
432.508 9.61542
432.522 10.0274
432.537 10.4607
432.551 10.9161
432.569 11.5070
432.587 12.1345
432.605 12.8004
432.622 13.5023
432.640 14.2499
432.658 15.0367
432.676 15.8733
432.693 16.7520
432.711 17.6844
432.729 18.6675
432.747 19.7029
432.764 20.7858
432.782 21.9300
432.800 23.1240
432.818 24.3826
432.835 25.6929
432.853 27.0705
432.871 28.5093
432.889 30.0099
432.906 31.5639
432.942 34.8676
432.977 38.4204
433.013 42.2294
433.049 46.2650
433.084 50.5246
433.120 54.9904
433.155 59.6527
433.191 64.4568
433.226 69.3822
433.262 74.3904
433.333 84.4923
433.404 94.3561
433.452 100.726
433.501 106.627
433.536 110.587
433.572 114.175
433.607 117.350
433.643 120.052
433.679 122.310
433.716 123.998
433.755 125.132
433.793 125.586
433.800 125.595
433.821 125.485
433.867 124.548
433.912 122.679
433.943 120.912
433.974 118.761
434.004 116.246
434.035 113.406
434.066 110.250
434.096 106.832
434.127 103.174
434.157 99.3127
434.219 91.1059
434.280 82.5093
434.352 72.2120
434.425 62.1670
434.456 58.0621
434.486 54.0929
434.517 50.2630
434.547 46.5867
434.578 43.0643
434.609 39.7274
434.639 36.5704
434.670 33.5969
434.701 30.7995
434.731 28.1958
434.762 25.7663
434.792 23.5227
434.823 21.4450
434.854 19.5401
434.869 18.6475
434.884 17.7935
434.900 16.9772
434.915 16.1973
434.941 14.9298
434.968 13.7629
434.994 12.6907
435.021 11.7110
435.047 10.8104
435.074 9.99017
435.100 9.23849
435.127 8.55569
435.153 7.93142
435.180 7.36549
435.206 6.84893
435.232 6.38123
435.259 5.95471
435.285 5.56874
435.312 5.21678
435.338 4.89817
435.369 4.56384
435.400 4.26517
435.430 3.99628
435.461 3.75540
435.492 3.53780
435.522 3.34212
435.553 3.16457
435.583 3.00413
435.614 2.85780
435.645 2.72483
435.675 2.60286
435.706 2.49138
435.737 2.38850
435.767 2.29391
435.798 2.20611
435.829 2.12491
435.876 2.01006
435.923 1.90690
435.971 1.81330
436.018 1.72830
436.065 1.65041
436.113 1.57903
436.160 1.51308
436.207 1.45220
436.255 1.39559
436.302 1.34303
436.350 1.29389
436.397 1.24805
436.444 1.20501
436.492 1.16470
436.586 1.09109
436.647 1.04781
436.709 1.00760
436.770 0.970146
436.831 0.935200
436.893 0.902531
436.954 0.871938
437.015 0.843243
437.076 0.816328
437.199 0.767072
437.322 0.723284
437.444 0.684106
437.567 0.648957
437.673 0.621379
437.778 0.596120
437.884 0.572882
437.990 0.551492
438.096 0.531724
438.202 0.513450
438.308 0.496511
438.413 0.480780
438.519 0.466135
438.625 0.452507
438.837 0.427926
439.048 0.406434
439.260 0.387585
439.394 0.376860
439.527 0.366953
439.795 0.349320
440.062 0.334210
440.330 0.321248
440.597 0.310137
440.864 0.300633
441.132 0.292535
441.399 0.285676
441.622 0.280802
441.845 0.276630
442.068 0.273109
442.290 0.270194
442.513 0.267849
442.736 0.266044
443.182 0.263953
443.427 0.263620
443.672 0.263844
443.917 0.264613
444.162 0.265919
444.407 0.267760
444.652 0.270138
444.897 0.273059
445.142 0.276534
445.388 0.280580
445.633 0.285215
445.878 0.290465
446.123 0.296361
446.368 0.302938
446.613 0.310239
446.858 0.318314
447.103 0.327220
447.438 0.340827
447.772 0.356292
448.106 0.373855
448.440 0.393794
448.775 0.416492
448.942 0.429012
449.109 0.442400
449.276 0.456729
449.443 0.472077
449.610 0.488534
449.777 0.506198
450.022 0.534528
450.267 0.566113
450.512 0.601448
450.758 0.641134
450.880 0.662840
451.003 0.685901
451.125 0.710473
451.248 0.736646
451.370 0.764609
451.493 0.794478
451.615 0.826484
451.738 0.860779
451.905 0.911747
452.072 0.968110
452.239 1.03071
452.406 1.10054
452.574 1.17879
452.657 1.22155
452.741 1.26693
452.824 1.31529
452.908 1.36676
452.991 1.42177
453.075 1.48052
453.197 1.57444
453.320 1.67864
453.443 1.79492
453.504 1.85817
453.565 1.92510
453.626 1.99623
453.688 2.07183
453.749 2.15229
453.810 2.23792
453.871 2.32951
453.933 2.42748
453.994 2.53248
454.055 2.64506
454.128 2.78961
454.200 2.94760
454.273 3.12118
454.345 3.31266
454.417 3.52519
454.490 3.76169
454.562 4.02679
454.598 4.17174
454.635 4.32601
454.696 4.61121
454.757 4.93131
454.788 5.10680
454.819 5.29309
454.849 5.49186
454.880 5.70437
454.910 5.93280
454.941 6.17726
454.972 6.44113
455.002 6.72471
455.033 7.03211
455.064 7.36386
455.094 7.72374
455.125 8.11489
455.153 8.50176
455.181 8.91891
455.208 9.37259
455.236 9.86305
455.264 10.3977
455.292 10.9769
455.320 11.6093
455.348 12.2954
455.376 13.0455
455.403 13.8599
455.417 14.2972
455.431 14.7506
455.445 15.2238
455.459 15.7177
455.473 16.2370
455.487 16.7752
455.501 17.3367
455.515 17.9227
455.529 18.5384
455.543 19.1762
455.557 19.8412
455.570 20.5346
455.586 21.3372
455.601 22.1716
455.616 23.0445
455.632 23.9573
455.647 24.9177
455.662 25.9147
455.678 26.9560
455.693 28.0430
455.708 29.1847
455.724 30.3677
455.739 31.6006
455.754 32.8850
455.770 34.2310
455.785 35.6225
455.800 37.0693
455.816 38.5728
455.831 40.1444
455.846 41.7649
455.877 45.1864
455.908 48.8545
455.938 52.7749
455.969 56.9651
455.999 61.3995
456.030 66.0902
456.061 71.0336
456.086 75.2726
456.111 79.6720
456.136 84.2250
456.161 88.9044
456.211 98.6949
456.261 108.906
456.323 121.814
456.384 134.894
456.445 147.863
456.506 160.340
456.568 171.944
456.598 177.291
456.629 182.279
456.659 186.836
456.690 190.954
456.720 194.597
456.750 197.730
456.783 200.454
456.815 202.548
456.847 203.990
456.879 204.764
456.900 204.908
456.911 204.867
456.946 204.216
456.980 202.785
457.015 200.582
457.050 197.648
457.077 194.846
457.104 191.633
457.132 188.032
457.159 184.070
457.213 175.336
457.266 165.555
457.325 154.005
457.383 141.847
457.491 119.001
457.544 107.777
457.598 96.9361
457.652 86.6246
457.679 81.6950
457.706 76.9557
457.732 72.3800
457.759 68.0088
457.786 63.8298
457.813 59.8461
457.852 54.3873
457.891 49.3588
457.911 46.9867
457.930 44.7279
457.950 42.5685
457.969 40.5065
457.989 38.5300
458.008 36.6570
458.028 34.8745
458.047 33.1801
458.067 31.5709
458.086 30.0442
458.106 28.5970
458.125 27.2264
458.152 25.4558
458.179 23.8234
458.206 22.3090
458.233 20.9163
458.259 19.6272
458.286 18.4441
458.313 17.3549
458.340 16.3528
458.367 15.4281
458.394 14.5814
458.420 13.8005
458.447 13.0858
458.474 12.4268
458.501 11.8235
458.528 11.2689
458.555 10.7590
458.589 10.1669
458.623 9.63412
458.657 9.15404
458.691 8.72209
458.725 8.33062
458.760 7.97739
458.794 7.65629
458.828 7.36567
458.862 7.10072
458.896 6.86024
458.930 6.64044
458.964 6.44050
458.999 6.25742
459.033 6.09067
459.067 5.93787
459.101 5.79870
459.169 5.55544
459.238 5.35393
459.306 5.18892
459.374 5.05648
459.443 4.95374
459.511 4.87869
459.579 4.83007
459.647 4.80728
459.696 4.80681
459.745 4.81977
459.794 4.84657
459.843 4.88784
459.891 4.94444
459.940 5.01752
459.989 5.10854
460.038 5.21940
460.087 5.35246
460.135 5.51069
460.184 5.69777
460.233 5.91831
460.282 6.17797
460.331 6.48375
460.355 6.65654
460.379 6.84421
460.404 7.04812
460.428 7.26979
460.455 7.53672
460.482 7.82854
460.509 8.15011
460.536 8.50198
460.563 8.89003
460.589 9.31491
460.616 9.78185
460.643 10.2950
460.670 10.8612
460.697 11.4810
460.724 12.1645
460.750 12.9122
460.777 13.7357
460.804 14.6353
460.831 15.6207
460.858 16.6989
460.887 17.9926
460.916 19.4161
460.946 20.9795
460.975 22.6875
461.004 24.5623
461.033 26.6089
461.063 28.8379
461.092 31.2509
461.109 32.7567
461.126 34.3333
461.143 35.9824
461.160 37.7056
461.177 39.5045
461.194 41.3805
461.212 43.3347
461.229 45.3562
461.263 49.6639
461.297 54.2829
461.331 59.2412
461.365 64.5066
461.392 68.8817
461.419 73.4284
461.446 78.1726
461.473 83.0688
461.499 88.1411
461.526 93.3373
461.580 104.088
461.616 111.636
461.653 119.283
461.726 134.604
461.780 145.581
461.834 156.031
461.887 165.731
461.941 174.402
461.985 180.557
462.029 185.730
462.065 189.196
462.101 191.882
462.126 193.270
462.150 194.259
462.175 194.850
462.200 195.038
462.217 194.939
462.244 194.394
462.270 193.379
462.297 191.903
462.324 189.976
462.352 187.575
462.379 184.744
462.406 181.506
462.433 177.900
462.464 173.376
462.495 168.458
462.526 163.175
462.557 157.577
462.618 145.630
462.680 133.011
462.753 117.736
462.826 102.658
462.887 90.3816
462.918 84.5070
462.949 78.8338
462.980 73.3814
463.010 68.1655
463.041 63.1981
463.072 58.4876
463.103 54.0255
463.134 49.8427
463.165 45.9240
463.195 42.2665
463.226 38.8649
463.257 35.7126
463.288 32.8010
463.319 30.1206
463.347 27.8678
463.375 25.7970
463.403 23.8913
463.431 22.1415
463.459 20.5387
463.487 19.0739
463.515 17.7382
463.543 16.5231
463.571 15.4203
463.599 14.4218
463.627 13.5202
463.655 12.7084
463.683 11.9798
463.711 11.3284
463.739 10.7485
463.767 10.2352
463.798 9.74038
463.828 9.31687
463.859 8.95826
463.890 8.66056
463.921 8.41974
463.952 8.23460
463.982 8.10212
464.013 8.02064
464.044 7.98896
464.075 8.00651
464.106 8.07271
464.137 8.18747
464.167 8.35093
464.198 8.56344
464.229 8.82544
464.260 9.13743
464.282 9.39603
464.305 9.68150
464.324 9.95488
464.344 10.2477
464.383 10.8955
464.422 11.6258
464.461 12.4374
464.501 13.3278
464.540 14.2932
464.579 15.3286
464.618 16.4271
464.672 18.0069
464.725 19.6588
464.778 21.3546
464.831 23.0584
464.893 24.9920
464.954 26.8137
465.010 28.3191
465.066 29.6304
465.106 30.4087
465.136 30.9291
465.167 31.3630
465.200 31.7199
465.232 31.9716
465.266 32.1196
465.300 32.1443
465.325 32.0843
465.350 31.9587
465.389 31.6264
465.428 31.1356
465.469 30.4814
465.509 29.6838
465.549 28.7545
465.589 27.7083
465.639 26.2339
465.690 24.6329
465.770 21.9466
465.850 19.1840
465.898 17.5660
465.945 15.9879
465.992 14.4693
466.040 13.0290
466.080 11.8737
466.120 10.7895
466.160 9.77724
466.180 9.29877
466.200 8.83894
466.220 8.39562
466.240 7.97315
466.260 7.56917
466.280 7.18347
466.300 6.81580
466.320 6.46584
466.340 6.13322
466.360 5.81754
466.377 5.55779
466.394 5.31005
466.412 5.07401
466.429 4.84932
466.446 4.63563
466.464 4.43257
466.481 4.23978
466.498 4.05791
466.515 3.88448
466.533 3.72020
466.550 3.56469
466.567 3.41840
466.584 3.27927
466.602 3.14780
466.619 3.02365
466.636 2.90710
466.654 2.79648
466.671 2.69214
466.688 2.59376
466.705 2.50154
466.723 2.41411
466.740 2.33173
466.774 2.18139
466.809 2.04753
466.844 1.92898
466.878 1.82330
466.913 1.72951
466.938 1.66677
466.964 1.60905
466.989 1.55587
467.015 1.50699
467.040 1.46162
467.066 1.41961
467.116 1.34452
467.167 1.27920
467.218 1.22209
467.269 1.17159
467.320 1.12654
467.371 1.08592
467.422 1.04916
467.473 1.01557
467.524 0.984681
467.575 0.956048
467.626 0.929478
467.728 0.881390
467.808 0.847499
467.888 0.816528
467.968 0.787987
468.048 0.761624
468.128 0.737111
468.208 0.714293
468.368 0.672960
468.528 0.636437
468.688 0.603930
468.848 0.574757
469.008 0.548449
469.161 0.525613
469.314 0.504722
469.466 0.485541
469.619 0.467875
469.772 0.451559
469.925 0.436455
470.078 0.422447
470.230 0.409433
470.383 0.397326
470.536 0.386048
470.842 0.365724
471.147 0.348012
471.453 0.332570
471.773 0.318516
472.093 0.306408
472.413 0.296054
472.733 0.287314
473.053 0.280088
473.374 0.274317
473.694 0.269976
474.014 0.267075
474.247 0.265898
474.479 0.265545
474.756 0.266270
475.032 0.268353
475.309 0.271959
475.585 0.277320
475.724 0.280752
475.862 0.284746
476.000 0.289366
476.138 0.294675
476.277 0.300763
476.415 0.307723
476.553 0.315679
476.691 0.324776
476.851 0.336977
477.011 0.351298
477.172 0.368186
477.252 0.377765
477.332 0.388222
477.412 0.399678
477.492 0.412234
477.572 0.426052
477.652 0.441316
477.732 0.458269
477.812 0.477143
477.892 0.498308
477.972 0.522211
478.052 0.549480
478.132 0.580845
478.172 0.598450
478.212 0.617487
478.252 0.638206
478.292 0.660854
478.332 0.685791
478.372 0.713245
478.412 0.743693
478.452 0.777638
478.492 0.815675
478.532 0.858514
478.572 0.906995
478.612 0.962110
478.645 1.01307
478.678 1.06983
478.710 1.13357
478.743 1.20484
478.776 1.28515
478.809 1.37519
478.825 1.42450
478.841 1.47649
478.858 1.53198
478.874 1.59050
478.890 1.65296
478.907 1.71923
478.923 1.78954
478.939 1.86364
478.956 1.94270
478.972 2.02651
478.989 2.11535
479.005 2.20889
479.021 2.30856
479.038 2.41408
479.054 2.52576
479.070 2.64315
479.087 2.76799
479.103 2.89909
479.120 3.03837
479.136 3.18445
479.156 3.37556
479.176 3.57833
479.196 3.79428
479.216 4.02401
479.236 4.26814
479.256 4.52724
479.276 4.80190
479.296 5.09269
479.316 5.40015
479.336 5.72478
479.356 6.06708
479.376 6.42749
479.396 6.80640
479.416 7.20418
479.436 7.62110
479.456 8.05741
479.489 8.81530
479.521 9.62345
479.554 10.4865
479.587 11.3981
479.620 12.3621
479.652 13.3702
479.685 14.4218
479.718 15.5127
479.758 16.8969
479.798 18.3180
479.878 21.2282
479.958 24.1250
479.998 25.5246
480.038 26.8669
480.078 28.1359
480.118 29.3066
480.140 29.8981
480.180 30.8871
480.220 31.7381
480.256 32.3807
480.293 32.8885
480.324 33.2162
480.356 33.4321
480.400 33.5423
480.444 33.4336
480.479 33.1919
480.514 32.8162
480.563 32.0669
480.608 31.1789
480.653 30.1155
480.702 28.7659
480.751 27.2597
480.800 25.6279
480.849 23.9122
480.943 20.5173
481.037 17.1573
481.087 15.4690
481.136 13.8638
481.185 12.3540
481.210 11.6387
481.234 10.9513
481.256 10.3793
481.277 9.82912
481.298 9.30110
481.319 8.79766
481.341 8.31406
481.362 7.85478
481.383 7.41528
481.404 6.99943
481.426 6.60295
481.447 6.22914
481.468 5.87400
481.489 5.54032
481.511 5.22437
481.532 4.92850
481.553 4.64925
481.574 4.38857
481.601 4.08150
481.628 3.79959
481.655 3.54137
481.682 3.30624
481.709 3.09099
481.736 2.89582
481.762 2.71791
481.789 2.55726
481.816 2.41140
481.843 2.28020
481.870 2.16154
481.897 2.05521
481.924 1.95941
481.950 1.87391
481.977 1.79717
482.004 1.72896
482.040 1.64940
482.076 1.58158
482.111 1.52408
482.147 1.47564
482.183 1.43517
482.219 1.40172
482.255 1.37447
482.290 1.35271
482.340 1.33067
482.389 1.31669
482.438 1.30972
482.487 1.30904
482.537 1.31412
482.586 1.32456
482.635 1.34013
482.684 1.36077
482.734 1.38655
482.783 1.41753
482.832 1.45403
482.881 1.49647
482.931 1.54550
482.980 1.60167
483.029 1.66599
483.078 1.73966
483.112 1.79609
483.145 1.85814
483.179 1.92646
483.212 2.00159
483.246 2.08486
483.280 2.17680
483.313 2.27913
483.347 2.39259
483.380 2.51941
483.414 2.66104
483.447 2.81950
483.481 2.99651
483.515 3.19573
483.548 3.41883
483.565 3.54092
483.582 3.67041
483.598 3.80776
483.615 3.95256
483.640 4.18293
483.664 4.43313
483.689 4.70587
483.714 5.00310
483.738 5.32827
483.763 5.68093
483.788 6.06467
483.812 6.48189
483.837 6.93704
483.861 7.42908
483.886 7.96247
483.911 8.54000
483.935 9.16453
483.960 9.83893
483.984 10.5661
484.009 11.3490
484.029 12.0356
484.049 12.7594
484.070 13.5294
484.090 14.3393
484.110 15.1985
484.130 16.1000
484.150 17.0490
484.170 18.0467
484.190 19.0994
484.210 20.1976
484.231 21.3528
484.251 22.5542
484.271 23.8141
484.291 25.1202
484.331 27.8888
484.356 29.6920
484.381 31.5635
484.405 33.5082
484.430 35.5234
484.454 37.6055
484.479 39.7504
484.528 44.2085
484.564 47.5710
484.611 52.0962
484.658 56.6938
484.705 61.2983
484.752 65.8378
484.801 70.4363
484.850 74.7877
484.900 78.8079
484.949 82.3914
484.978 84.2755
485.007 85.9650
485.056 88.3396
485.088 89.5258
485.120 90.4275
485.160 91.1476
485.200 91.3831
485.222 91.3050
485.266 90.7140
485.310 89.5573
485.349 88.0433
485.389 86.1152
485.428 83.8003
485.468 81.1418
485.507 78.1744
485.547 74.9416
485.586 71.4805
485.625 67.8557
485.665 64.0962
485.704 60.2675
485.783 52.5401
485.862 45.0046
485.919 39.7814
485.948 37.2830
485.977 34.8789
486.005 32.5587
486.034 30.3359
486.063 28.2145
486.091 26.2039
486.111 24.8734
486.131 23.5998
486.151 22.3762
486.170 21.2025
486.190 20.0729
486.210 18.9981
486.230 17.9716
486.249 16.9928
486.269 16.0560
486.289 15.1695
486.308 14.3276
486.328 13.5288
486.348 12.7719
486.368 12.0556
486.387 11.3784
486.407 10.7389
486.427 10.1326
486.446 9.56426
486.466 9.02916
486.486 8.52583
486.506 8.05278
486.525 7.60855
486.545 7.19170
486.565 6.80082
486.584 6.43273
486.604 6.08981
486.624 5.76881
486.644 5.46849
486.663 5.18762
486.683 4.92503
486.703 4.67961
486.722 4.45027
486.741 4.24441
486.760 4.05255
486.779 3.87273
486.798 3.70421
486.817 3.54543
486.835 3.39738
486.854 3.25854
486.873 3.12831
486.892 3.00546
486.911 2.89077
486.929 2.78303
486.948 2.68178
486.967 2.58607
486.986 2.49649
487.005 2.41215
487.024 2.33265
487.061 2.18654
487.099 2.05648
487.137 1.93966
487.174 1.83488
487.212 1.74002
487.249 1.65425
487.287 1.57616
487.325 1.50478
487.364 1.43612
487.404 1.37330
487.443 1.31544
487.482 1.26195
487.522 1.21224
487.561 1.16610
487.601 1.12307
487.640 1.08281
487.680 1.04498
487.719 1.00952
487.798 0.944646
487.877 0.886664
487.955 0.834661
488.020 0.795833
488.085 0.760071
488.149 0.726988
488.214 0.696304
488.278 0.667737
488.343 0.641165
488.407 0.616359
488.472 0.593158
488.536 0.571387
488.601 0.550988
488.665 0.531813
488.730 0.513761
488.859 0.480657
488.988 0.451110
489.067 0.434559
489.146 0.419042
489.225 0.404471
489.303 0.390786
489.461 0.365712
489.619 0.343375
489.777 0.323355
489.934 0.305356
490.092 0.289098
490.250 0.274358
490.386 0.262694
490.522 0.251926
490.658 0.241954
490.795 0.232697
490.931 0.224086
491.067 0.216059
491.203 0.208564
491.339 0.201552
491.476 0.194977
491.612 0.188812
491.884 0.177565
492.157 0.167579
492.429 0.158667
492.616 0.153105
492.802 0.147936
492.988 0.143120
493.175 0.138624
493.548 0.130486
493.920 0.123330
494.293 0.117005
494.666 0.111385
495.039 0.106359
495.412 0.101844
495.698 0.0986771
495.985 0.0957486
496.272 0.0930366
496.559 0.0905222
497.132 0.0860125
497.706 0.0821027
498.279 0.0786984
498.853 0.0757272
499.427 0.0731309
500.000 0.0708662
500.809 0.0681507
501.617 0.0659138
502.426 0.0641012
503.234 0.0626673
504.043 0.0615786
504.852 0.0608126
505.660 0.0603562
506.469 0.0602050
507.277 0.0603636
508.086 0.0608457
508.895 0.0616760
509.703 0.0628918
510.512 0.0645471
510.916 0.0655599
511.320 0.0667087
511.725 0.0680097
512.129 0.0694860
512.533 0.0711598
512.937 0.0730539
513.387 0.0754538
513.836 0.0782130
514.285 0.0813971
514.734 0.0850893
515.183 0.0893961
515.633 0.0944546
515.857 0.0973203
516.082 0.100448
516.306 0.103872
516.531 0.107635
516.778 0.112225
517.025 0.117360
517.272 0.123136
517.519 0.129663
517.766 0.137092
518.014 0.145603
518.261 0.155428
518.384 0.160923
518.508 0.166866
518.687 0.176425
518.867 0.187243
519.047 0.199564
519.226 0.213692
519.316 0.221567
519.406 0.230046
519.496 0.239218
519.586 0.249142
519.676 0.259935
519.765 0.271679
519.855 0.284514
519.945 0.298588
520.069 0.320319
520.130 0.332369
520.192 0.345302
520.254 0.359260
520.316 0.374343
520.378 0.390693
520.439 0.408446
520.501 0.427862
520.563 0.449159
520.625 0.472640
520.686 0.498642
520.748 0.527729
520.810 0.560418
520.872 0.597608
520.933 0.640203
520.964 0.663990
520.995 0.689679
521.026 0.717501
521.057 0.747719
521.088 0.780637
521.119 0.816598
521.150 0.855991
521.180 0.899114
521.211 0.946746
521.242 0.999321
521.273 1.05748
521.304 1.12172
521.335 1.19325
521.366 1.27278
521.397 1.36130
521.427 1.45959
521.458 1.56949
521.489 1.69203
521.505 1.75872
521.520 1.82869
521.536 1.90305
521.551 1.98105
521.567 2.06392
521.582 2.15082
521.597 2.24312
521.613 2.33987
521.628 2.44257
521.644 2.55017
521.659 2.66356
521.675 2.78302
521.690 2.90968
521.705 3.04217
521.721 3.18251
521.736 3.32920
521.752 3.48444
521.767 3.64654
521.783 3.81679
521.798 3.99550
521.814 4.18424
521.829 4.38088
521.844 4.58830
521.860 4.80416
521.875 5.03156
521.891 5.26790
521.922 5.77292
521.952 6.32491
521.983 6.92463
522.014 7.57421
522.045 8.27555
522.076 9.03029
522.107 9.83972
522.138 10.7047
522.169 11.6227
522.200 12.5996
522.230 13.6318
522.261 14.7181
522.292 15.8528
522.323 17.0409
522.354 18.2753
522.416 20.8618
522.458 22.7068
522.500 24.5904
522.542 26.4983
522.584 28.4097
522.646 31.1740
522.708 33.8200
522.770 36.2678
522.800 37.3926
522.831 38.4352
522.865 39.4757
522.899 40.3981
522.929 41.1367
522.960 41.7631
522.986 42.1974
523.012 42.5460
523.062 42.9699
523.100 43.0636
523.138 42.9635
523.177 42.6587
523.216 42.1553
523.257 41.4114
523.298 40.4665
523.339 39.3313
523.380 38.0296
523.421 36.5753
523.462 34.9974
523.534 32.0359
523.605 28.8851
523.687 25.1563
523.769 21.5005
523.822 19.2691
523.874 17.1484
523.900 16.1365
523.926 15.1597
523.953 14.2197
523.979 13.3213
524.020 11.9825
524.040 11.3501
524.061 10.7455
524.082 10.1627
524.102 9.60468
524.123 9.07120
524.143 8.56439
524.164 8.07897
524.184 7.61701
524.205 7.17803
524.226 6.76344
524.246 6.36861
524.267 5.99674
524.287 5.64352
524.308 5.31170
524.328 4.99731
524.349 4.70128
524.370 4.42286
524.390 4.16253
524.411 3.91698
524.431 3.68678
524.452 3.47117
524.472 3.27036
524.493 3.08167
524.514 2.90540
524.534 2.74087
524.555 2.58810
524.575 2.44498
524.596 2.31225
524.616 2.18804
524.637 2.07296
524.657 1.96534
524.678 1.86525
524.699 1.77216
524.719 1.68602
524.740 1.60552
524.760 1.53068
524.781 1.46109
524.801 1.39668
524.822 1.33647
524.843 1.28044
524.863 1.22828
524.884 1.17994
524.904 1.13466
524.925 1.09244
524.946 1.05305
524.966 1.01643
525.007 0.949858
525.048 0.891618
525.090 0.840203
525.131 0.794827
525.172 0.754395
525.213 0.718366
525.254 0.686018
525.295 0.656835
525.344 0.625758
525.392 0.597975
525.441 0.572935
525.490 0.550245
525.538 0.529543
525.587 0.510651
525.636 0.493305
525.684 0.477323
525.733 0.462524
525.781 0.448841
525.879 0.424301
525.976 0.402965
526.073 0.384299
526.155 0.370271
526.238 0.357656
526.320 0.346284
526.402 0.336012
526.485 0.326721
526.567 0.318308
526.649 0.310684
526.731 0.303782
526.896 0.291840
527.060 0.282061
527.225 0.274094
527.390 0.267685
527.599 0.261446
527.808 0.257053
528.018 0.254249
528.227 0.252844
528.392 0.252626
528.557 0.253130
528.721 0.254315
528.886 0.256150
529.050 0.258614
529.215 0.261692
529.379 0.265377
529.544 0.269666
529.708 0.274565
529.873 0.280084
530.038 0.286237
530.202 0.293041
530.367 0.300530
530.531 0.308728
530.696 0.317683
530.860 0.327428
531.115 0.344190
531.369 0.363203
531.623 0.384761
531.878 0.409191
532.005 0.422620
532.132 0.436936
532.259 0.452210
532.386 0.468505
532.514 0.485933
532.641 0.504562
532.768 0.524528
532.895 0.545919
533.060 0.575978
533.224 0.609005
533.389 0.645384
533.553 0.685539
533.718 0.730055
533.882 0.779509
534.047 0.834718
534.129 0.864749
534.212 0.896528
534.290 0.928716
534.369 0.962761
534.447 0.998903
534.526 1.03722
534.604 1.07799
534.683 1.12133
534.761 1.16757
534.840 1.21687
534.919 1.26962
534.997 1.32603
535.076 1.38661
535.154 1.45162
535.233 1.52171
535.311 1.59723
535.390 1.67900
535.468 1.76753
535.551 1.86861
535.633 1.97925
535.715 2.10077
535.797 2.23459
535.880 2.38291
535.962 2.54771
536.003 2.63744
536.044 2.73224
536.085 2.83280
536.126 2.93965
536.186 3.10789
536.246 3.29265
536.306 3.49718
536.366 3.72403
536.407 3.89551
536.448 4.08066
536.489 4.28214
536.530 4.50101
536.572 4.74071
536.613 5.00280
536.654 5.29172
536.695 5.60972
536.736 5.96255
536.777 6.35333
536.819 6.78951
536.839 7.02624
536.860 7.27528
536.880 7.54000
536.901 7.82020
536.921 8.11694
536.942 8.42975
536.963 8.76286
536.983 9.11427
537.004 9.48872
537.024 9.88395
537.047 10.3454
537.069 10.8355
537.092 11.3607
537.114 11.9185
537.136 12.5162
537.159 13.1509
537.181 13.8308
537.204 14.5523
537.226 15.3247
537.249 16.1439
537.271 17.0199
537.294 17.9479
537.316 18.9392
537.338 19.9879
537.361 21.1014
537.383 22.2825
537.404 23.4312
537.424 24.6420
537.445 25.9172
537.466 27.2525
537.486 28.6630
537.507 30.1445
537.527 31.6989
537.548 33.3202
537.568 35.0258
537.589 36.8096
537.610 38.6730
537.630 40.6077
537.651 42.6335
537.671 44.7315
537.692 46.9226
537.712 49.1858
537.737 51.9869
537.761 54.8920
537.785 57.9106
537.810 61.0408
537.834 64.2796
537.858 67.6234
537.907 74.6068
537.948 80.8067
537.989 87.2096
538.030 93.7872
538.071 100.489
538.154 114.052
538.236 127.359
538.303 137.643
538.371 147.031
538.412 152.194
538.453 156.818
538.498 161.191
538.543 164.777
538.576 166.930
538.610 168.579
538.644 169.717
538.678 170.326
538.700 170.438
538.711 170.405
538.748 169.886
538.784 168.751
538.821 167.007
538.858 164.683
538.909 160.504
538.960 155.330
539.008 149.591
539.057 143.166
539.101 136.814
539.145 130.102
539.190 123.111
539.234 115.935
539.331 99.9238
539.380 92.0117
539.428 84.3095
539.477 76.8644
539.526 69.7715
539.574 63.0657
539.623 56.7840
539.647 53.7980
539.672 50.9386
539.696 48.1943
539.720 45.5657
539.745 43.0425
539.769 40.6447
539.793 38.3606
539.818 36.1884
539.842 34.1179
539.866 32.1635
539.891 30.3137
539.915 28.5656
539.939 26.9157
539.963 25.3608
539.988 23.8970
540.012 22.5209
540.036 21.2233
540.061 20.0112
540.085 18.8751
540.109 17.8112
540.134 16.8119
540.158 15.8815
540.182 15.0122
540.207 14.2004
540.231 13.4397
540.255 12.7329
540.280 12.0737
540.304 11.4589
540.328 10.8834
540.353 10.3490
540.377 9.85066
540.401 9.38589
540.434 8.80087
540.468 8.26845
540.501 7.78346
540.534 7.34248
540.567 6.93855
540.600 6.57027
540.633 6.23189
540.667 5.92232
540.700 5.63685
540.733 5.37392
540.766 5.13124
540.799 4.90744
540.832 4.69936
540.866 4.50664
540.899 4.32669
540.932 4.15932
540.981 3.93259
541.029 3.72676
541.078 3.53839
541.126 3.36603
541.175 3.20711
541.224 3.06071
541.272 2.92513
541.321 2.79922
541.370 2.68177
541.418 2.57238
541.467 2.47007
541.515 2.37420
541.564 2.28400
541.613 2.19934
541.661 2.11959
541.710 2.04436
541.807 1.90591
541.905 1.78172
542.002 1.66983
542.099 1.56860
542.196 1.47667
542.294 1.39289
542.391 1.31632
542.488 1.24618
542.581 1.18444
542.674 1.12739
542.767 1.07445
542.860 1.02532
542.953 0.979546
543.045 0.936910
543.138 0.897043
543.231 0.859784
543.324 0.824833
543.417 0.792070
543.510 0.761249
543.602 0.732278
543.695 0.704954
543.788 0.679206
543.881 0.654864
543.974 0.631875
544.071 0.609090
544.168 0.587557
544.363 0.547893
544.558 0.512248
544.752 0.480107
544.947 0.450994
545.141 0.424564
545.336 0.400472
545.530 0.378471
545.681 0.362736
545.831 0.348019
545.981 0.334224
546.132 0.321276
546.282 0.309098
546.432 0.297642
546.583 0.286845
546.733 0.276655
547.034 0.257914
547.334 0.241121
547.635 0.226007
547.936 0.212366
548.130 0.204230
548.325 0.196589
548.519 0.189402
548.714 0.182639
548.908 0.176259
549.103 0.170241
549.492 0.159174
549.881 0.149255
550.270 0.140330
550.659 0.132272
551.048 0.124974
551.314 0.120386
551.579 0.116083
551.844 0.112042
552.110 0.108245
552.640 0.101309
553.171 0.0951490
553.701 0.0896470
554.232 0.0847110
554.763 0.0802759
555.293 0.0762851
555.682 0.0736104
556.071 0.0711295
556.460 0.0688272
556.850 0.0666898
557.628 0.0628637
558.406 0.0595715
559.184 0.0567521
559.962 0.0543597
560.741 0.0523626
561.519 0.0507419
562.226 0.0495902
562.934 0.0487509
563.641 0.0482423
564.349 0.0480975
564.915 0.0482783
565.481 0.0487652
566.047 0.0496129
566.613 0.0508936
567.179 0.0527089
567.744 0.0552197
568.027 0.0568064
568.310 0.0586609
568.593 0.0608280
568.876 0.0633628
569.195 0.0667454
569.513 0.0708137
569.831 0.0757417
570.150 0.0817563
570.309 0.0852670
570.468 0.0891776
570.627 0.0935491
570.786 0.0984520
570.946 0.103982
571.105 0.110247
571.264 0.117381
571.423 0.125548
571.591 0.135540
571.759 0.147243
571.927 0.161090
572.011 0.168992
572.095 0.177665
572.179 0.187233
572.263 0.197806
572.347 0.209562
572.431 0.222707
572.515 0.237506
572.599 0.254305
572.683 0.273566
572.767 0.295919
572.816 0.310625
572.865 0.326842
572.913 0.344907
572.962 0.365075
573.011 0.387831
573.059 0.413575
573.108 0.442954
573.156 0.476700
573.205 0.515792
573.254 0.561147
573.302 0.614253
573.327 0.644090
573.351 0.676437
573.375 0.711682
573.400 0.749796
573.424 0.791196
573.448 0.836183
573.473 0.885082
573.497 0.938241
573.521 0.996034
573.546 1.05886
573.572 1.13390
573.599 1.21575
573.625 1.30531
573.652 1.40322
573.678 1.51062
573.705 1.62743
573.731 1.75479
573.758 1.89351
573.784 2.04500
573.811 2.20898
573.837 2.38685
573.864 2.57950
573.890 2.78864
573.917 3.01358
573.943 3.25596
573.970 3.51665
573.992 3.74974
574.014 3.99560
574.036 4.25569
574.058 4.53043
574.081 4.82021
574.103 5.12538
574.125 5.44625
574.147 5.78307
574.169 6.13769
574.191 6.50707
574.213 6.89285
574.235 7.29505
574.257 7.71360
574.280 8.14838
574.324 9.06566
574.372 10.1469
574.421 11.2939
574.470 12.5031
574.518 13.7589
574.616 16.3656
574.713 18.9807
574.770 20.4699
574.828 21.8734
574.877 22.9689
574.925 23.9551
574.961 24.5949
574.996 25.1593
575.029 25.6177
575.062 26.0003
575.114 26.4423
575.148 26.6210
575.182 26.7119
575.200 26.7241
575.249 26.6281
575.281 26.4648
575.313 26.2247
575.341 25.9583
575.368 25.6395
575.398 25.2334
575.428 24.7697
575.483 23.7826
575.537 22.6417
575.592 21.3685
575.647 19.9997
575.722 18.0311
575.797 16.0125
575.851 14.5399
575.906 13.1015
575.961 11.7176
576.016 10.4049
576.046 9.72348
576.076 9.06870
576.105 8.44185
576.135 7.84388
576.165 7.27543
576.195 6.73685
576.225 6.22826
576.255 5.75105
576.282 5.33666
576.310 4.94816
576.337 4.58345
576.365 4.24191
576.392 3.92279
576.419 3.62529
576.447 3.34855
576.474 3.09166
576.502 2.85367
576.529 2.63362
576.556 2.43053
576.584 2.24342
576.611 2.07132
576.639 1.91328
576.666 1.76834
576.693 1.63561
576.715 1.54074
576.736 1.45224
576.757 1.36976
576.778 1.29326
576.799 1.22168
576.820 1.15506
576.842 1.09307
576.863 1.03566
576.884 0.982017
576.905 0.932132
576.926 0.885746
576.947 0.842810
576.969 0.802685
576.990 0.765364
577.032 0.698470
577.075 0.640328
577.117 0.589921
577.159 0.545889
577.202 0.507480
577.244 0.473683
577.286 0.443959
577.329 0.417627
577.371 0.394186
577.441 0.360731
577.510 0.332538
577.580 0.308391
577.650 0.287511
577.720 0.269200
577.789 0.253030
577.859 0.238588
577.929 0.225633
577.999 0.213907
578.068 0.203267
578.208 0.184640
578.347 0.168894
578.487 0.155436
578.596 0.146160
578.706 0.137850
578.816 0.130371
578.925 0.123611
579.035 0.117480
579.144 0.111899
579.364 0.102136
579.583 0.0939069
579.802 0.0869024
580.021 0.0808892
580.240 0.0756873
580.450 0.0713474
580.659 0.0675221
580.868 0.0641290
581.077 0.0611077
581.496 0.0559775
581.914 0.0518202
582.333 0.0484141
582.751 0.0456008
583.170 0.0432633
583.588 0.0413150
584.066 0.0394826
584.545 0.0380059
585.023 0.0368327
585.501 0.0359211
585.980 0.0352448
586.458 0.0347940
586.936 0.0345672
587.414 0.0345711
587.932 0.0348545
588.451 0.0354629
588.969 0.0364633
589.487 0.0379691
590.005 0.0401434
590.264 0.0415549
590.523 0.0432378
590.782 0.0452506
591.041 0.0476661
591.300 0.0505849
591.559 0.0541392
591.798 0.0581487
592.037 0.0630667
592.277 0.0691898
592.516 0.0769493
592.635 0.0816383
592.755 0.0870119
592.874 0.0932214
592.994 0.100465
593.114 0.109043
593.233 0.119361
593.353 0.132085
593.412 0.139646
593.472 0.148219
593.527 0.157185
593.582 0.167432
593.637 0.179242
593.691 0.192968
593.746 0.209051
593.801 0.228037
593.856 0.250597
593.911 0.277554
593.965 0.309901
594.020 0.348832
594.048 0.371200
594.075 0.395762
594.102 0.422735
594.130 0.452348
594.157 0.484849
594.185 0.520503
594.212 0.559590
594.239 0.602408
594.267 0.649270
594.294 0.700504
594.322 0.756455
594.349 0.817478
594.379 0.890290
594.409 0.970071
594.439 1.05732
594.469 1.15255
594.498 1.25627
594.528 1.36898
594.558 1.49117
594.588 1.62332
594.618 1.76587
594.648 1.91925
594.678 2.08383
594.708 2.25993
594.738 2.44782
594.768 2.64769
594.797 2.85966
594.827 3.08299
594.865 3.38021
594.902 3.69592
594.939 4.02947
594.977 4.37896
595.014 4.74499
595.051 5.12401
595.126 5.91705
595.236 7.12611
595.345 8.31797
595.400 8.87884
595.455 9.40022
595.510 9.87021
595.565 10.2776
595.597 10.4849
595.629 10.6645
595.654 10.7838
595.682 10.8959
595.710 10.9850
595.743 11.0600
595.776 11.1012
595.800 11.1098
595.830 11.0950
595.860 11.0521
595.872 11.0272
595.899 10.9552
595.926 10.8619
595.958 10.7246
595.989 10.5591
596.036 10.2685
596.082 9.92656
596.129 9.53795
596.175 9.11006
596.215 8.71400
596.255 8.29974
596.336 7.43272
596.437 6.30990
596.488 5.75757
596.539 5.22054
596.585 4.74652
596.632 4.29414
596.678 3.86636
596.724 3.46623
596.748 3.27585
596.771 3.09348
596.794 2.91760
596.817 2.74978
596.841 2.58857
596.864 2.43532
596.887 2.28927
596.910 2.15031
596.932 2.02945
596.953 1.91484
596.974 1.80529
596.995 1.70170
597.016 1.60294
597.037 1.50980
597.058 1.42164
597.079 1.33829
597.101 1.25923
597.122 1.18502
597.143 1.11510
597.164 1.04931
597.185 0.987172
597.206 0.929099
597.227 0.874610
597.248 0.823533
597.270 0.775476
597.291 0.730723
597.333 0.649596
597.375 0.578881
597.418 0.517523
597.460 0.464134
597.502 0.417963
597.544 0.377879
597.587 0.343252
597.627 0.314583
597.667 0.289614
597.707 0.267729
597.747 0.248608
597.787 0.231776
597.827 0.216991
597.908 0.192312
597.988 0.172747
598.068 0.156967
598.149 0.144007
598.229 0.133186
598.309 0.123981
598.389 0.116049
598.470 0.109128
598.550 0.103028
598.711 0.0927481
598.871 0.0844194
599.040 0.0772021
599.209 0.0712076
599.378 0.0661584
599.547 0.0618650
599.716 0.0581768
599.885 0.0549876
600.223 0.0497768
600.562 0.0457411
600.900 0.0425669
601.238 0.0400391
601.576 0.0380112
601.948 0.0362327
602.319 0.0348322
602.691 0.0337358
603.063 0.0328894
603.435 0.0322562
603.807 0.0318131
604.179 0.0315447
604.551 0.0314419
605.091 0.0315825
605.632 0.0320804
606.173 0.0329772
606.714 0.0343485
607.255 0.0363227
607.526 0.0376022
607.796 0.0391275
608.066 0.0409517
608.337 0.0431396
608.607 0.0457808
608.878 0.0489920
609.131 0.0526670
609.385 0.0571740
609.638 0.0627864
609.892 0.0698992
610.019 0.0742013
610.146 0.0791361
610.272 0.0848443
610.399 0.0915093
610.526 0.0994061
610.653 0.108917
610.779 0.120638
610.906 0.135514
610.965 0.143962
611.025 0.153662
611.084 0.164909
611.143 0.178051
611.202 0.193606
611.261 0.212119
611.320 0.234398
611.379 0.261293
611.439 0.294035
611.498 0.333968
611.527 0.357140
611.557 0.382758
611.587 0.411075
611.616 0.442259
611.646 0.476817
611.675 0.514965
611.705 0.557042
611.734 0.603244
611.764 0.654261
611.794 0.710342
611.823 0.771901
611.853 0.839130
611.884 0.918414
611.916 1.00554
611.948 1.10106
611.980 1.20555
612.011 1.31956
612.043 1.44365
612.075 1.57835
612.106 1.72414
612.138 1.88150
612.170 2.05082
612.201 2.23246
612.233 2.42669
612.265 2.63371
612.297 2.85360
612.328 3.08636
612.360 3.33107
612.398 3.64259
612.436 3.97055
612.474 4.31477
612.512 4.67392
612.550 5.04738
612.588 5.43122
612.664 6.22351
612.757 7.20972
612.850 8.16777
612.909 8.73968
612.968 9.26378
613.015 9.63425
613.061 9.96098
613.104 10.2154
613.146 10.4248
613.158 10.4786
613.205 10.6375
613.238 10.7129
613.270 10.7568
613.300 10.7694
613.336 10.7499
613.371 10.6928
613.404 10.6084
613.437 10.4944
613.469 10.3520
613.501 10.1829
613.534 9.98730
613.566 9.76753
613.622 9.33700
613.678 8.85065
613.743 8.23215
613.807 7.57372
613.931 6.26814
613.993 5.62130
614.055 4.99510
614.102 4.53799
614.149 4.10226
614.196 3.69072
614.243 3.30540
614.267 3.12264
614.290 2.94764
614.314 2.77898
614.337 2.61812
614.361 2.46369
614.384 2.31694
614.408 2.17716
614.431 2.04423
614.452 1.93326
614.472 1.82739
614.493 1.72650
614.514 1.63048
614.534 1.53921
614.555 1.45256
614.575 1.37038
614.596 1.29255
614.617 1.21891
614.637 1.14930
614.658 1.08359
614.678 1.02160
614.699 0.963198
614.720 0.908218
614.740 0.856509
614.761 0.807918
614.802 0.719495
614.843 0.641784
614.884 0.573674
614.926 0.514119
614.967 0.462148
615.008 0.416862
615.049 0.377443
615.090 0.343149
615.132 0.313314
615.173 0.287345
615.214 0.264715
615.255 0.244964
615.296 0.227687
615.338 0.212532
615.379 0.199197
615.420 0.187420
615.502 0.167677
615.585 0.151880
615.667 0.139001
615.750 0.128306
615.832 0.119272
615.914 0.111523
615.997 0.104789
616.079 0.0988712
616.244 0.0889364
616.409 0.0809122
616.597 0.0734486
616.786 0.0673554
616.974 0.0623007
617.162 0.0580614
617.351 0.0544657
617.539 0.0513915
617.727 0.0487393
617.916 0.0464369
618.292 0.0426538
618.669 0.0397044
619.046 0.0373701
619.422 0.0355013
619.752 0.0341623
620.082 0.0330449
620.741 0.0313220
621.400 0.0301093
622.059 0.0292634
622.719 0.0286823
623.378 0.0283070
624.037 0.0280993
624.696 0.0280296
625.732 0.0281502
626.768 0.0285063
627.804 0.0290665
628.840 0.0298143
629.876 0.0307434
630.912 0.0318555
631.947 0.0331589
632.983 0.0346677
634.019 0.0364022
635.055 0.0383889
636.091 0.0406618
637.127 0.0432638
638.163 0.0462486
639.199 0.0496833
639.717 0.0515951
640.235 0.0536523
640.753 0.0558698
641.271 0.0582627
641.883 0.0613411
642.495 0.0647169
643.107 0.0684308
643.719 0.0725420
644.331 0.0771074
644.943 0.0821867
645.556 0.0878581
646.168 0.0942160
646.686 0.100217
647.204 0.106872
647.722 0.114283
648.239 0.122566
648.498 0.127078
648.757 0.131864
649.016 0.136947
649.275 0.142348
649.534 0.148101
649.793 0.154233
650.052 0.160779
650.311 0.167773
650.664 0.178120
651.018 0.189506
651.371 0.202072
651.724 0.215984
652.077 0.231460
652.254 0.239861
652.430 0.248745
652.607 0.258161
652.783 0.268146
652.960 0.278747
653.137 0.290008
653.396 0.307859
653.655 0.327474
653.914 0.349093
654.172 0.372991
654.431 0.399524
654.690 0.429087
654.820 0.445151
654.949 0.462162
655.079 0.480194
655.208 0.499318
655.432 0.535261
655.544 0.554754
655.656 0.575341
655.768 0.597145
655.879 0.620223
655.991 0.644699
656.103 0.670689
656.215 0.698350
656.327 0.727774
656.439 0.759148
656.550 0.792651
656.662 0.828517
656.774 0.866910
656.886 0.908115
656.998 0.952420
657.127 1.00805
657.257 1.06886
657.386 1.13553
657.516 1.20886
657.645 1.28979
657.775 1.37944
657.904 1.47916
657.969 1.53324
658.034 1.59047
658.098 1.65120
658.163 1.71552
658.228 1.78397
658.293 1.85668
658.357 1.93428
658.422 2.01700
658.487 2.10544
658.551 2.20020
658.616 2.30210
658.681 2.41158
658.746 2.52988
658.810 2.65766
658.875 2.79652
658.940 2.94747
659.005 3.11240
659.069 3.29336
659.116 3.43656
659.164 3.59068
659.199 3.71447
659.234 3.84541
659.270 3.98452
659.305 4.13259
659.340 4.29049
659.375 4.45921
659.411 4.63984
659.446 4.83364
659.481 5.04258
659.517 5.26707
659.552 5.50940
659.587 5.77154
659.623 6.05566
659.658 6.36421
659.693 6.69988
659.729 7.06571
659.761 7.43087
659.793 7.82709
659.826 8.25746
659.858 8.72389
659.890 9.23293
659.923 9.78719
659.955 10.3910
659.988 11.0469
660.020 11.7638
660.052 12.5453
660.069 12.9619
660.085 13.3969
660.101 13.8508
660.117 14.3215
660.133 14.8157
660.149 15.3314
660.166 15.8692
660.182 16.4301
660.198 17.0150
660.214 17.6247
660.230 18.2602
660.247 18.9181
660.266 19.7383
660.285 20.5941
660.304 21.4961
660.323 22.4365
660.342 23.4265
660.361 24.4574
660.381 25.5358
660.400 26.6633
660.419 27.8476
660.438 29.0778
660.457 30.3614
660.476 31.6999
660.495 33.1019
660.514 34.5542
660.534 36.0651
660.553 37.6357
660.585 40.4396
660.617 43.4227
660.650 46.5886
660.682 49.9288
660.715 53.4653
660.747 57.1878
660.779 61.0945
660.812 65.1693
660.844 69.4321
660.876 73.8638
660.909 78.4554
660.941 83.1813
660.974 88.0579
661.006 93.0556
661.071 103.329
661.141 114.822
661.212 126.371
661.277 136.780
661.341 146.749
661.406 156.052
661.471 164.447
661.536 171.717
661.568 174.858
661.600 177.632
661.636 180.229
661.671 182.351
661.706 183.979
661.741 185.095
661.800 185.805
661.812 185.772
661.850 185.264
661.888 184.146
661.926 182.430
661.965 180.135
662.018 175.985
662.072 170.839
662.123 165.082
662.174 158.605
662.220 152.194
662.267 145.370
662.313 138.221
662.360 130.838
662.462 114.192
662.564 97.6875
662.615 89.7087
662.666 82.0319
662.717 74.6857
662.768 67.7449
662.819 61.2161
662.870 55.1469
662.896 52.2727
662.921 49.5251
662.947 46.8926
662.972 44.3746
662.998 41.9608
663.023 39.6687
663.049 37.4867
663.074 35.4127
663.100 33.4440
663.125 31.5779
663.151 29.8114
663.176 28.1414
663.202 26.5584
663.227 25.0713
663.253 23.6703
663.278 22.3516
663.304 21.1071
663.329 19.9426
663.355 18.8496
663.380 17.8245
663.406 16.8600
663.432 15.9603
663.457 15.1180
663.483 14.3300
663.508 13.5900
663.534 12.9010
663.559 12.2569
663.585 11.6549
663.620 10.8943
663.654 10.2029
663.689 9.57235
663.724 8.99701
663.759 8.47174
663.794 7.99177
663.828 7.55277
663.863 7.15074
663.898 6.78210
663.933 6.44355
663.968 6.13214
664.002 5.84519
664.037 5.58030
664.072 5.33530
664.107 5.10827
664.142 4.89746
664.193 4.61410
664.244 4.35860
664.295 4.12633
664.346 3.91515
664.397 3.72163
664.448 3.54432
664.499 3.38066
664.550 3.22971
664.601 3.08950
664.652 2.95941
664.703 2.83794
664.754 2.72469
664.805 2.61845
664.856 2.51898
664.907 2.42531
664.958 2.33731
665.009 2.25416
665.060 2.17579
665.163 2.03136
665.265 1.90157
665.367 1.78441
665.469 1.67821
665.571 1.58161
665.673 1.49345
665.775 1.41273
665.873 1.34182
665.970 1.27631
666.068 1.21565
666.165 1.15942
666.263 1.10707
666.360 1.05836
666.457 1.01285
666.555 0.970357
666.652 0.930528
666.750 0.893219
666.847 0.858150
666.945 0.825210
667.042 0.794167
667.140 0.764935
667.237 0.737320
667.334 0.711258
667.437 0.685453
667.539 0.661085
667.743 0.616251
667.947 0.576025
668.151 0.539799
668.355 0.507064
668.560 0.477391
668.764 0.450416
668.968 0.425840
669.126 0.408305
669.284 0.391929
669.441 0.376616
669.599 0.362279
669.757 0.348840
669.915 0.336229
670.073 0.324381
670.230 0.313248
670.388 0.302763
670.546 0.292888
670.861 0.274810
671.177 0.258729
671.493 0.244415
671.697 0.235997
671.901 0.228189
672.105 0.220953
672.309 0.214252
672.514 0.208058
672.718 0.202343
672.922 0.197086
673.126 0.192268
673.330 0.187875
673.535 0.183895
673.739 0.180321
673.943 0.177149
674.147 0.174380
674.351 0.172017
674.556 0.170070
674.760 0.168553
675.057 0.167156
675.354 0.166801
675.614 0.167444
675.874 0.169103
676.133 0.171942
676.393 0.176189
676.653 0.182151
676.783 0.185905
676.913 0.190256
677.043 0.195293
677.173 0.201104
677.303 0.207812
677.433 0.215559
677.591 0.226631
677.748 0.239920
677.906 0.255992
677.985 0.265308
678.064 0.275644
678.143 0.287162
678.222 0.300064
678.301 0.314611
678.380 0.331136
678.459 0.350084
678.537 0.372045
678.616 0.397814
678.695 0.428427
678.746 0.451552
678.797 0.477782
678.848 0.507834
678.899 0.542332
678.950 0.582308
679.001 0.628680
679.053 0.682912
679.104 0.746309
679.129 0.782171
679.155 0.820906
679.180 0.862918
679.206 0.908495
679.231 0.958151
679.257 1.01183
679.282 1.07008
679.308 1.13327
679.333 1.20209
679.359 1.27642
679.384 1.35698
679.410 1.44424
679.435 1.53869
679.461 1.64086
679.486 1.75128
679.512 1.87051
679.537 1.99967
679.563 2.13835
679.588 2.28763
679.614 2.44815
679.640 2.62124
679.665 2.80620
679.691 3.00431
679.716 3.21621
679.742 3.44346
679.767 3.68490
679.793 3.94199
679.818 4.21531
679.844 4.50658
679.869 4.81403
679.895 5.13923
679.920 5.48259
679.960 6.05115
679.999 6.66352
680.039 7.32335
680.078 8.02734
680.118 8.77852
680.157 9.57191
680.196 10.4097
680.236 11.2850
680.287 12.4737
680.338 13.7117
680.389 14.9924
680.440 16.2974
680.538 18.8095
680.635 21.2364
680.686 22.4312
680.737 23.5438
680.774 24.2920
680.811 24.9805
680.862 25.8189
680.913 26.5156
680.969 27.0970
680.999 27.3301
681.029 27.5032
681.065 27.6301
681.100 27.6713
681.139 27.6183
681.176 27.4716
681.213 27.2325
681.267 26.7232
681.300 26.3367
681.332 25.8917
681.386 25.0120
681.440 23.9903
681.494 22.8454
681.548 21.6045
681.622 19.7976
681.696 17.9127
681.805 15.1251
681.859 13.7646
681.913 12.4488
681.972 11.0786
682.002 10.4241
682.031 9.79393
682.061 9.18505
682.091 8.60050
682.120 8.04096
682.150 7.50865
682.177 7.04050
682.204 6.59575
682.231 6.17258
682.258 5.77084
682.285 5.39024
682.312 5.03042
682.339 4.69095
682.367 4.37129
682.394 4.06981
682.421 3.78808
682.448 3.52428
682.475 3.27772
682.502 3.04765
682.529 2.83332
682.556 2.63398
682.583 2.44885
682.604 2.31468
682.625 2.18881
682.646 2.06970
682.667 1.95813
682.688 1.85270
682.709 1.75409
682.730 1.66102
682.751 1.57408
682.772 1.49213
682.793 1.41565
682.814 1.34363
682.835 1.27647
682.856 1.21328
682.877 1.15440
682.898 1.09927
682.919 1.04768
682.960 0.954011
683.002 0.872020
683.044 0.800236
683.086 0.737340
683.128 0.682165
683.170 0.633678
683.212 0.590974
683.254 0.553348
683.288 0.525549
683.323 0.500333
683.357 0.477401
683.392 0.456492
683.461 0.419841
683.530 0.388844
683.599 0.362318
683.668 0.339356
683.737 0.319263
683.806 0.301506
683.875 0.285674
683.944 0.271449
684.013 0.258582
684.082 0.246874
684.220 0.226333
684.358 0.208880
684.466 0.196892
684.575 0.186178
684.683 0.176540
684.791 0.167828
684.900 0.159911
685.008 0.152701
685.225 0.140053
685.442 0.129330
685.659 0.120148
685.876 0.112202
686.092 0.105272
686.260 0.100496
686.428 0.0961538
686.763 0.0885629
687.098 0.0821485
687.433 0.0766616
687.768 0.0719130
688.103 0.0677667
688.439 0.0641145
688.774 0.0608758
689.247 0.0568797
689.720 0.0534335
690.193 0.0504289
690.666 0.0477864
691.139 0.0454432
691.613 0.0433530
692.086 0.0414752
692.559 0.0397766
693.426 0.0370436
694.294 0.0347157
695.161 0.0327107
696.029 0.0309666
696.896 0.0294366
697.763 0.0280855
698.631 0.0268854
699.498 0.0258158
700.326 0.0249040
701.154 0.0240783
702.810 0.0226465
704.466 0.0214685
706.122 0.0204987
707.778 0.0197039
709.434 0.0190599
711.090 0.0185484
712.746 0.0181564
714.008 0.0179320
715.270 0.0177687
716.531 0.0176646
717.793 0.0176188
719.528 0.0176509
721.263 0.0177954
722.998 0.0180580
724.733 0.0184478
726.467 0.0189781
728.202 0.0196674
729.937 0.0205407
731.672 0.0216311
732.697 0.0223952
733.722 0.0232598
734.747 0.0242351
735.773 0.0253486
736.798 0.0266172
737.823 0.0280635
738.848 0.0297179
739.873 0.0316172
740.741 0.0334500
741.608 0.0355258
742.475 0.0378872
743.343 0.0405866
744.210 0.0436900
745.078 0.0472791
745.945 0.0514570
746.379 0.0538046
746.813 0.0563501
747.246 0.0591205
747.680 0.0621448
748.114 0.0654553
748.547 0.0690871
748.981 0.0730822
749.415 0.0774905
749.849 0.0823714
750.282 0.0877955
750.716 0.0938486
751.150 0.100630
751.583 0.108264
752.017 0.116901
752.451 0.126729
752.668 0.132159
752.885 0.137973
753.102 0.144215
753.318 0.150922
753.535 0.158149
753.752 0.165945
753.969 0.174383
754.186 0.183529
754.403 0.193476
754.619 0.204310
754.836 0.216154
755.053 0.229125
755.270 0.243388
755.487 0.259106
755.704 0.276504
755.921 0.295827
756.138 0.317376
756.354 0.341500
756.463 0.354677
756.571 0.368662
756.680 0.383535
756.788 0.399376
756.897 0.416289
757.005 0.434341
757.113 0.453656
757.222 0.474359
757.370 0.505103
757.518 0.539109
757.665 0.576874
757.813 0.618966
757.887 0.641897
757.961 0.666170
758.035 0.691931
758.109 0.719312
758.183 0.748497
758.257 0.779572
758.331 0.812758
758.405 0.848262
758.513 0.905093
758.622 0.968259
758.676 1.00257
758.730 1.03889
758.784 1.07742
758.838 1.11836
758.893 1.16193
758.947 1.20840
759.001 1.25806
759.055 1.31128
759.109 1.36845
759.164 1.43005
759.218 1.49664
759.272 1.56888
759.321 1.64015
759.371 1.71744
759.420 1.80157
759.469 1.89350
759.518 1.99438
759.568 2.10556
759.617 2.22862
759.666 2.36515
759.716 2.51792
759.765 2.68926
759.790 2.78302
759.814 2.88220
759.839 2.98809
759.863 3.10031
759.888 3.22032
759.913 3.34771
759.937 3.48415
759.962 3.62918
759.987 3.78470
760.011 3.95021
760.036 4.12712
760.061 4.31629
760.088 4.54083
760.115 4.78188
760.142 5.04161
760.169 5.32151
760.196 5.62314
760.223 5.94816
760.250 6.29832
760.277 6.67545
760.305 7.08150
760.332 7.51847
760.359 7.98847
760.386 8.49369
760.413 9.03637
760.440 9.61886
760.467 10.2435
760.494 10.9128
760.519 11.5638
760.544 12.2529
760.568 12.9877
760.593 13.7640
760.618 14.5900
760.642 15.4611
760.667 16.3821
760.691 17.3548
760.716 18.3853
760.741 19.4668
760.765 20.6097
760.790 21.8061
760.815 23.0670
760.839 24.3834
760.864 25.7670
760.889 27.2074
760.913 28.7169
760.938 30.2837
760.963 31.9207
760.987 33.6144
761.012 35.3784
761.036 37.1976
761.061 39.0858
761.086 41.0266
761.113 43.2322
761.140 45.5061
761.194 50.2457
761.248 55.2139
761.303 60.3708
761.349 64.9482
761.396 69.5844
761.490 78.8975
761.598 89.3409
761.653 94.2508
761.707 98.8316
761.761 103.015
761.815 106.727
761.869 109.900
761.924 112.476
761.980 114.460
762.036 115.710
762.068 116.085
762.100 116.206
762.118 116.162
762.178 115.448
762.238 113.880
762.284 112.120
762.330 109.904
762.375 107.285
762.420 104.282
762.482 99.6375
762.544 94.4660
762.589 90.3930
762.635 86.1403
762.726 77.2915
762.816 68.2587
762.907 59.3840
762.981 52.4144
763.018 49.0769
763.056 45.8505
763.093 42.7370
763.130 39.7608
763.167 36.9198
763.204 34.2183
763.249 31.1063
763.295 28.2096
763.340 25.5273
763.363 24.2657
763.386 23.0613
763.408 21.9029
763.431 20.7950
763.454 19.7366
763.476 18.7265
763.499 17.7636
763.522 16.8466
763.544 15.9743
763.567 15.1488
763.592 14.2907
763.617 13.4839
763.641 12.7200
763.666 12.0033
763.691 11.3259
763.716 10.6916
763.740 10.0932
763.765 9.53370
763.790 9.00676
763.815 8.51482
763.839 8.05211
763.864 7.62066
763.889 7.21531
763.914 6.83772
763.938 6.48328
763.963 6.15336
763.986 5.86925
764.008 5.60236
764.031 5.35166
764.054 5.11618
764.077 4.89502
764.099 4.68728
764.122 4.49214
764.145 4.30959
764.167 4.13726
764.190 3.97527
764.213 3.82297
764.235 3.67971
764.258 3.54490
764.281 3.41798
764.303 3.29843
764.326 3.18624
764.371 2.97965
764.417 2.79541
764.462 2.63061
764.508 2.48302
764.553 2.34981
764.598 2.22942
764.644 2.12022
764.689 2.02102
764.734 1.93017
764.780 1.84688
764.825 1.77025
764.871 1.69968
764.916 1.63419
764.961 1.57339
765.007 1.51679
765.052 1.46407
765.097 1.41465
765.143 1.36833
765.234 1.28400
765.324 1.20905
765.415 1.14222
765.498 1.08746
765.580 1.03773
765.663 0.992454
765.745 0.951153
765.828 0.913424
765.910 0.878923
765.993 0.847356
766.075 0.818471
766.158 0.792051
766.240 0.767908
766.323 0.745883
766.405 0.725838
766.488 0.707655
766.570 0.691237
766.653 0.676500
766.735 0.663394
766.834 0.649709
766.933 0.638216
767.032 0.628883
767.131 0.621710
767.230 0.616730
767.329 0.614015
767.428 0.613679
767.527 0.615895
767.651 0.622638
767.713 0.627860
767.774 0.634455
767.836 0.642591
767.898 0.652443
767.960 0.664239
768.022 0.678242
768.084 0.694857
768.146 0.714517
768.208 0.737795
768.269 0.765365
768.331 0.798222
768.393 0.837466
768.455 0.884518
768.486 0.911465
768.517 0.941049
768.560 0.987606
768.604 1.04069
768.647 1.10143
768.690 1.17097
768.734 1.25065
768.777 1.34195
768.820 1.44655
768.842 1.50455
768.863 1.56632
768.885 1.63270
768.907 1.70335
768.928 1.77923
768.950 1.85993
768.972 1.94654
768.993 2.03858
769.015 2.13725
769.037 2.24201
769.058 2.35420
769.080 2.47317
769.102 2.60042
769.123 2.73518
769.145 2.87913
769.167 3.03136
769.188 3.19372
769.210 3.36516
769.233 3.55638
769.255 3.75944
769.278 3.97488
769.301 4.20320
769.323 4.44495
769.346 4.70063
769.369 4.97076
769.391 5.25456
769.414 5.55502
769.437 5.87138
769.459 6.20410
769.482 6.55359
769.505 6.92026
769.528 7.30447
769.550 7.70653
769.573 8.12483
769.596 8.56333
769.618 9.02038
769.664 9.99062
769.709 11.0359
769.754 12.1528
769.800 13.3445
769.845 14.6051
769.891 15.9301
769.936 17.3101
769.981 18.7438
770.027 20.2190
770.072 21.7251
770.117 23.2468
770.208 26.3002
770.299 29.2552
770.365 31.2733
770.431 33.1238
770.497 34.7584
770.542 35.7342
770.588 36.5737
770.637 37.3203
770.682 37.8394
770.721 38.1527
770.754 38.3222
770.787 38.4012
770.800 38.4074
770.840 38.3383
770.880 38.1307
770.921 37.7879
770.964 37.2841
771.007 36.6404
771.049 35.8644
771.092 34.9679
771.135 33.9573
771.178 32.8463
771.219 31.7023
771.259 30.4926
771.341 27.9149
771.427 25.0699
771.512 22.1831
771.571 20.2380
771.629 18.3464
771.687 16.5268
771.745 14.7972
771.788 13.5931
771.831 12.4492
771.874 11.3687
771.917 10.3558
771.959 9.40687
772.002 8.52439
772.024 8.10790
772.045 7.70772
772.066 7.32367
772.088 6.95720
772.115 6.51011
772.142 6.08935
772.169 5.69257
772.197 5.31902
772.224 4.96668
772.251 4.63730
772.278 4.32870
772.305 4.03999
772.333 3.76933
772.360 3.51779
772.387 3.28345
772.414 3.06541
772.442 2.86206
772.469 2.67402
772.496 2.49966
772.523 2.33815
772.545 2.21958
772.566 2.10809
772.587 2.00329
772.609 1.90484
772.630 1.81239
772.652 1.72560
772.673 1.64416
772.694 1.56775
772.716 1.49609
772.737 1.42888
772.759 1.36586
772.780 1.30677
772.823 1.19943
772.866 1.10525
772.908 1.02218
772.951 0.949001
772.994 0.884433
773.037 0.827473
773.079 0.776864
773.122 0.731881
773.165 0.691769
773.208 0.655954
773.245 0.627879
773.282 0.602282
773.356 0.557156
773.429 0.518744
773.503 0.485647
773.577 0.456796
773.651 0.431376
773.725 0.408765
773.799 0.388507
773.873 0.370175
773.947 0.353505
774.021 0.338263
774.094 0.324263
774.242 0.299401
774.390 0.277989
774.561 0.256593
774.732 0.238161
774.903 0.222117
775.074 0.208035
775.246 0.195578
775.417 0.184501
775.588 0.174589
775.759 0.165672
775.907 0.158664
776.055 0.152221
776.350 0.140787
776.646 0.130960
776.941 0.122438
777.237 0.114983
777.532 0.108421
777.828 0.102607
778.123 0.0974308
778.528 0.0912150
778.932 0.0858398
779.337 0.0811606
779.741 0.0770702
780.146 0.0734794
780.550 0.0703184
780.955 0.0675259
781.359 0.0650561
781.981 0.0618034
782.604 0.0591275
783.226 0.0569495
783.848 0.0552111
784.470 0.0538690
785.093 0.0528934
785.715 0.0522652
786.337 0.0519747
787.021 0.0520452
787.706 0.0525366
788.390 0.0534752
789.075 0.0549036
789.759 0.0568842
790.444 0.0595030
791.128 0.0628761
791.470 0.0648915
791.813 0.0671593
792.155 0.0697120
792.497 0.0725853
792.839 0.0758237
793.182 0.0794746
793.524 0.0835991
793.866 0.0882659
794.208 0.0935627
794.551 0.0995949
794.893 0.106495
795.235 0.114419
795.577 0.123570
795.919 0.134203
796.091 0.140176
796.262 0.146644
796.433 0.153666
796.604 0.161305
796.775 0.169636
796.946 0.178743
797.117 0.188727
797.288 0.199705
797.460 0.211820
797.631 0.225224
797.802 0.240114
797.973 0.256722
798.144 0.275328
798.315 0.296269
798.486 0.319962
798.657 0.346926
798.813 0.374832
798.891 0.390187
798.968 0.406597
799.046 0.424165
799.124 0.443008
799.202 0.463262
799.280 0.485053
799.357 0.508613
799.435 0.534126
799.513 0.561836
799.591 0.591995
799.668 0.625031
799.746 0.661334
799.824 0.701428
799.902 0.745909
799.987 0.801039
800.030 0.831427
800.073 0.863978
800.116 0.898942
800.159 0.936607
800.201 0.977306
800.244 1.02132
800.287 1.06929
800.330 1.12163
800.372 1.17895
800.415 1.24176
800.458 1.31116
800.501 1.38791
800.544 1.47304
800.586 1.56752
800.627 1.66820
800.668 1.77993
800.709 1.90475
800.750 2.04375
800.770 2.11963
800.791 2.19950
800.811 2.28397
800.831 2.37334
800.852 2.46790
800.872 2.56796
800.893 2.67385
800.913 2.78591
800.933 2.90510
800.954 3.03064
800.974 3.16347
800.995 3.30400
801.015 3.45266
801.035 3.60989
801.056 3.77613
801.076 3.95186
801.097 4.13849
801.117 4.33471
801.138 4.54192
801.158 4.76064
801.178 4.99141
801.199 5.23478
801.219 5.49131
801.240 5.76157
801.261 6.06047
801.282 6.37579
801.304 6.70822
801.325 7.05843
801.347 7.42711
801.368 7.81495
801.389 8.22263
801.411 8.65080
801.432 9.10014
801.454 9.57129
801.475 10.0649
801.496 10.5815
801.518 11.1217
801.539 11.6861
801.561 12.2752
801.582 12.8865
801.617 13.9461
801.652 15.0757
801.687 16.2765
801.722 17.5491
801.757 18.8937
801.792 20.3101
801.827 21.7971
801.862 23.3533
801.897 24.9760
801.932 26.6624
801.967 28.4085
802.002 30.2096
802.037 32.0602
802.072 33.9541
802.142 37.8425
802.227 42.6963
802.313 47.5245
802.395 51.9620
802.476 56.0777
802.519 58.0601
802.562 59.8902
802.605 61.5568
802.647 63.0343
802.690 64.3129
802.733 65.3723
802.782 66.3158
802.832 66.9370
802.866 67.1714
802.900 67.2478
802.917 67.2263
802.972 66.8833
803.028 66.1305
803.077 65.1326
803.125 63.8395
803.174 62.2670
803.223 60.4407
803.272 58.3869
803.321 56.1344
803.366 53.9375
803.411 51.6255
803.500 46.7534
803.598 41.2035
803.696 35.6799
803.754 32.5095
803.812 29.4582
803.870 26.5485
803.928 23.8024
803.977 21.6140
804.026 19.5657
804.075 17.6530
804.099 16.7515
804.124 15.8852
804.149 15.0507
804.173 14.2544
804.198 13.4925
804.222 12.7645
804.247 12.0699
804.271 11.4079
804.296 10.7779
804.320 10.1790
804.345 9.60820
804.369 9.06914
804.394 8.55855
804.418 8.07545
804.443 7.61703
804.467 7.18603
804.492 6.77950
804.516 6.39641
804.541 6.03432
804.565 5.69516
804.590 5.37638
804.614 5.07701
804.639 4.79606
804.663 4.53259
804.688 4.28566
804.712 4.05436
804.734 3.86616
804.755 3.68846
804.776 3.52073
804.797 3.36317
804.818 3.21380
804.839 3.07291
804.861 2.94004
804.882 2.81531
804.903 2.69712
804.924 2.58569
804.945 2.48061
804.966 2.38198
804.988 2.28850
805.009 2.20033
805.030 2.11715
805.051 2.03902
805.072 1.96491
805.094 1.89493
805.136 1.76664
805.178 1.65169
805.221 1.54896
805.263 1.45650
805.305 1.37346
805.348 1.29847
805.390 1.23056
805.439 1.15947
805.488 1.09571
805.537 1.03804
805.586 0.985861
805.635 0.938246
805.684 0.894793
805.733 0.854892
805.782 0.818114
805.831 0.784026
805.880 0.752456
805.929 0.723065
805.978 0.695625
806.076 0.645797
806.174 0.601797
806.237 0.576297
806.299 0.552583
806.362 0.530439
806.424 0.509716
806.549 0.472031
806.674 0.438669
806.799 0.408932
806.923 0.382328
807.048 0.358393
807.173 0.336769
807.271 0.321197
807.369 0.306744
807.467 0.293301
807.565 0.280786
807.761 0.258165
807.957 0.238320
808.154 0.220797
808.350 0.205257
808.546 0.191399
808.742 0.178987
808.938 0.167818
809.134 0.157738
809.330 0.148601
809.527 0.140298
809.723 0.132724
809.919 0.125801
810.115 0.119453
810.311 0.113617
810.686 0.103703
811.060 0.0951523
811.434 0.0877193
811.809 0.0812160
812.183 0.0754918
812.558 0.0704295
812.932 0.0659292
813.306 0.0619102
813.699 0.0581428
814.091 0.0547671
814.483 0.0517303
814.876 0.0489890
815.268 0.0465047
815.660 0.0442477
816.445 0.0403122
817.193 0.0371478
817.942 0.0344415
818.691 0.0321099
819.440 0.0300901
820.189 0.0283298
820.938 0.0267881
821.687 0.0254310
822.435 0.0242321
823.577 0.0226599
824.718 0.0213430
825.859 0.0202386
827.000 0.0193063
828.141 0.0185144
829.282 0.0178464
830.423 0.0172858
831.564 0.0168191
833.561 0.0161985
835.558 0.0157948
837.555 0.0155922
839.552 0.0155626
841.193 0.0156693
842.833 0.0158844
844.473 0.0162432
846.114 0.0167476
847.754 0.0174175
849.395 0.0182823
851.035 0.0193823
852.675 0.0207665
854.244 0.0224427
855.029 0.0234392
855.813 0.0245615
856.598 0.0258292
857.383 0.0272660
858.167 0.0289010
858.952 0.0307703
859.558 0.0324034
860.164 0.0342280
860.770 0.0362746
861.376 0.0385789
861.983 0.0411835
862.589 0.0441425
863.195 0.0475294
863.801 0.0514322
864.194 0.0542820
864.586 0.0574269
864.978 0.0609109
865.370 0.0647825
865.763 0.0691043
866.155 0.0739467
866.547 0.0794006
866.939 0.0855709
867.296 0.0919175
867.653 0.0990885
868.009 0.107237
868.366 0.116549
868.722 0.127259
869.079 0.139664
869.257 0.146619
869.436 0.154150
869.614 0.162327
869.792 0.171226
869.988 0.181961
870.185 0.193813
870.381 0.206953
870.577 0.221579
870.773 0.237935
870.969 0.256292
871.165 0.277011
871.361 0.300525
871.540 0.324799
871.718 0.352330
871.807 0.367524
871.896 0.383770
871.985 0.401212
872.075 0.419934
872.164 0.440117
872.253 0.461877
872.342 0.485450
872.431 0.510999
872.520 0.538836
872.609 0.569201
872.699 0.602524
872.788 0.639173
872.886 0.684066
872.984 0.734618
873.033 0.762408
873.082 0.792036
873.131 0.823768
873.180 0.857852
873.229 0.894657
873.278 0.934371
873.327 0.977463
873.376 1.02440
873.425 1.07584
873.474 1.13221
873.523 1.19439
873.572 1.26324
873.619 1.33638
873.666 1.41748
873.713 1.50793
873.760 1.60916
873.806 1.72281
873.830 1.78487
873.853 1.85076
873.877 1.92077
873.900 1.99519
873.923 2.07433
873.947 2.15855
873.970 2.24818
873.994 2.34363
874.017 2.44529
874.040 2.55359
874.064 2.66898
874.087 2.79195
874.111 2.92300
874.134 3.06266
874.157 3.21148
874.181 3.37007
874.204 3.53901
874.228 3.71897
874.251 3.91060
874.274 4.11460
874.298 4.33169
874.321 4.56262
874.346 4.82117
874.370 5.09564
874.395 5.38800
874.419 5.69920
874.444 6.03026
874.468 6.38217
874.493 6.75598
874.517 7.15272
874.542 7.57521
874.566 8.02110
874.591 8.49309
874.615 8.99227
874.640 9.51966
874.664 10.0763
874.689 10.6632
874.713 11.2814
874.738 11.9344
874.762 12.6180
874.787 13.3355
874.811 14.0877
874.836 14.8786
874.861 15.7025
874.885 16.5631
874.910 17.4607
874.934 18.3998
874.959 19.3728
874.983 20.3836
875.008 21.4323
875.057 23.6424
875.106 26.0002
875.146 28.0410
875.186 30.1676
875.226 32.3794
875.266 34.6691
875.315 37.5666
875.364 40.5438
875.413 43.5855
875.462 46.6677
875.560 52.8511
875.658 58.8496
875.707 61.6958
875.756 64.3978
875.805 66.9229
875.854 69.2393
875.904 71.3211
875.953 73.1320
875.995 74.4650
876.037 75.5641
876.086 76.5260
876.134 77.1565
876.167 77.3911
876.200 77.4675
876.217 77.4461
876.270 77.1032
876.324 76.3477
876.358 75.6496
876.392 74.7936
876.435 73.5270
876.477 72.0396
876.543 69.2922
876.610 66.1048
876.676 62.5584
876.743 58.7290
876.827 53.5700
876.912 48.2586
877.045 39.9476
877.111 35.9520
877.178 32.1385
877.244 28.5352
877.277 26.8266
877.311 25.1822
877.344 23.6039
877.377 22.0934
877.410 20.6517
877.443 19.2792
877.474 18.0872
877.504 16.9563
877.534 15.8819
877.564 14.8632
877.594 13.8992
877.625 12.9887
877.655 12.1302
877.685 11.3223
877.715 10.5633
877.745 9.85139
877.776 9.18474
877.806 8.56144
877.836 7.97954
877.866 7.43708
877.896 6.93207
877.927 6.46254
877.960 5.98359
877.993 5.54409
878.026 5.14004
878.060 4.76903
878.093 4.42772
878.126 4.11593
878.159 3.83044
878.192 3.56922
878.226 3.32964
878.259 3.11132
878.292 2.91180
878.325 2.72948
878.359 2.56241
878.392 2.41018
878.425 2.27100
878.458 2.14369
878.501 1.99695
878.543 1.86567
878.585 1.74802
878.627 1.64238
878.670 1.54731
878.712 1.46154
878.754 1.38394
878.797 1.31371
878.839 1.24964
878.881 1.19116
878.923 1.13761
878.966 1.08841
879.008 1.04309
879.050 1.00119
879.093 0.962337
879.135 0.926297
879.201 0.874338
879.268 0.827560
879.334 0.785070
879.401 0.746390
879.467 0.710905
879.534 0.678314
879.600 0.648179
879.666 0.620309
879.733 0.594379
879.799 0.570265
879.866 0.547719
879.932 0.526660
880.065 0.488356
880.198 0.454485
880.331 0.424360
880.464 0.397432
880.597 0.373255
880.730 0.351464
880.863 0.331754
880.995 0.313869
881.128 0.297595
881.261 0.282749
881.388 0.269760
881.515 0.257813
881.642 0.246805
881.769 0.236655
881.896 0.227270
882.022 0.218597
882.276 0.203129
882.530 0.189856
882.784 0.178477
883.037 0.168758
883.291 0.160525
883.484 0.155171
883.678 0.150569
883.871 0.146695
884.064 0.143545
884.257 0.141128
884.451 0.139476
884.644 0.138645
884.837 0.138723
885.067 0.140186
885.297 0.143481
885.526 0.149218
885.641 0.153324
885.756 0.158535
885.870 0.165200
885.985 0.173820
886.100 0.185159
886.215 0.200348
886.272 0.209903
886.330 0.221123
886.387 0.234347
886.444 0.249986
886.502 0.268526
886.559 0.290546
886.617 0.316723
886.674 0.347788
886.728 0.382665
886.783 0.423681
886.837 0.471829
886.891 0.528098
886.946 0.593905
887.000 0.670318
887.054 0.759027
887.082 0.808407
887.109 0.861191
887.136 0.917962
887.163 0.978730
887.190 1.04369
887.218 1.11305
887.245 1.18699
887.272 1.26572
887.299 1.34941
887.326 1.43793
887.353 1.53209
887.381 1.63175
887.408 1.73706
887.435 1.84774
887.462 1.96473
887.489 2.08776
887.517 2.21691
887.544 2.35173
887.572 2.50127
887.601 2.65778
887.630 2.82124
887.658 2.99161
887.687 3.16881
887.716 3.35271
887.773 3.73990
887.831 4.15129
887.888 4.58423
887.945 5.03529
888.003 5.50029
888.136 6.60196
888.202 7.14747
888.269 7.67593
888.341 8.22052
888.414 8.71735
888.474 9.08482
888.534 9.40215
888.601 9.68572
888.655 9.86119
888.688 9.94236
888.722 10.0026
888.755 10.0418
888.788 10.0597
888.800 10.0609
888.833 10.0495
888.867 10.0168
888.873 10.0086
888.886 9.98739
888.900 9.96276
888.927 9.90282
888.984 9.73569
889.031 9.55033
889.079 9.32797
889.127 9.07119
889.174 8.78328
889.222 8.46718
889.270 8.12806
889.318 7.76853
889.365 7.39420
889.513 6.18187
889.587 5.57002
889.660 4.97231
889.721 4.49671
889.782 4.04288
889.843 3.61317
889.873 3.40860
889.903 3.21190
889.934 3.02199
889.964 2.83969
889.995 2.66512
890.025 2.49887
890.055 2.33986
890.086 2.18863
890.116 2.04510
890.146 1.90961
890.177 1.78113
890.207 1.65996
890.238 1.54591
890.268 1.43911
890.298 1.33864
890.329 1.24460
890.359 1.15676
890.389 1.07509
890.420 0.998802
890.450 0.927894
890.481 0.862090
890.511 0.801309
890.541 0.744879
890.572 0.692738
890.602 0.644624
890.632 0.600421
890.663 0.559589
890.693 0.522041
890.754 0.455987
890.815 0.400323
890.875 0.353688
890.936 0.314551
890.997 0.281836
891.058 0.254428
891.118 0.231431
891.179 0.212053
891.240 0.195716
891.301 0.181830
891.361 0.169997
891.483 0.151007
891.604 0.136562
891.726 0.125221
891.847 0.116049
891.969 0.108436
892.090 0.101981
892.333 0.0915493
892.576 0.0834294
892.819 0.0769080
893.062 0.0715536
893.444 0.0648437
893.826 0.0596275
894.208 0.0554722
894.590 0.0520985
894.972 0.0493155
895.354 0.0469933
895.735 0.0450361
896.117 0.0433748
896.742 0.0411576
897.367 0.0394249
897.992 0.0380708
898.617 0.0370240
899.242 0.0362325
899.866 0.0356597
900.491 0.0352815
901.116 0.0350812
902.019 0.0350675
902.921 0.0353470
903.824 0.0359189
904.726 0.0368078
905.629 0.0380292
906.531 0.0396102
907.434 0.0415990
908.336 0.0440625
908.927 0.0459733
909.517 0.0481588
910.107 0.0506603
910.697 0.0535255
911.287 0.0568143
911.877 0.0606028
912.467 0.0649946
913.058 0.0701165
913.439 0.0738925
913.821 0.0780918
914.203 0.0827775
914.585 0.0880243
914.967 0.0939269
915.349 0.100594
915.731 0.108168
916.112 0.116813
916.442 0.125309
916.772 0.134935
917.102 0.145900
917.432 0.158466
917.761 0.172963
917.926 0.181063
918.091 0.189813
918.256 0.199287
918.421 0.209570
918.586 0.220758
918.751 0.232955
918.942 0.248536
919.133 0.265886
919.324 0.285301
919.514 0.307131
919.705 0.331818
919.896 0.359868
919.992 0.375370
920.087 0.391962
920.183 0.409793
920.278 0.428953
920.426 0.461597
920.573 0.498446
920.647 0.518717
920.721 0.540369
920.795 0.563542
920.868 0.588359
920.942 0.615072
921.016 0.643861
921.090 0.674977
921.163 0.708668
921.237 0.745376
921.311 0.785425
921.385 0.829436
921.458 0.877920
921.506 0.912145
921.554 0.948770
921.602 0.988151
921.649 1.03062
921.697 1.07667
921.745 1.12655
921.793 1.18088
921.840 1.24025
921.888 1.30550
921.936 1.37717
921.983 1.45632
922.031 1.54402
922.079 1.64172
922.127 1.75043
922.174 1.87196
922.198 1.93824
922.222 2.00815
922.261 2.13219
922.300 2.26876
922.339 2.41929
922.378 2.58489
922.417 2.76809
922.456 2.96980
922.496 3.19306
922.535 3.43888
922.574 3.71084
922.613 4.01002
922.652 4.34059
922.691 4.70366
922.730 5.10402
922.769 5.54266
922.808 6.02504
922.847 6.55192
922.882 7.06335
922.916 7.61454
922.951 8.20927
922.986 8.84989
923.021 9.53870
923.055 10.2780
923.090 11.0698
923.125 11.9162
923.149 12.5319
923.172 13.1749
923.196 13.8458
923.220 14.5419
923.244 15.2696
923.268 16.0230
923.316 17.6205
923.363 19.3389
923.411 21.1708
923.459 23.1174
923.506 25.1751
923.541 26.7432
923.576 28.3598
923.611 30.0258
923.645 31.7374
923.715 35.2781
923.784 38.9381
923.880 44.0712
923.975 49.1681
924.053 53.1826
924.131 56.9410
924.179 59.0747
924.227 61.0508
924.275 62.8433
924.322 64.4356
924.370 65.8088
924.418 66.9462
924.475 67.9770
924.532 68.6330
924.566 68.8416
924.600 68.9097
924.620 68.8851
924.683 68.4874
924.747 67.6140
924.789 66.7771
924.831 65.7483
924.872 64.5694
924.913 63.2268
924.953 61.8008
924.992 60.2513
925.070 56.8207
925.153 52.8434
925.235 48.6035
925.324 43.8094
925.414 38.9917
925.496 34.6700
925.578 30.5264
925.620 28.5435
925.661 26.6294
925.702 24.7898
925.743 23.0334
925.784 21.3550
925.825 19.7616
925.866 18.2546
925.907 16.8345
925.948 15.5012
925.989 14.2536
926.030 13.0901
926.072 12.0085
926.105 11.1810
926.139 10.4072
926.172 9.68301
926.206 9.00639
926.240 8.37353
926.273 7.78612
926.307 7.24010
926.341 6.73331
926.374 6.26228
926.408 5.82766
926.441 5.42591
926.475 5.05497
926.509 4.71284
926.542 4.39757
926.576 4.10730
926.609 3.84025
926.630 3.68725
926.651 3.54264
926.671 3.40465
926.692 3.27426
926.733 3.03233
926.774 2.81430
926.815 2.61779
926.856 2.44063
926.897 2.28081
926.938 2.13654
926.979 2.00615
927.020 1.88815
927.062 1.78122
927.103 1.68413
927.144 1.59581
927.185 1.51530
927.226 1.44175
927.267 1.37454
927.312 1.30722
927.357 1.24585
927.402 1.18948
927.446 1.13777
927.491 1.08997
927.536 1.04587
927.581 1.00495
927.626 0.966884
927.671 0.931302
927.715 0.898104
927.805 0.837746
927.895 0.784196
927.984 0.736427
928.066 0.696866
928.149 0.660813
928.231 0.627819
928.313 0.597511
928.395 0.569580
928.477 0.543763
928.560 0.519838
928.642 0.497638
928.724 0.476944
928.806 0.457639
928.888 0.439596
928.970 0.422723
929.135 0.391999
929.299 0.364837
929.464 0.340666
929.628 0.319069
929.792 0.299689
929.957 0.282240
930.121 0.266453
930.285 0.252132
930.450 0.239102
930.614 0.227218
930.771 0.216815
930.928 0.207235
931.085 0.198396
931.242 0.190224
931.556 0.175632
931.869 0.163032
932.183 0.152089
932.497 0.142541
932.811 0.134173
933.124 0.126816
933.453 0.120033
933.782 0.114070
934.111 0.108815
934.439 0.104179
934.768 0.100086
935.097 0.0964750
935.426 0.0932912
935.754 0.0904910
936.233 0.0870207
936.711 0.0841792
937.189 0.0818921
937.667 0.0801041
938.145 0.0787707
938.623 0.0778588
939.102 0.0773435
939.580 0.0772085
940.237 0.0776286
940.895 0.0787506
941.552 0.0805987
942.210 0.0832242
942.867 0.0867093
943.525 0.0911728
943.854 0.0938208
944.182 0.0967778
944.511 0.100075
944.840 0.103751
945.168 0.107850
945.497 0.112424
945.826 0.117537
946.155 0.123258
946.483 0.129676
946.812 0.136890
947.141 0.145027
947.470 0.154242
947.783 0.164216
948.097 0.175545
948.411 0.188479
948.725 0.203332
948.882 0.211598
949.039 0.220500
949.195 0.230106
949.352 0.240492
949.509 0.251747
949.666 0.263974
949.823 0.277289
949.980 0.291830
950.144 0.308556
950.309 0.327019
950.473 0.347479
950.637 0.370228
950.802 0.395666
950.966 0.424218
951.131 0.456478
951.213 0.474205
951.295 0.493108
951.444 0.530998
951.519 0.551826
951.594 0.574083
951.668 0.597915
951.743 0.623491
951.818 0.651004
951.893 0.680684
951.967 0.712844
952.042 0.747719
952.117 0.785734
952.191 0.827358
952.266 0.873163
952.341 0.923859
952.416 0.980329
952.490 1.04368
952.531 1.08197
952.572 1.12304
952.614 1.16720
952.655 1.21481
952.696 1.26629
952.737 1.32210
952.778 1.38277
952.819 1.44890
952.860 1.52117
952.901 1.60035
952.942 1.68731
952.983 1.78304
953.025 1.88862
953.066 2.00531
953.107 2.13447
953.148 2.27764
953.189 2.43653
953.230 2.61302
953.271 2.80918
953.312 3.02730
953.333 3.14566
953.353 3.26986
953.374 3.40147
953.394 3.53956
953.415 3.68586
953.436 3.83933
953.456 4.00105
953.477 4.17144
953.497 4.35182
953.518 4.54088
953.538 4.74091
953.559 4.95044
953.579 5.17200
953.600 5.40391
953.620 5.64894
953.641 5.90523
953.662 6.17579
953.682 6.45852
953.703 6.75673
953.723 7.06805
953.744 7.39607
953.764 7.73816
953.785 8.09641
953.805 8.47139
953.828 8.90285
953.850 9.35376
953.873 9.82671
953.895 10.3224
953.917 10.8415
953.940 11.3846
953.962 11.9525
953.985 12.5457
954.007 13.1677
954.029 13.8134
954.052 14.4861
954.074 15.1863
954.097 15.9144
954.119 16.6707
954.164 18.2695
954.194 19.4011
954.224 20.5848
954.254 21.8206
954.283 23.1039
954.313 24.4428
954.343 25.8323
954.373 27.2713
954.403 28.7534
954.440 30.6784
954.478 32.6718
954.515 34.7286
954.552 36.8370
954.590 39.0017
954.627 41.2035
954.702 45.7069
954.784 50.7283
954.866 55.7037
954.945 60.2925
955.023 64.6010
955.105 68.6769
955.146 70.5114
955.187 72.1877
955.229 73.6914
955.270 75.0065
955.311 76.1278
955.352 77.0418
955.404 77.8910
955.456 78.3796
955.500 78.5075
955.518 78.4849
955.575 78.1224
955.632 77.3238
955.676 76.4306
955.719 75.3012
955.763 73.9604
955.806 72.4160
955.864 70.0029
955.923 67.2803
955.966 65.1083
956.009 62.8114
956.096 57.9221
956.182 52.7714
956.268 47.5135
956.339 43.2272
956.409 39.0397
956.480 34.9984
956.550 31.1634
956.593 28.9342
956.636 26.8007
956.679 24.7680
956.723 22.8398
956.766 21.0185
956.809 19.3050
956.852 17.6994
956.895 16.2041
956.918 15.4279
956.942 14.6859
956.965 13.9742
956.989 13.2922
957.012 12.6394
957.036 12.0152
957.059 11.4188
957.083 10.8496
957.106 10.3068
957.130 9.78967
957.153 9.29742
957.177 8.82925
957.200 8.38434
957.224 7.96187
957.247 7.56102
957.271 7.18096
957.293 6.84926
957.314 6.53523
957.336 6.23531
957.357 5.95167
957.379 5.68105
957.400 5.42537
957.422 5.18166
957.443 4.95161
957.465 4.73251
957.486 4.52584
957.508 4.32915
957.530 4.14374
957.551 3.96738
957.573 3.80123
957.594 3.64326
957.616 3.49450
957.637 3.35311
957.659 3.21998
957.680 3.09349
957.702 2.97440
957.724 2.86125
957.745 2.75472
957.767 2.65349
957.788 2.55817
957.831 2.38223
957.874 2.22461
957.917 2.08326
957.961 1.95632
958.004 1.84213
958.047 1.73922
958.090 1.64627
958.133 1.56212
958.176 1.48574
958.219 1.41623
958.262 1.35280
958.305 1.29474
958.348 1.24144
958.392 1.19237
958.435 1.14707
958.478 1.10512
958.521 1.06616
958.564 1.02989
958.650 0.964354
958.729 0.911641
958.807 0.864405
958.885 0.821814
958.964 0.783251
959.042 0.748080
959.120 0.715954
959.199 0.686430
959.277 0.659284
959.355 0.634193
959.434 0.610976
959.512 0.589448
959.591 0.569475
959.669 0.550866
959.747 0.533546
959.904 0.502263
960.076 0.472354
960.249 0.446433
960.421 0.423901
960.594 0.404275
960.766 0.387164
960.938 0.372251
961.111 0.359272
961.283 0.348010
961.487 0.336667
961.691 0.327233
961.894 0.319501
962.098 0.313323
962.302 0.308566
962.506 0.305138
962.709 0.302962
962.913 0.301985
963.078 0.302045
963.242 0.302853
963.407 0.304405
963.571 0.306700
963.736 0.309750
963.900 0.313567
964.065 0.318176
964.230 0.323601
964.394 0.329884
964.559 0.337066
964.723 0.345201
964.888 0.354346
965.052 0.364587
965.217 0.376000
965.382 0.388700
965.546 0.402792
965.718 0.419215
965.891 0.437514
966.063 0.457910
966.236 0.480661
966.408 0.506074
966.580 0.534516
966.753 0.566421
966.925 0.602298
967.011 0.621938
967.098 0.642827
967.184 0.665069
967.270 0.688778
967.356 0.714082
967.442 0.741125
967.529 0.770069
967.615 0.801095
967.701 0.834411
967.787 0.870251
967.873 0.908885
967.960 0.950621
968.046 0.995820
968.132 1.04490
968.218 1.09835
968.304 1.15676
968.406 1.23316
968.508 1.31891
968.559 1.36587
968.610 1.41580
968.661 1.46907
968.712 1.52605
968.763 1.58726
968.814 1.65292
968.865 1.72381
968.916 1.80026
968.967 1.88329
969.018 1.97336
969.068 2.07156
969.119 2.17895
969.166 2.28758
969.213 2.40598
969.260 2.53561
969.307 2.67789
969.354 2.83441
969.401 3.00699
969.448 3.19762
969.495 3.40859
969.539 3.62206
969.582 3.85688
969.625 4.11540
969.668 4.40020
969.711 4.71407
969.754 5.06002
969.797 5.44130
969.840 5.86140
969.883 6.32402
969.926 6.83308
969.948 7.10695
969.970 7.39268
969.991 7.69349
970.013 8.00713
970.034 8.33709
970.056 8.68086
970.077 9.04223
970.099 9.41841
970.120 9.81350
970.142 10.2244
970.163 10.6535
970.185 11.1014
970.209 11.6152
970.232 12.1508
970.256 12.7109
970.279 13.2963
970.303 13.9075
970.326 14.5454
970.350 15.2104
970.373 15.9033
970.397 16.6276
970.420 17.3778
970.444 18.1574
970.467 18.9666
970.514 20.6757
970.561 22.5070
970.604 24.2946
970.647 26.1854
970.690 28.1780
970.734 30.2698
970.777 32.4573
970.820 34.7352
970.863 37.0973
970.906 39.5358
970.957 42.5073
971.008 45.5492
971.110 51.7842
971.282 62.2815
971.368 67.2224
971.454 71.7583
971.533 75.4089
971.611 78.5008
971.664 80.2075
971.716 81.6024
971.755 82.4375
971.795 83.0774
971.834 83.5169
971.874 83.7523
971.900 83.7957
971.926 83.7473
971.969 83.4739
972.012 82.9617
972.055 82.2156
972.098 81.2448
972.172 79.0305
972.247 76.2132
972.322 72.8585
972.397 69.0601
972.472 64.9124
972.546 60.5192
972.615 56.3832
972.683 52.1900
972.819 43.8886
972.894 39.4953
972.969 35.3107
973.044 31.3737
973.081 29.5063
973.119 27.7169
973.163 25.6948
973.207 23.7848
973.251 21.9793
973.296 20.2866
973.340 18.6982
973.384 17.2192
973.428 15.8405
973.473 14.5649
973.510 13.5582
973.547 12.6206
973.585 11.7442
973.622 10.9311
973.660 10.1737
973.697 9.47315
973.735 8.82271
973.772 8.22279
973.810 7.66719
973.847 7.15595
973.885 6.68346
973.922 6.24947
973.959 5.84901
973.997 5.48164
974.034 5.14383
974.072 4.83329
974.109 4.54712
974.147 4.28413
974.184 4.04240
974.222 3.82069
974.259 3.61616
974.296 3.42837
974.334 3.25488
974.371 3.09532
974.409 2.94763
974.446 2.81149
974.484 2.68518
974.521 2.56844
974.559 2.45982
974.596 2.35913
974.634 2.26516
974.671 2.17777
974.736 2.03991
974.800 1.91680
974.865 1.80629
974.930 1.70662
974.994 1.61629
975.059 1.53406
975.124 1.45888
975.188 1.38998
975.253 1.32640
975.318 1.26763
975.383 1.21315
975.447 1.16257
975.512 1.11534
975.577 1.07121
975.641 1.02989
975.706 0.991181
975.781 0.949192
975.856 0.910020
975.931 0.873402
976.005 0.839105
976.080 0.806926
976.155 0.776684
976.230 0.748219
976.305 0.721388
976.455 0.672126
976.605 0.628020
976.754 0.588351
976.904 0.552526
977.000 0.531483
977.095 0.511708
977.190 0.493077
977.286 0.475502
977.476 0.443191
977.667 0.414252
977.858 0.388195
978.048 0.364664
978.239 0.343314
978.429 0.323898
978.579 0.309837
978.729 0.296725
978.879 0.284477
979.029 0.273018
979.178 0.262281
979.328 0.252205
979.628 0.233828
979.927 0.217517
980.227 0.202971
980.527 0.189941
980.826 0.178225
981.153 0.166730
981.480 0.156409
981.807 0.147099
982.134 0.138679
982.460 0.131033
982.787 0.124074
983.114 0.117718
983.441 0.111896
983.740 0.106975
984.040 0.102412
984.639 0.0942312
985.238 0.0871283
985.838 0.0809259
986.437 0.0754780
987.036 0.0706696
987.635 0.0664066
988.234 0.0626126
988.942 0.0586452
989.651 0.0551584
990.359 0.0520815
991.067 0.0493598
991.775 0.0469484
992.483 0.0448085
993.191 0.0429006
993.899 0.0411972
994.662 0.0395694
995.425 0.0381344
996.187 0.0368724
996.950 0.0357670
997.712 0.0348044
998.475 0.0339732
1000.00 0.0326722
1001.09 0.0320122
1002.18 0.0315569
1003.26 0.0313009
1004.35 0.0312413
1005.44 0.0313793
1006.53 0.0317209
1007.62 0.0322772
1008.70 0.0330636
1009.79 0.0340968
1010.88 0.0354138
1011.97 0.0370622
1013.06 0.0390893
1013.80 0.0407369
1014.55 0.0426230
1015.30 0.0447810
1016.05 0.0472517
1016.80 0.0500847
1017.54 0.0533407
1018.29 0.0570949
1019.04 0.0614346
1019.55 0.0647950
1020.06 0.0685284
1020.57 0.0726857
1021.08 0.0773293
1021.59 0.0825381
1022.10 0.0884089
1022.61 0.0950549
1023.12 0.102612
1023.49 0.108828
1023.87 0.115703
1024.24 0.123332
1024.62 0.131828
1024.99 0.141327
1025.36 0.151991
1025.74 0.164018
1026.11 0.177610
1026.40 0.189422
1026.69 0.202532
1026.98 0.217137
1027.27 0.233474
1027.56 0.251831
1027.84 0.272563
1027.99 0.283992
1028.13 0.296103
1028.28 0.309138
1028.42 0.322995
1028.61 0.342492
1028.80 0.363893
1028.98 0.387459
1029.17 0.413497
1029.36 0.442370
1029.54 0.474515
1029.73 0.510459
1029.83 0.530158
1029.92 0.550842
1030.01 0.572085
1030.10 0.594379
1030.19 0.618064
1030.28 0.643263
1030.37 0.670423
1030.45 0.699097
1030.54 0.729750
1030.63 0.762580
1030.72 0.798220
1030.81 0.836136
1030.90 0.877003
1030.99 0.921163
1031.08 0.969571
1031.17 1.02162
1031.26 1.07839
1031.35 1.14053
1031.44 1.21289
1031.53 1.29242
1031.63 1.38227
1031.67 1.43133
1031.72 1.48235
1031.77 1.53787
1031.81 1.59716
1031.86 1.66064
1031.91 1.72725
1031.95 1.80042
1032.00 1.87934
1032.05 1.96471
1032.09 2.05524
1032.14 2.15576
1032.19 2.26537
1032.24 2.38524
1032.28 2.51375
1032.33 2.65792
1032.38 2.81677
1032.42 2.99217
1032.47 3.18191
1032.52 3.39656
1032.56 3.63483
1032.61 3.89966
1032.66 4.18769
1032.68 4.35040
1032.70 4.51494
1032.73 4.69614
1032.75 4.87941
1032.77 5.08122
1032.80 5.28533
1032.82 5.50046
1032.84 5.72719
1032.88 6.08487
1032.91 6.47119
1032.94 6.88822
1032.98 7.33813
1033.01 7.76420
1033.04 8.21922
1033.07 8.70480
1033.10 9.20482
1033.13 9.75539
1033.16 10.3415
1033.19 10.9650
1033.22 11.6047
1033.25 12.3064
1033.28 13.0505
1033.31 13.8386
1033.34 14.6437
1033.37 15.5229
1033.40 16.4507
1033.43 17.4284
1033.45 18.4222
1033.48 19.2815
1033.50 20.1370
1033.53 21.0633
1033.55 21.9838
1033.60 23.9652
1033.64 26.0362
1033.69 28.2869
1033.74 30.6722
1033.78 33.1888
1033.83 35.7744
1033.89 39.3176
1033.95 42.9727
1034.01 46.8388
1034.07 50.7576
1034.16 57.1531
1034.25 63.5209
1034.35 69.8091
1034.44 75.6807
1034.51 79.9100
1034.59 83.6487
1034.63 85.8144
1034.68 87.6975
1034.73 89.3596
1034.77 90.7384
1034.83 91.9901
1034.88 92.7970
1034.94 93.1491
1035.00 93.0017
1035.02 92.7946
1035.06 92.2933
1035.10 91.5825
1035.14 90.6670
1035.18 89.5531
1035.25 86.9267
1035.32 83.6811
1035.36 81.5858
1035.40 4.73539
1250.00 4.24955
1500.00 3.83930
1700.00 3.58857
2000.00 3.29693
2500.00 2.95200
3000.00 2.71140
3500.00 2.53259
4000.00 2.39333
5000.00 2.18736
6000.00 2.03876
7200.00 1.90324
8000.00 1.82942
10000.0 1.68079
12500.0 1.53916
15000.0 1.42678
17000.0 1.35099
20000.0 1.25423
25000.0 1.12496
30000.0 1.02334
35000.0 0.940999
40000.0 0.872851
50000.0 0.766541
60000.0 0.687589
70000.0 0.626850
80000.0 0.578872
99999.9 0.508443
100000 0.508442
100000 0.508442
125000 0.449969
128490 0.443576
128490 0.440194
128502 0.440158
128502 0.440158
150000 0.375276
200000 0.308346
300000 0.254958
309917 0.244603
309917 0.244602
314442 0.239877
314442 0.239877
328047 0.225671
328047 0.225671
347439 0.205422
347439 0.205421
400000 0.150536
426521 0.147551
426522 0.147551
495000 0.139845
495000 0.139845
500000 0.139282
520000 0.135778
532773 0.130409
540348 0.127225
550529 0.122945
550529 0.122945
560000 0.118964
600000 0.105866
604281 0.104830
604281 0.104830
622461 0.100432
622461 0.100432
629228 0.0987949
629228 0.0987949
629733 0.0986728
629733 0.0986727
660000 0.0913502
690837 0.0865684
690837 0.0865683
700000 0.0851475
725177 0.0817423
725177 0.0817423
727197 0.0814691
727197 0.0814691
800000 0.0716226
831227 0.0696390
831227 0.0696390
840317 0.0690616
849730 0.0684637
851205 0.0683700
851205 0.0683700
856073 0.0680607
900000 0.0652704
917077 0.0644290
917077 0.0644290
1.00000E+06 0.0603432
1.04992E+06 0.0577871
1.13165E+06 0.0536022
1.20000E+06 0.0501024
1.23916E+06 0.0483372
1.34577E+06 0.0435317
1.36073E+06 0.0428573
1.36612E+06 0.0426144
1.37915E+06 0.0420270
1.40000E+06 0.0410872
1.43611E+06 0.0393368
1.45288E+06 0.0385239
1.46273E+06 0.0380464
1.46530E+06 0.0379218
1.46864E+06 0.0377599
1.48894E+06 0.0367759
1.51691E+06 0.0354201
1.55867E+06 0.0333958
1.59004E+06 0.0318751
1.60000E+06 0.0313923
1.62559E+06 0.0308147
1.73376E+06 0.0283729
1.73591E+06 0.0283244
1.76093E+06 0.0277596
1.79678E+06 0.0269504
1.80000E+06 0.0268777
1.87871E+06 0.0254970
1.89576E+06 0.0251979
1.95505E+06 0.0241579
1.97363E+06 0.0238320
2.00000E+06 0.0233694
2.02292E+06 0.0230832
2.04029E+06 0.0228663
2.08483E+06 0.0223101
2.13311E+06 0.0217072
2.17308E+06 0.0212081
2.18583E+06 0.0210488
2.25431E+06 0.0201937
2.28360E+06 0.0198279
2.34521E+06 0.0190586
2.35400E+06 0.0189488
2.35551E+06 0.0189299
2.43409E+06 0.0179487
2.50000E+06 0.0171256
2.86233E+06 0.0136044
3.00000E+06 0.0122665
4.00000E+06 0.00704151
5.00000E+06 0.00408273
6.00000E+06 0.00215450
6.86999E+06 0.00146073
6.86999E+06 0.00146072
7.00000E+06 0.00135705
8.00000E+06 0.00104860
9.00000E+06 0.000949839
9.31519E+06 0.000949515
9.75151E+06 0.000949066
1.00000E+07 0.000948811
1.10000E+07 0.000941248
1.20000E+07 0.000889019
1.30000E+07 0.000817837
1.40000E+07 0.000736316
1.45000E+07 0.000681956
1.50000E+07 0.000627595
1.60000E+07 0.000492561
1.61468E+07 0.000473574
1.61468E+07 0.000473572
1.66397E+07 0.000409825
1.66397E+07 0.000409824
1.70000E+07 0.000363223
1.80000E+07 0.000251015
1.90000E+07 0.000172893
2.00000E+07 0.000121236
