Ru-96(n,g) ENDFB-8.0
Energy(eV) XS(b)
1.00000E-05 14.5897
1.03125E-05 14.3669
1.06250E-05 14.1541
1.09375E-05 13.9504
1.12500E-05 13.7553
1.15625E-05 13.5681
1.18750E-05 13.3884
1.21875E-05 13.2156
1.25000E-05 13.0494
1.28125E-05 12.8893
1.31250E-05 12.7349
1.34375E-05 12.5860
1.37500E-05 12.4421
1.43750E-05 12.1686
1.50000E-05 11.9124
1.56250E-05 11.6717
1.62500E-05 11.4451
1.68750E-05 11.2311
1.75000E-05 11.0288
1.81250E-05 10.8369
1.87500E-05 10.6548
1.93750E-05 10.4815
2.00000E-05 10.3165
2.09375E-05 10.0828
2.18750E-05 9.86441
2.28125E-05 9.65959
2.37500E-05 9.46702
2.46875E-05 9.28553
2.56250E-05 9.11409
2.65625E-05 8.95180
2.75000E-05 8.79789
2.84375E-05 8.65166
2.93750E-05 8.51248
3.03125E-05 8.37981
3.12500E-05 8.25315
3.21875E-05 8.13207
3.31250E-05 8.01617
3.40625E-05 7.90508
3.50000E-05 7.79849
3.59375E-05 7.69610
3.68750E-05 7.59764
3.78125E-05 7.50286
3.87500E-05 7.41155
3.96875E-05 7.32348
4.06250E-05 7.23849
4.25000E-05 7.07701
4.43750E-05 6.92589
4.62500E-05 6.78404
4.81250E-05 6.65057
5.00000E-05 6.52468
5.15625E-05 6.42506
5.31250E-05 6.32987
5.46875E-05 6.23879
5.62500E-05 6.15153
5.78125E-05 6.06783
5.93750E-05 5.98745
6.09375E-05 5.91019
6.25000E-05 5.83585
6.40625E-05 5.76424
6.56250E-05 5.69520
6.71875E-05 5.62859
6.87500E-05 5.56426
7.18750E-05 5.44195
7.50000E-05 5.32737
7.81250E-05 5.21974
8.12500E-05 5.11837
8.43750E-05 5.02269
8.75000E-05 4.93218
9.06250E-05 4.84640
9.37500E-05 4.76494
9.68750E-05 4.68746
0.000100000 4.61363
0.000103125 4.54319
0.000106250 4.47588
0.000109375 4.41147
0.000112500 4.34977
0.000115625 4.29059
0.000118750 4.23375
0.000121875 4.17912
0.000125000 4.12655
0.000128125 4.07592
0.000131250 4.02710
0.000134375 3.98000
0.000137500 3.93451
0.000143750 3.84802
0.000150000 3.76700
0.000156250 3.69089
0.000162500 3.61922
0.000168750 3.55156
0.000175000 3.48756
0.000181250 3.42690
0.000187500 3.36930
0.000193750 3.31451
0.000200000 3.26231
0.000209375 3.18844
0.000218750 3.11936
0.000228125 3.05459
0.000237500 2.99370
0.000246875 2.93630
0.000256250 2.88209
0.000265625 2.83077
0.000275000 2.78210
0.000284375 2.73585
0.000293750 2.69184
0.000303125 2.64989
0.000312500 2.60984
0.000321875 2.57155
0.000331250 2.53489
0.000340625 2.49977
0.000350000 2.46606
0.000359375 2.43368
0.000368750 2.40254
0.000378125 2.37257
0.000387500 2.34369
0.000396875 2.31585
0.000406250 2.28897
0.000425000 2.23791
0.000443750 2.19011
0.000462500 2.14526
0.000481250 2.10305
0.000500000 2.06324
0.000515625 2.03174
0.000531250 2.00164
0.000546875 1.97283
0.000562500 1.94524
0.000578125 1.91877
0.000593750 1.89335
0.000609375 1.86892
0.000625000 1.84541
0.000640625 1.82277
0.000656250 1.80094
0.000671875 1.77987
0.000687500 1.75953
0.000718750 1.72085
0.000750000 1.68462
0.000781250 1.65058
0.000812500 1.61853
0.000843750 1.58827
0.000875000 1.55965
0.000906250 1.53252
0.000937500 1.50676
0.000968750 1.48226
0.00100000 1.45891
0.00103125 1.43664
0.00106250 1.41535
0.00109375 1.39499
0.00112500 1.37547
0.00115625 1.35676
0.00118750 1.33879
0.00121875 1.32151
0.00125000 1.30489
0.00128125 1.28887
0.00131250 1.27344
0.00134375 1.25854
0.00137500 1.24416
0.00143750 1.21681
0.00150000 1.19119
0.00156250 1.16712
0.00162500 1.14445
0.00168750 1.12306
0.00175000 1.10282
0.00181250 1.08364
0.00187500 1.06543
0.00193750 1.04810
0.00200000 1.03159
0.00209375 1.00823
0.00218750 0.986387
0.00228125 0.965904
0.00237500 0.946647
0.00246875 0.928498
0.00256250 0.911353
0.00265625 0.895125
0.00275000 0.879734
0.00284375 0.865110
0.00293750 0.851192
0.00303125 0.837925
0.00312500 0.825259
0.00321875 0.813151
0.00331250 0.801561
0.00340625 0.790453
0.00350000 0.779793
0.00359375 0.769554
0.00368750 0.759708
0.00378125 0.750231
0.00387500 0.741099
0.00396875 0.732293
0.00406250 0.723793
0.00425000 0.707646
0.00443750 0.692534
0.00462500 0.678350
0.00481250 0.665003
0.00500000 0.652415
0.00515625 0.642453
0.00531250 0.632934
0.00546875 0.623826
0.00562500 0.615101
0.00578125 0.606731
0.00593750 0.598695
0.00609375 0.590969
0.00625000 0.583535
0.00640625 0.576374
0.00656250 0.569471
0.00671875 0.562810
0.00687500 0.556377
0.00718750 0.544147
0.00750000 0.532689
0.00781250 0.521926
0.00812500 0.511790
0.00843750 0.502222
0.00875000 0.493171
0.00906250 0.484593
0.00937500 0.476447
0.00968750 0.468698
0.0100000 0.461316
0.0103125 0.454272
0.0106250 0.447541
0.0109375 0.441101
0.0112500 0.434931
0.0115625 0.429013
0.0118750 0.423331
0.0121875 0.417868
0.0125000 0.412612
0.0128125 0.407549
0.0131250 0.402668
0.0134375 0.397959
0.0137500 0.393411
0.0143750 0.384764
0.0150000 0.376663
0.0156250 0.369052
0.0162500 0.361885
0.0168750 0.355120
0.0175000 0.348720
0.0181250 0.342654
0.0187500 0.336893
0.0193750 0.331414
0.0200000 0.326193
0.0206625 0.320920
0.0213250 0.315895
0.0219875 0.311099
0.0226500 0.306514
0.0233125 0.302127
0.0239750 0.297923
0.0246375 0.293890
0.0253000 0.290016
0.0264578 0.283599
0.0276156 0.277591
0.0287734 0.271949
0.0299313 0.266639
0.0310891 0.261628
0.0322469 0.256890
0.0334047 0.252400
0.0345625 0.248138
0.0355274 0.244746
0.0364922 0.241489
0.0374570 0.238359
0.0384219 0.235347
0.0393867 0.232446
0.0403516 0.229650
0.0413164 0.226952
0.0422813 0.224347
0.0442109 0.219395
0.0461406 0.214757
0.0480703 0.210401
0.0500000 0.206300
0.0515625 0.203150
0.0531250 0.200139
0.0546875 0.197259
0.0562500 0.194500
0.0578125 0.191853
0.0593750 0.189312
0.0609375 0.186869
0.0625000 0.184519
0.0640625 0.182256
0.0656250 0.180074
0.0671875 0.177969
0.0687500 0.175936
0.0718750 0.172071
0.0750000 0.168449
0.0781250 0.165046
0.0812500 0.161840
0.0843750 0.158814
0.0875000 0.155951
0.0906250 0.153238
0.0937500 0.150662
0.0968750 0.148211
0.100000 0.145876
0.103125 0.143649
0.106250 0.141520
0.109375 0.139483
0.112500 0.137532
0.115625 0.135660
0.118750 0.133863
0.121875 0.132136
0.125000 0.130474
0.128125 0.128873
0.131250 0.127331
0.134375 0.125843
0.137500 0.124406
0.143750 0.121673
0.150000 0.119112
0.156250 0.116705
0.162500 0.114438
0.168750 0.112298
0.175000 0.110274
0.181250 0.108356
0.187500 0.106535
0.193750 0.104803
0.200000 0.103154
0.209375 0.100819
0.218750 0.0986354
0.228125 0.0965868
0.237500 0.0946605
0.246875 0.0928451
0.256250 0.0911303
0.265625 0.0895071
0.275000 0.0879677
0.284375 0.0865052
0.293750 0.0851132
0.303125 0.0837864
0.312500 0.0825197
0.321875 0.0813088
0.331250 0.0801497
0.340625 0.0790388
0.350000 0.0779729
0.359375 0.0769490
0.368750 0.0759644
0.378125 0.0750167
0.387500 0.0741041
0.396875 0.0732246
0.406250 0.0723763
0.425000 0.0707640
0.443750 0.0692528
0.462500 0.0678340
0.500000 0.0652444
0.531250 0.0632996
0.562500 0.0615150
0.593750 0.0598731
0.625000 0.0583561
0.687500 0.0556388
0.750000 0.0532690
0.812500 0.0511784
0.875000 0.0493212
0.937500 0.0476527
1.00000 0.0461382
1.06250 0.0447594
1.12500 0.0434974
1.18750 0.0423365
1.25000 0.0412638
1.37500 0.0393425
1.50000 0.0376668
1.62500 0.0361886
1.75000 0.0348747
1.87500 0.0336944
2.00000 0.0326225
2.18750 0.0311912
2.37500 0.0299342
2.56250 0.0288178
2.75000 0.0278196
2.93750 0.0269186
3.12500 0.0260980
3.31250 0.0253482
3.50000 0.0246596
3.87500 0.0234355
4.25000 0.0223773
4.62500 0.0214506
5.00000 0.0206311
5.31250 0.0200156
5.62500 0.0194515
5.93750 0.0189325
6.25000 0.0184529
6.87500 0.0175939
7.50000 0.0168446
8.12500 0.0161836
8.75000 0.0155954
9.37500 0.0150671
10.0000 0.0145885
10.6250 0.0141527
11.2500 0.0137538
11.8750 0.0133869
12.5000 0.0130479
13.7500 0.0124405
15.0000 0.0119107
16.2500 0.0114434
17.5000 0.0110274
18.7500 0.0106537
20.0000 0.0103152
21.8750 0.00986297
23.7500 0.00946557
25.6250 0.00911264
27.5000 0.00879665
29.3750 0.00851141
31.2500 0.00825206
33.1250 0.00801507
35.0000 0.00779738
38.7500 0.00741043
42.5000 0.00707590
46.2500 0.00678294
50.0000 0.00652367
53.1250 0.00632894
56.2500 0.00615060
59.3750 0.00598653
62.5000 0.00583493
68.7500 0.00556336
75.0000 0.00532648
81.2500 0.00511750
87.5000 0.00493139
93.7500 0.00476422
100.000 0.00461292
106.250 0.00447517
112.500 0.00434907
118.750 0.00423306
125.000 0.00412587
137.500 0.00393385
150.000 0.00376636
162.500 0.00361859
175.000 0.00348699
187.500 0.00336877
193.750 0.00331517
196.875 0.00328843
198.438 0.00327950
198.633 0.00334404
198.731 0.00352082
198.779 0.00372276
198.828 0.00407270
198.877 0.00466717
198.901 0.00509843
198.926 0.00565069
198.950 0.00635398
198.975 0.00724467
198.999 0.00836647
199.023 0.00977156
199.048 0.0115298
199.072 0.0136998
199.097 0.0163732
199.121 0.0196486
199.146 0.0236394
199.170 0.0284752
199.194 0.0343027
199.219 0.0412869
199.243 0.0496483
199.268 0.0595221
199.292 0.0711615
199.316 0.0848068
199.341 0.100716
199.365 0.119163
199.390 0.140435
199.414 0.164830
199.439 0.192776
199.463 0.224352
199.487 0.259972
199.512 0.299933
199.536 0.344518
199.561 0.393990
199.585 0.448585
199.609 0.508501
199.634 0.574179
199.658 0.645192
199.683 0.721853
199.707 0.804160
199.731 0.892043
199.756 0.985368
199.780 1.08393
199.805 1.18745
199.829 1.29604
199.854 1.40840
199.878 1.52449
199.902 1.64377
199.951 1.88955
200.000 2.14065
200.000 4.27740
212.500 4.09006
225.000 3.92095
237.500 3.76743
250.000 3.62735
262.500 3.50006
275.000 3.38285
287.500 3.27453
300.000 3.17407
325.000 2.99543
350.000 2.83901
375.000 2.70251
400.000 2.58076
425.000 2.47374
450.000 2.37690
475.000 2.28879
500.000 2.20822
525.000 2.13651
550.000 2.07031
575.000 2.00896
600.000 1.95194
630.000 1.89084
660.000 1.83438
690.000 1.78200
720.000 1.73325
760.000 1.67528
800.000 1.62208
850.000 1.56411
900.000 1.51136
950.000 1.46310
1000.00 1.41874
1062.50 1.37159
1125.00 1.32857
1187.50 1.28913
1250.00 1.25278
1375.00 1.19263
1500.00 1.14024
1600.00 1.10502
1700.00 1.07293
1850.00 1.03208
2000.00 0.995792
2125.00 0.970254
2250.00 0.946777
2500.00 0.904980
2750.00 0.870847
3000.00 0.840812
3250.00 0.814928
3500.00 0.791675
3750.00 0.770875
4000.00 0.751914
4500.00 0.718310
5000.00 0.689525
5500.00 0.664642
6000.00 0.642710
6500.00 0.621838
7000.00 0.603119
7500.00 0.585364
8000.00 0.569230
8500.00 0.553583
9000.00 0.539226
10000.0 0.513729
10625.0 0.498522
11250.0 0.484597
11875.0 0.471784
12500.0 0.459941
13750.0 0.437161
15000.0 0.417351
16000.0 0.402635
17000.0 0.389284
18500.0 0.370625
20000.0 0.354214
21250.0 0.341328
22500.0 0.329608
23750.0 0.318892
25000.0 0.309048
26250.0 0.299292
27500.0 0.290276
28750.0 0.281915
30000.0 0.274136
32500.0 0.260242
35000.0 0.248008
37500.0 0.236988
40000.0 0.227123
42500.0 0.218216
45000.0 0.210139
47500.0 0.202774
50000.0 0.196026
52500.0 0.190001
55000.0 0.184430
60000.0 0.174444
65000.0 0.165960
70000.0 0.158473
75000.0 0.152122
80000.0 0.146412
85000.0 0.141699
90000.0 0.137394
94999.9 0.133442
99999.9 0.129798
100000 0.129892
106250 0.126701
112500 0.123764
125000 0.118529
137500 0.113983
150000 0.109986
175000 0.106219
200000 0.103061
250000 0.101302
300000 0.102052
350000 0.105560
400000 0.108696
450000 0.111540
500000 0.114146
503125 0.114410
506250 0.114673
509375 0.114935
512500 0.115197
515625 0.115457
518750 0.115716
521875 0.115974
525000 0.116231
528125 0.116487
531250 0.116742
534375 0.116997
537500 0.117250
540625 0.117502
543750 0.117754
546875 0.118005
550000 0.118254
553125 0.118503
556250 0.118751
559375 0.118998
562500 0.119244
565625 0.119490
568750 0.119734
571875 0.119978
575000 0.120221
578125 0.120463
581250 0.120704
584375 0.120944
587500 0.121184
590625 0.121422
593750 0.121660
596875 0.121898
600000 0.122134
603125 0.122369
606250 0.122604
609375 0.122838
612500 0.123072
615625 0.123304
618750 0.123536
621875 0.123767
625000 0.123998
628125 0.124227
631250 0.124456
634375 0.124684
637500 0.124912
640625 0.125139
643750 0.125365
646875 0.125590
650000 0.125815
653125 0.126039
656250 0.126262
659375 0.126485
662500 0.126707
665625 0.126929
668750 0.127149
671875 0.127370
675000 0.127589
678125 0.127808
681250 0.128026
684375 0.128244
687500 0.128460
690625 0.128677
693750 0.128892
696875 0.129108
700000 0.129322
703125 0.129580
706250 0.129837
709375 0.130093
712500 0.130349
715625 0.130604
718750 0.130859
721875 0.131112
725000 0.131366
728125 0.131619
731250 0.131871
734375 0.132122
737500 0.132373
740625 0.132623
743750 0.132873
746875 0.133122
750000 0.133371
753125 0.133619
756250 0.133866
759375 0.134113
762500 0.134360
765625 0.134605
768750 0.134851
771875 0.135095
775000 0.135339
778125 0.135583
781250 0.135826
784375 0.136069
787500 0.136310
790625 0.136552
793750 0.136793
796875 0.137033
800000 0.137273
802585 0.137487
805170 0.137700
807754 0.137914
810339 0.138126
812924 0.138339
815509 0.138551
818093 0.138763
820678 0.138974
823263 0.139185
825848 0.139396
828432 0.139606
831017 0.139816
833602 0.140026
836187 0.140235
838771 0.140444
841356 0.140653
843189 0.139347
845021 0.138055
848687 0.135516
852352 0.133035
856017 0.130609
859682 0.128238
863348 0.125919
867013 0.123652
870678 0.121435
874343 0.119267
878009 0.117147
881674 0.115072
885339 0.113043
889004 0.111058
892670 0.109116
896335 0.107215
900000 0.105355
903125 0.104991
906250 0.104629
909375 0.104269
912500 0.103912
915625 0.103557
918750 0.103205
921875 0.102855
925000 0.102508
928125 0.102163
931250 0.101820
934375 0.101479
937500 0.101141
940625 0.100805
943750 0.100471
946875 0.100140
950000 0.0998104
953125 0.0994832
956250 0.0991581
959375 0.0988352
962500 0.0985143
965625 0.0981955
968750 0.0978788
971875 0.0975641
975000 0.0972514
978125 0.0969407
981250 0.0966320
984375 0.0963253
987500 0.0960205
990625 0.0957176
993750 0.0954166
996875 0.0951175
1.00000E+06 0.0948203
1.00781E+06 0.0949200
1.01563E+06 0.0950189
1.02344E+06 0.0951173
1.03125E+06 0.0952149
1.03906E+06 0.0953120
1.04688E+06 0.0954084
1.05469E+06 0.0955042
1.06250E+06 0.0955994
1.07031E+06 0.0956940
1.07813E+06 0.0957879
1.08594E+06 0.0958813
1.09375E+06 0.0959742
1.10156E+06 0.0960664
1.10938E+06 0.0961581
1.11719E+06 0.0962492
1.12500E+06 0.0963398
1.13281E+06 0.0964298
1.14063E+06 0.0965193
1.14844E+06 0.0966083
1.15625E+06 0.0966967
1.16406E+06 0.0967846
1.17188E+06 0.0968721
1.17969E+06 0.0969590
1.18750E+06 0.0970454
1.19531E+06 0.0971313
1.20313E+06 0.0972168
1.21094E+06 0.0973018
1.21875E+06 0.0973862
1.22656E+06 0.0974703
1.23438E+06 0.0975538
1.24219E+06 0.0976370
1.25000E+06 0.0977196
1.25781E+06 0.0980950
1.26563E+06 0.0984695
1.27344E+06 0.0988431
1.28125E+06 0.0992158
1.28906E+06 0.0995877
1.29688E+06 0.0999586
1.30469E+06 0.100329
1.31250E+06 0.100698
1.32031E+06 0.101067
1.32813E+06 0.101434
1.33594E+06 0.101801
1.34375E+06 0.102167
1.35156E+06 0.102532
1.35938E+06 0.102896
1.36719E+06 0.103260
1.37500E+06 0.103622
1.38281E+06 0.103984
1.39063E+06 0.104345
1.39844E+06 0.104706
1.40625E+06 0.105065
1.41406E+06 0.105424
1.42188E+06 0.105782
1.42969E+06 0.106140
1.43750E+06 0.106496
1.44531E+06 0.106852
1.45313E+06 0.107207
1.46094E+06 0.107561
1.46875E+06 0.107915
1.47656E+06 0.108268
1.48438E+06 0.108620
1.49219E+06 0.108971
1.50000E+06 0.109322
1.50849E+06 0.109801
1.51698E+06 0.110279
1.52547E+06 0.110757
1.53396E+06 0.111234
1.53397E+06 0.111234
1.53940E+06 0.111064
1.54482E+06 0.110894
1.55025E+06 0.110726
1.55568E+06 0.110558
1.56111E+06 0.110391
1.56654E+06 0.110225
1.57196E+06 0.110060
1.57739E+06 0.109895
1.58282E+06 0.109731
1.58825E+06 0.109569
1.59368E+06 0.109407
1.59910E+06 0.109245
1.60453E+06 0.109085
1.60996E+06 0.108925
1.61539E+06 0.108766
1.62082E+06 0.108608
1.62624E+06 0.108451
1.63167E+06 0.108294
1.63710E+06 0.108138
1.64253E+06 0.107983
1.64796E+06 0.107829
1.65339E+06 0.107675
1.65882E+06 0.107522
1.66424E+06 0.107370
1.66967E+06 0.107218
1.67510E+06 0.107067
1.68053E+06 0.106917
1.68596E+06 0.106768
1.69139E+06 0.106619
1.69681E+06 0.106471
1.70224E+06 0.106323
1.70767E+06 0.106177
1.70767E+06 0.106177
1.71826E+06 0.105893
1.72884E+06 0.105611
1.73942E+06 0.105332
1.75000E+06 0.105055
1.76259E+06 0.105545
1.77518E+06 0.106033
1.78777E+06 0.106520
1.80035E+06 0.107006
1.81294E+06 0.107491
1.82553E+06 0.107975
1.83812E+06 0.108457
1.85071E+06 0.108938
1.86329E+06 0.109418
1.87588E+06 0.109897
1.88847E+06 0.110375
1.90106E+06 0.110852
1.91365E+06 0.111328
1.92623E+06 0.111802
1.93882E+06 0.112276
1.95141E+06 0.112748
1.95748E+06 0.112411
1.96356E+06 0.112075
1.97571E+06 0.111411
1.98785E+06 0.110755
2.00000E+06 0.110106
2.01071E+06 0.110132
2.02141E+06 0.110157
2.03212E+06 0.110183
2.04283E+06 0.110208
2.05353E+06 0.110233
2.06424E+06 0.110258
2.07494E+06 0.110283
2.08565E+06 0.110307
2.09636E+06 0.110332
2.10706E+06 0.110357
2.11777E+06 0.110381
2.12848E+06 0.110405
2.13918E+06 0.110429
2.14989E+06 0.110453
2.16059E+06 0.110477
2.17130E+06 0.110501
2.17221E+06 0.110432
2.18069E+06 0.110573
2.18917E+06 0.110714
2.19766E+06 0.110854
2.20614E+06 0.110994
2.21462E+06 0.111134
2.22310E+06 0.111273
2.23158E+06 0.111412
2.24007E+06 0.111551
2.24855E+06 0.111689
2.25703E+06 0.111827
2.26551E+06 0.111965
2.27399E+06 0.112102
2.28248E+06 0.112239
2.29096E+06 0.112375
2.29944E+06 0.112511
2.30792E+06 0.112647
2.30792E+06 0.112647
2.31355E+06 0.112632
2.31918E+06 0.112618
2.33043E+06 0.112589
2.34168E+06 0.112560
2.35294E+06 0.112532
2.36419E+06 0.112503
2.37545E+06 0.112475
2.38670E+06 0.112447
2.39796E+06 0.112419
2.40921E+06 0.112391
2.42046E+06 0.112363
2.43172E+06 0.112335
2.44297E+06 0.112308
2.45423E+06 0.112280
2.46548E+06 0.112253
2.47674E+06 0.112226
2.48799E+06 0.112199
2.48800E+06 0.112199
2.49590E+06 0.112078
2.50381E+06 0.111957
2.51171E+06 0.111837
2.51962E+06 0.111718
2.52753E+06 0.111598
2.53544E+06 0.111480
2.54334E+06 0.111362
2.55125E+06 0.111244
2.55125E+06 0.111244
2.55560E+06 0.110879
2.56156E+06 0.110526
2.56752E+06 0.110175
2.57945E+06 0.109479
2.59137E+06 0.108790
2.60329E+06 0.108109
2.60330E+06 0.108109
2.60936E+06 0.107621
2.61542E+06 0.107136
2.61542E+06 0.107136
2.62339E+06 0.106398
2.63136E+06 0.105667
2.63933E+06 0.104944
2.64730E+06 0.104227
2.65527E+06 0.103518
2.66324E+06 0.102816
2.67121E+06 0.102120
2.67918E+06 0.101431
2.67919E+06 0.101431
2.68478E+06 0.101042
2.69037E+06 0.100656
2.70157E+06 0.0998904
2.71276E+06 0.0991335
2.72395E+06 0.0983856
2.73514E+06 0.0976462
2.74634E+06 0.0969155
2.75753E+06 0.0961931
2.76872E+06 0.0954790
2.77893E+06 0.0949532
2.78913E+06 0.0944322
2.79572E+06 0.0941897
2.80231E+06 0.0939483
2.80890E+06 0.0937081
2.81549E+06 0.0934691
2.82208E+06 0.0932313
2.82867E+06 0.0929946
2.83526E+06 0.0927591
2.84185E+06 0.0925247
2.84844E+06 0.0922915
2.85503E+06 0.0920594
2.86162E+06 0.0918283
2.86821E+06 0.0915985
2.87480E+06 0.0913697
2.88139E+06 0.0911420
2.88798E+06 0.0909154
2.89457E+06 0.0906898
2.90116E+06 0.0904654
2.90775E+06 0.0902420
2.91434E+06 0.0900196
2.92092E+06 0.0897983
2.92751E+06 0.0895781
2.93410E+06 0.0893588
2.94069E+06 0.0891406
2.94728E+06 0.0889235
2.95387E+06 0.0887073
2.96046E+06 0.0884921
2.96705E+06 0.0882779
2.97364E+06 0.0880648
2.98023E+06 0.0878526
2.98682E+06 0.0876414
2.99341E+06 0.0874312
3.00000E+06 0.0872219
3.01450E+06 0.0866807
3.02901E+06 0.0861454
3.04351E+06 0.0856160
3.05801E+06 0.0850923
3.07252E+06 0.0845743
3.08702E+06 0.0840618
3.10152E+06 0.0835549
3.11603E+06 0.0830533
3.13053E+06 0.0825570
3.14503E+06 0.0820660
3.15954E+06 0.0815802
3.17404E+06 0.0810994
3.18854E+06 0.0806237
3.20304E+06 0.0801528
3.21755E+06 0.0796869
3.23205E+06 0.0792257
3.24655E+06 0.0787692
3.26106E+06 0.0783174
3.27556E+06 0.0778701
3.29006E+06 0.0774274
3.30457E+06 0.0769891
3.31907E+06 0.0765552
3.33357E+06 0.0761256
3.34808E+06 0.0757003
3.36258E+06 0.0752792
3.37708E+06 0.0748622
3.39159E+06 0.0744493
3.40609E+06 0.0740404
3.42059E+06 0.0736355
3.43509E+06 0.0732346
3.44960E+06 0.0728374
3.46410E+06 0.0724441
3.48025E+06 0.0720107
3.49639E+06 0.0715818
3.51254E+06 0.0711575
3.52868E+06 0.0707376
3.54483E+06 0.0703220
3.56097E+06 0.0699108
3.57712E+06 0.0695039
3.59326E+06 0.0691011
3.60941E+06 0.0687024
3.62555E+06 0.0683078
3.64170E+06 0.0679173
3.65784E+06 0.0675306
3.67399E+06 0.0671479
3.69013E+06 0.0667690
3.70628E+06 0.0663938
3.72242E+06 0.0660224
3.73110E+06 0.0658244
3.73977E+06 0.0656274
3.74844E+06 0.0654314
3.75712E+06 0.0652365
3.76579E+06 0.0650427
3.77447E+06 0.0648498
3.78314E+06 0.0646580
3.79182E+06 0.0644672
3.80049E+06 0.0642773
3.80916E+06 0.0640885
3.81784E+06 0.0639006
3.82651E+06 0.0637137
3.83519E+06 0.0635278
3.84386E+06 0.0633428
3.85254E+06 0.0631588
3.86121E+06 0.0629758
3.86989E+06 0.0627936
3.87856E+06 0.0626124
3.88723E+06 0.0624322
3.89591E+06 0.0622528
3.90458E+06 0.0620744
3.91326E+06 0.0618969
3.92193E+06 0.0617202
3.93061E+06 0.0615445
3.93928E+06 0.0613697
3.94795E+06 0.0611957
3.95663E+06 0.0610226
3.96530E+06 0.0608504
3.97398E+06 0.0606790
3.98265E+06 0.0605085
3.99133E+06 0.0603388
4.00000E+06 0.0601700
4.01711E+06 0.0594628
4.03421E+06 0.0587669
4.05131E+06 0.0580819
4.06842E+06 0.0574079
4.08552E+06 0.0567444
4.10263E+06 0.0560913
4.11973E+06 0.0554484
4.13684E+06 0.0548155
4.15394E+06 0.0541924
4.17104E+06 0.0535789
4.18815E+06 0.0529748
4.20525E+06 0.0523799
4.22236E+06 0.0517941
4.23946E+06 0.0512172
4.25657E+06 0.0506489
4.27367E+06 0.0500893
4.28281E+06 0.0497937
4.29195E+06 0.0495006
4.30108E+06 0.0492097
4.31022E+06 0.0489212
4.31936E+06 0.0486350
4.32849E+06 0.0483511
4.33763E+06 0.0480694
4.34677E+06 0.0477899
4.35591E+06 0.0475127
4.36504E+06 0.0472376
4.37418E+06 0.0469647
4.38332E+06 0.0466940
4.39245E+06 0.0464253
4.40159E+06 0.0461588
4.41073E+06 0.0458943
4.41987E+06 0.0456319
4.42900E+06 0.0453716
4.43814E+06 0.0451132
4.44728E+06 0.0448569
4.45641E+06 0.0446025
4.46555E+06 0.0443501
4.47469E+06 0.0440996
4.48383E+06 0.0438510
4.49296E+06 0.0436044
4.50210E+06 0.0433596
4.51124E+06 0.0431167
4.52038E+06 0.0428757
4.52951E+06 0.0426365
4.53865E+06 0.0423991
4.54779E+06 0.0421634
4.55692E+06 0.0419296
4.56606E+06 0.0416975
4.57729E+06 0.0414148
4.58852E+06 0.0411346
4.59974E+06 0.0408570
4.61097E+06 0.0405819
4.62220E+06 0.0403094
4.63343E+06 0.0400393
4.64465E+06 0.0397717
4.65588E+06 0.0395066
4.66711E+06 0.0392438
4.67834E+06 0.0389834
4.68956E+06 0.0387253
4.70079E+06 0.0384696
4.71202E+06 0.0382161
4.72325E+06 0.0379650
4.73447E+06 0.0377160
4.74570E+06 0.0374693
4.75693E+06 0.0372248
4.76816E+06 0.0369824
4.77938E+06 0.0367422
4.79061E+06 0.0365041
4.80184E+06 0.0362681
4.81307E+06 0.0360342
4.82429E+06 0.0358023
4.83552E+06 0.0355724
4.84675E+06 0.0353446
4.85798E+06 0.0351187
4.86920E+06 0.0348948
4.88043E+06 0.0346728
4.89166E+06 0.0344527
4.90289E+06 0.0342346
4.91411E+06 0.0340183
4.92534E+06 0.0338039
4.94401E+06 0.0334514
4.96267E+06 0.0331040
4.98134E+06 0.0327614
5.00000E+06 0.0324237
5.01232E+06 0.0320953
5.02465E+06 0.0317709
5.03697E+06 0.0314507
5.04930E+06 0.0311344
5.06162E+06 0.0308221
5.07394E+06 0.0305137
5.08627E+06 0.0302091
5.09859E+06 0.0299082
5.11183E+06 0.0295892
5.12506E+06 0.0292744
5.13830E+06 0.0289638
5.15154E+06 0.0286572
5.16478E+06 0.0283547
5.17801E+06 0.0280561
5.19125E+06 0.0277614
5.20449E+06 0.0274706
5.21772E+06 0.0271835
5.23096E+06 0.0269001
5.24420E+06 0.0266204
5.25743E+06 0.0263443
5.27067E+06 0.0260718
5.28391E+06 0.0258027
5.29714E+06 0.0255371
5.31038E+06 0.0252749
5.32417E+06 0.0250053
5.33795E+06 0.0247393
5.35174E+06 0.0244768
5.36553E+06 0.0242177
5.37931E+06 0.0239620
5.39310E+06 0.0237097
5.40688E+06 0.0234607
5.42067E+06 0.0232149
5.43446E+06 0.0229723
5.44824E+06 0.0227329
5.46203E+06 0.0224965
5.47582E+06 0.0222632
5.48960E+06 0.0220328
5.50339E+06 0.0218055
5.51717E+06 0.0215810
5.53096E+06 0.0213594
5.54532E+06 0.0211316
5.55968E+06 0.0209068
5.57404E+06 0.0206849
5.58840E+06 0.0204660
5.60276E+06 0.0202499
5.61712E+06 0.0200367
5.63148E+06 0.0198262
5.64584E+06 0.0196185
5.66020E+06 0.0194135
5.67455E+06 0.0192111
5.68891E+06 0.0190114
5.70327E+06 0.0188142
5.71763E+06 0.0186195
5.73199E+06 0.0184274
5.74635E+06 0.0182377
5.76071E+06 0.0180504
5.77567E+06 0.0178579
5.79062E+06 0.0176679
5.80558E+06 0.0174804
5.82053E+06 0.0172954
5.83549E+06 0.0171128
5.85044E+06 0.0169326
5.86540E+06 0.0167548
5.88036E+06 0.0165793
5.89531E+06 0.0164060
5.91027E+06 0.0162350
5.92522E+06 0.0160662
5.94018E+06 0.0158995
5.95513E+06 0.0157351
5.97009E+06 0.0155727
5.98505E+06 0.0154124
6.00000E+06 0.0152541
6.00376E+06 0.0152090
6.00751E+06 0.0151641
6.01127E+06 0.0151194
6.01502E+06 0.0150748
6.01878E+06 0.0150304
6.02254E+06 0.0149862
6.02629E+06 0.0149420
6.03005E+06 0.0148981
6.03380E+06 0.0148543
6.03756E+06 0.0148107
6.04132E+06 0.0147672
6.04507E+06 0.0147239
6.04883E+06 0.0146807
6.05258E+06 0.0146377
6.05634E+06 0.0145949
6.06009E+06 0.0145522
6.06385E+06 0.0145096
6.06761E+06 0.0144672
6.07136E+06 0.0144249
6.07512E+06 0.0143828
6.07887E+06 0.0143409
6.08263E+06 0.0142990
6.08638E+06 0.0142574
6.09014E+06 0.0142159
6.09390E+06 0.0141745
6.09765E+06 0.0141333
6.10141E+06 0.0140922
6.10516E+06 0.0140513
6.10892E+06 0.0140105
6.11267E+06 0.0139698
6.11643E+06 0.0139293
6.12019E+06 0.0138890
6.12394E+06 0.0138487
6.12770E+06 0.0138087
6.13145E+06 0.0137687
6.13521E+06 0.0137289
6.13897E+06 0.0136893
6.14272E+06 0.0136497
6.14648E+06 0.0136103
6.15023E+06 0.0135711
6.15399E+06 0.0135320
6.15774E+06 0.0134930
6.16150E+06 0.0134542
6.16526E+06 0.0134155
6.16901E+06 0.0133769
6.17277E+06 0.0133385
6.17652E+06 0.0133002
6.18028E+06 0.0132620
6.18403E+06 0.0132240
6.18779E+06 0.0131861
6.19155E+06 0.0131483
6.19530E+06 0.0131107
6.19906E+06 0.0130732
6.20281E+06 0.0130358
6.20657E+06 0.0129986
6.21032E+06 0.0129615
6.21408E+06 0.0129245
6.21784E+06 0.0128876
6.22159E+06 0.0128509
6.22535E+06 0.0128143
6.22910E+06 0.0127778
6.23286E+06 0.0127414
6.23662E+06 0.0127052
6.24037E+06 0.0126691
6.24413E+06 0.0126331
6.24788E+06 0.0125972
6.25164E+06 0.0125615
6.25539E+06 0.0125259
6.25915E+06 0.0124904
6.26291E+06 0.0124550
6.26666E+06 0.0124198
6.27042E+06 0.0123846
6.27417E+06 0.0123496
6.27793E+06 0.0123148
6.28169E+06 0.0122800
6.28544E+06 0.0122453
6.28920E+06 0.0122108
6.29295E+06 0.0121764
6.29671E+06 0.0121421
6.30046E+06 0.0121079
6.30422E+06 0.0120739
6.30798E+06 0.0120399
6.31173E+06 0.0120061
6.31549E+06 0.0119724
6.31924E+06 0.0119388
6.32300E+06 0.0119053
6.32675E+06 0.0118719
6.33051E+06 0.0118387
6.33427E+06 0.0118055
6.33802E+06 0.0117725
6.34178E+06 0.0117396
6.34553E+06 0.0117068
6.34929E+06 0.0116741
6.35304E+06 0.0116415
6.35680E+06 0.0116090
6.36056E+06 0.0115766
6.36431E+06 0.0115444
6.36807E+06 0.0115122
6.37182E+06 0.0114802
6.37558E+06 0.0114482
6.37934E+06 0.0114164
6.38309E+06 0.0113847
6.38685E+06 0.0113531
6.39060E+06 0.0113216
6.39436E+06 0.0112902
6.39811E+06 0.0112589
6.40187E+06 0.0112277
6.40563E+06 0.0111966
6.40938E+06 0.0111656
6.41314E+06 0.0111347
6.41689E+06 0.0111040
6.42065E+06 0.0110733
6.42440E+06 0.0110427
6.42816E+06 0.0110122
6.43192E+06 0.0109819
6.43567E+06 0.0109516
6.43943E+06 0.0109215
6.44318E+06 0.0108914
6.44694E+06 0.0108614
6.45069E+06 0.0108316
6.45445E+06 0.0108018
6.45821E+06 0.0107721
6.46196E+06 0.0107426
6.46572E+06 0.0107131
6.46947E+06 0.0106838
6.47323E+06 0.0106545
6.47699E+06 0.0106253
6.48074E+06 0.0105962
6.48480E+06 0.0105649
6.48885E+06 0.0105337
6.49291E+06 0.0105027
6.49697E+06 0.0104717
6.50102E+06 0.0104409
6.50508E+06 0.0104101
6.50914E+06 0.0103795
6.51319E+06 0.0103489
6.51725E+06 0.0103185
6.52131E+06 0.0102882
6.52537E+06 0.0102580
6.52942E+06 0.0102279
6.53348E+06 0.0101979
6.53754E+06 0.0101681
6.54159E+06 0.0101383
6.54565E+06 0.0101086
6.54971E+06 0.0100791
6.55376E+06 0.0100496
6.55782E+06 0.0100202
6.56188E+06 0.00999099
6.56593E+06 0.00996184
6.56999E+06 0.00993280
6.57405E+06 0.00990385
6.57810E+06 0.00987502
6.58216E+06 0.00984628
6.58622E+06 0.00981764
6.59027E+06 0.00978910
6.59433E+06 0.00976067
6.59839E+06 0.00973234
6.60244E+06 0.00970411
6.60650E+06 0.00967597
6.61056E+06 0.00964794
6.61461E+06 0.00961999
6.61867E+06 0.00959215
6.62273E+06 0.00956441
6.62678E+06 0.00953676
6.63084E+06 0.00950921
6.63490E+06 0.00948176
6.63895E+06 0.00945440
6.64301E+06 0.00942714
6.64707E+06 0.00939997
6.65112E+06 0.00937290
6.65518E+06 0.00934592
6.65924E+06 0.00931904
6.66329E+06 0.00929225
6.66735E+06 0.00926555
6.67141E+06 0.00923895
6.67546E+06 0.00921244
6.67952E+06 0.00918602
6.68358E+06 0.00915969
6.68763E+06 0.00913345
6.69169E+06 0.00910731
6.69575E+06 0.00908126
6.69980E+06 0.00905529
6.70386E+06 0.00902941
6.70792E+06 0.00900363
6.71197E+06 0.00897794
6.71603E+06 0.00895233
6.72009E+06 0.00892681
6.72414E+06 0.00890138
6.72820E+06 0.00887604
6.73226E+06 0.00885079
6.73631E+06 0.00882562
6.74037E+06 0.00880054
6.74443E+06 0.00877554
6.74848E+06 0.00875063
6.75254E+06 0.00872581
6.75660E+06 0.00870107
6.76065E+06 0.00867642
6.76471E+06 0.00865185
6.76877E+06 0.00862736
6.77282E+06 0.00860296
6.77688E+06 0.00857865
6.78094E+06 0.00855441
6.78500E+06 0.00853026
6.78905E+06 0.00850619
6.79311E+06 0.00848221
6.79717E+06 0.00845830
6.80122E+06 0.00843447
6.80528E+06 0.00841074
6.80934E+06 0.00838708
6.81339E+06 0.00836349
6.81745E+06 0.00833999
6.82151E+06 0.00831658
6.82556E+06 0.00829323
6.82962E+06 0.00826997
6.83368E+06 0.00824679
6.83773E+06 0.00822369
6.84179E+06 0.00820066
6.84585E+06 0.00817772
6.84990E+06 0.00815484
6.85396E+06 0.00813206
6.85802E+06 0.00810934
6.86207E+06 0.00808671
6.86613E+06 0.00806414
6.87019E+06 0.00804166
6.87424E+06 0.00801925
6.87830E+06 0.00799692
6.88236E+06 0.00797466
6.88641E+06 0.00795248
6.89047E+06 0.00793037
6.89453E+06 0.00790833
6.89858E+06 0.00788637
6.90264E+06 0.00786449
6.90670E+06 0.00784268
6.91075E+06 0.00782094
6.91481E+06 0.00779927
6.91887E+06 0.00777768
6.92292E+06 0.00775616
6.92698E+06 0.00773471
6.93104E+06 0.00771333
6.93509E+06 0.00769203
6.93915E+06 0.00767079
6.94321E+06 0.00764962
6.94726E+06 0.00762853
6.95132E+06 0.00760751
6.95538E+06 0.00758656
6.95943E+06 0.00756567
6.96349E+06 0.00754486
6.96755E+06 0.00752412
6.97160E+06 0.00750344
6.97566E+06 0.00748284
6.97972E+06 0.00746230
6.98377E+06 0.00744183
6.98783E+06 0.00742143
6.99189E+06 0.00740110
6.99594E+06 0.00738084
7.00000E+06 0.00736064
7.00677E+06 0.00732773
7.01353E+06 0.00729500
7.02030E+06 0.00726245
7.02706E+06 0.00723007
7.03383E+06 0.00719787
7.04060E+06 0.00716584
7.04736E+06 0.00713399
7.05413E+06 0.00710231
7.06089E+06 0.00707080
7.06766E+06 0.00703946
7.07443E+06 0.00700829
7.08119E+06 0.00697728
7.08796E+06 0.00694645
7.09472E+06 0.00691577
7.10149E+06 0.00688526
7.10825E+06 0.00685492
7.11502E+06 0.00682474
7.12179E+06 0.00679472
7.12855E+06 0.00676486
7.13532E+06 0.00673516
7.14208E+06 0.00670562
7.14885E+06 0.00667623
7.15561E+06 0.00664700
7.16238E+06 0.00661793
7.16915E+06 0.00658901
7.17591E+06 0.00656025
7.18268E+06 0.00653163
7.18944E+06 0.00650318
7.19621E+06 0.00647487
7.20297E+06 0.00644670
7.20974E+06 0.00641869
7.21651E+06 0.00639083
7.22327E+06 0.00636311
7.23004E+06 0.00633554
7.23680E+06 0.00630811
7.24357E+06 0.00628083
7.25034E+06 0.00625369
7.25710E+06 0.00622669
7.26387E+06 0.00619984
7.27063E+06 0.00617312
7.27740E+06 0.00614655
7.28416E+06 0.00612011
7.29093E+06 0.00609382
7.29770E+06 0.00606766
7.30446E+06 0.00604163
7.31123E+06 0.00601574
7.31799E+06 0.00598999
7.32476E+06 0.00596437
7.33152E+06 0.00593889
7.33829E+06 0.00591353
7.34506E+06 0.00588831
7.35182E+06 0.00586322
7.35859E+06 0.00583826
7.36535E+06 0.00581342
7.37212E+06 0.00578872
7.37888E+06 0.00576414
7.38565E+06 0.00573969
7.39242E+06 0.00571536
7.39918E+06 0.00569116
7.40595E+06 0.00566709
7.41271E+06 0.00564314
7.41948E+06 0.00561931
7.42625E+06 0.00559560
7.43301E+06 0.00557202
7.43744E+06 0.00555664
7.44187E+06 0.00554132
7.44630E+06 0.00552604
7.45073E+06 0.00551082
7.45516E+06 0.00549565
7.45959E+06 0.00548053
7.46402E+06 0.00546546
7.46845E+06 0.00545045
7.47288E+06 0.00543548
7.47731E+06 0.00542056
7.48174E+06 0.00540569
7.48617E+06 0.00539087
7.49060E+06 0.00537610
7.49503E+06 0.00536138
7.49946E+06 0.00534670
7.50388E+06 0.00533208
7.50831E+06 0.00531751
7.51274E+06 0.00530298
7.51717E+06 0.00528850
7.52160E+06 0.00527407
7.52603E+06 0.00525969
7.53046E+06 0.00524535
7.53489E+06 0.00523107
7.53932E+06 0.00521683
7.54375E+06 0.00520263
7.54818E+06 0.00518849
7.55261E+06 0.00517439
7.55704E+06 0.00516033
7.56147E+06 0.00514633
7.56590E+06 0.00513237
7.57033E+06 0.00511845
7.57476E+06 0.00510459
7.57919E+06 0.00509076
7.58362E+06 0.00507698
7.58805E+06 0.00506325
7.59248E+06 0.00504957
7.59691E+06 0.00503592
7.60134E+06 0.00502233
7.60577E+06 0.00500877
7.61020E+06 0.00499527
7.61463E+06 0.00498180
7.61906E+06 0.00496838
7.62349E+06 0.00495501
7.62791E+06 0.00494168
7.63234E+06 0.00492839
7.63677E+06 0.00491514
7.64120E+06 0.00490194
7.64563E+06 0.00488878
7.65006E+06 0.00487567
7.65449E+06 0.00486259
7.65892E+06 0.00484956
7.66335E+06 0.00483657
7.66778E+06 0.00482363
7.67221E+06 0.00481073
7.67664E+06 0.00479786
7.68107E+06 0.00478504
7.68550E+06 0.00477226
7.68993E+06 0.00475953
7.69436E+06 0.00474683
7.69879E+06 0.00473418
7.70322E+06 0.00472157
7.70765E+06 0.00470899
7.71208E+06 0.00469646
7.71651E+06 0.00468397
7.72094E+06 0.00467152
7.72537E+06 0.00465911
7.72980E+06 0.00464674
7.73422E+06 0.00463441
7.73865E+06 0.00462211
7.74308E+06 0.00460986
7.74751E+06 0.00459765
7.75194E+06 0.00458548
7.75637E+06 0.00457335
7.76080E+06 0.00456125
7.76523E+06 0.00454919
7.76966E+06 0.00453718
7.77409E+06 0.00452520
7.77852E+06 0.00451326
7.78295E+06 0.00450136
7.78738E+06 0.00448949
7.79181E+06 0.00447767
7.79624E+06 0.00446588
7.80067E+06 0.00445413
7.80510E+06 0.00444242
7.80953E+06 0.00443074
7.81396E+06 0.00441910
7.81839E+06 0.00440750
7.82282E+06 0.00439594
7.82725E+06 0.00438441
7.83168E+06 0.00437292
7.83611E+06 0.00436147
7.84054E+06 0.00435005
7.84497E+06 0.00433867
7.84939E+06 0.00432733
7.85382E+06 0.00431602
7.85825E+06 0.00430475
7.86268E+06 0.00429351
7.86711E+06 0.00428231
7.87154E+06 0.00427114
7.87597E+06 0.00426001
7.88040E+06 0.00424891
7.88483E+06 0.00423785
7.88926E+06 0.00422683
7.89369E+06 0.00421584
7.89812E+06 0.00420488
7.90255E+06 0.00419396
7.90698E+06 0.00418307
7.91141E+06 0.00417222
7.91584E+06 0.00416140
7.92027E+06 0.00415062
7.92470E+06 0.00413987
7.92913E+06 0.00412916
7.93356E+06 0.00411847
7.93799E+06 0.00410782
7.94242E+06 0.00409721
7.94685E+06 0.00408663
7.95128E+06 0.00407608
7.95571E+06 0.00406556
7.96014E+06 0.00405508
7.96456E+06 0.00404463
7.96899E+06 0.00403421
7.97342E+06 0.00402383
7.97785E+06 0.00401348
7.98228E+06 0.00400316
7.98671E+06 0.00399287
7.99114E+06 0.00398262
7.99557E+06 0.00397239
8.00000E+06 0.00396220
8.00758E+06 0.00394861
8.01517E+06 0.00393508
8.02275E+06 0.00392161
8.03033E+06 0.00390820
8.03791E+06 0.00389484
8.04550E+06 0.00388155
8.05308E+06 0.00386831
8.06066E+06 0.00385513
8.06824E+06 0.00384201
8.07583E+06 0.00382894
8.08341E+06 0.00381593
8.09099E+06 0.00380298
8.09857E+06 0.00379008
8.10616E+06 0.00377724
8.11374E+06 0.00376445
8.12132E+06 0.00375172
8.12890E+06 0.00373905
8.13649E+06 0.00372643
8.14407E+06 0.00371386
8.15165E+06 0.00370135
8.15923E+06 0.00368889
8.16682E+06 0.00367648
8.17440E+06 0.00366413
8.18198E+06 0.00365183
8.18956E+06 0.00363958
8.19715E+06 0.00362739
8.20473E+06 0.00361525
8.21231E+06 0.00360316
8.21989E+06 0.00359112
8.22748E+06 0.00357913
8.23506E+06 0.00356719
8.24264E+06 0.00355530
8.25022E+06 0.00354347
8.25781E+06 0.00353168
8.26539E+06 0.00351995
8.27297E+06 0.00350826
8.28055E+06 0.00349662
8.28814E+06 0.00348504
8.29572E+06 0.00347350
8.30330E+06 0.00346201
8.31088E+06 0.00345057
8.31847E+06 0.00343918
8.32605E+06 0.00342783
8.33363E+06 0.00341653
8.34121E+06 0.00340528
8.34880E+06 0.00339408
8.35638E+06 0.00338293
8.36396E+06 0.00337182
8.37154E+06 0.00336075
8.37913E+06 0.00334974
8.38671E+06 0.00333877
8.39429E+06 0.00332784
8.40187E+06 0.00331696
8.40946E+06 0.00330613
8.41704E+06 0.00329534
8.42462E+06 0.00328460
8.43220E+06 0.00327390
8.43979E+06 0.00326325
8.44737E+06 0.00325264
8.45495E+06 0.00324207
8.46253E+06 0.00323155
8.47012E+06 0.00322107
8.47770E+06 0.00321063
8.48528E+06 0.00320024
8.49154E+06 0.00319326
8.49780E+06 0.00318630
8.50406E+06 0.00317936
8.51032E+06 0.00317245
8.51658E+06 0.00316555
8.52284E+06 0.00315867
8.52910E+06 0.00315181
8.53536E+06 0.00314498
8.54162E+06 0.00313816
8.54788E+06 0.00313136
8.55414E+06 0.00312458
8.56040E+06 0.00311782
8.56667E+06 0.00311108
8.57293E+06 0.00310437
8.57919E+06 0.00309767
8.58545E+06 0.00309098
8.59171E+06 0.00308432
8.59797E+06 0.00307768
8.60423E+06 0.00307106
8.61049E+06 0.00306445
8.61675E+06 0.00305787
8.62301E+06 0.00305130
8.62927E+06 0.00304475
8.63553E+06 0.00303822
8.64179E+06 0.00303171
8.64805E+06 0.00302522
8.65431E+06 0.00301875
8.66057E+06 0.00301229
8.66683E+06 0.00300586
8.67309E+06 0.00299944
8.67935E+06 0.00299304
8.68561E+06 0.00298666
8.69187E+06 0.00298030
8.69813E+06 0.00297395
8.70439E+06 0.00296763
8.71065E+06 0.00296132
8.71691E+06 0.00295503
8.72317E+06 0.00294875
8.72943E+06 0.00294250
8.73569E+06 0.00293626
8.74195E+06 0.00293004
8.74821E+06 0.00292384
8.75447E+06 0.00291766
8.76073E+06 0.00291149
8.76700E+06 0.00290534
8.77326E+06 0.00289921
8.77952E+06 0.00289309
8.78578E+06 0.00288700
8.79204E+06 0.00288091
8.79830E+06 0.00287485
8.80456E+06 0.00286880
8.81082E+06 0.00286278
8.81708E+06 0.00285676
8.82334E+06 0.00285077
8.82960E+06 0.00284479
8.83586E+06 0.00283883
8.84212E+06 0.00283288
8.84838E+06 0.00282695
8.85464E+06 0.00282104
8.86090E+06 0.00281515
8.86716E+06 0.00280927
8.87342E+06 0.00280341
8.87968E+06 0.00279756
8.88594E+06 0.00279173
8.89307E+06 0.00278511
8.90020E+06 0.00277851
8.90733E+06 0.00277194
8.91446E+06 0.00276538
8.92158E+06 0.00275884
8.92871E+06 0.00275233
8.93584E+06 0.00274584
8.94297E+06 0.00273936
8.95010E+06 0.00273291
8.95723E+06 0.00272648
8.96436E+06 0.00272006
8.97149E+06 0.00271367
8.97861E+06 0.00270730
8.98574E+06 0.00270095
8.99287E+06 0.00269461
9.00000E+06 0.00268830
9.00761E+06 0.00268362
9.01521E+06 0.00267895
9.02282E+06 0.00267429
9.03043E+06 0.00266965
9.03803E+06 0.00266501
9.04564E+06 0.00266039
9.05325E+06 0.00265578
9.06085E+06 0.00265118
9.06846E+06 0.00264660
9.07607E+06 0.00264202
9.08368E+06 0.00263746
9.09128E+06 0.00263291
9.09889E+06 0.00262837
9.10650E+06 0.00262384
9.11410E+06 0.00261932
9.12171E+06 0.00261482
9.12932E+06 0.00261033
9.13692E+06 0.00260585
9.14453E+06 0.00260137
9.15214E+06 0.00259692
9.15974E+06 0.00259247
9.16735E+06 0.00258803
9.17496E+06 0.00258361
9.18256E+06 0.00257919
9.19017E+06 0.00257479
9.19778E+06 0.00257040
9.20538E+06 0.00256602
9.21299E+06 0.00256165
9.22060E+06 0.00255729
9.22820E+06 0.00255294
9.23581E+06 0.00254861
9.24342E+06 0.00254428
9.25102E+06 0.00253997
9.25863E+06 0.00253567
9.26624E+06 0.00253137
9.27384E+06 0.00252709
9.28145E+06 0.00252282
9.28906E+06 0.00251856
9.29666E+06 0.00251431
9.30427E+06 0.00251007
9.31188E+06 0.00250584
9.31948E+06 0.00250162
9.32709E+06 0.00249742
9.33470E+06 0.00249322
9.34230E+06 0.00248903
9.34991E+06 0.00248486
9.35752E+06 0.00248069
9.36512E+06 0.00247653
9.37273E+06 0.00247239
9.38034E+06 0.00246825
9.38794E+06 0.00246413
9.39555E+06 0.00246002
9.40316E+06 0.00245591
9.41076E+06 0.00245182
9.41837E+06 0.00244773
9.42598E+06 0.00244366
9.43358E+06 0.00243960
9.44119E+06 0.00243554
9.44880E+06 0.00243150
9.45640E+06 0.00242747
9.46401E+06 0.00242344
9.47162E+06 0.00241943
9.47922E+06 0.00241542
9.48683E+06 0.00241143
9.49485E+06 0.00240854
9.50287E+06 0.00240567
9.51089E+06 0.00240279
9.51890E+06 0.00239992
9.52692E+06 0.00239706
9.53494E+06 0.00239421
9.54296E+06 0.00239136
9.55098E+06 0.00238851
9.55900E+06 0.00238567
9.56701E+06 0.00238284
9.57503E+06 0.00238001
9.58305E+06 0.00237719
9.59107E+06 0.00237437
9.59909E+06 0.00237156
9.60711E+06 0.00236876
9.61512E+06 0.00236596
9.62314E+06 0.00236317
9.63116E+06 0.00236038
9.63918E+06 0.00235760
9.64720E+06 0.00235482
9.65522E+06 0.00235205
9.66323E+06 0.00234929
9.67125E+06 0.00234653
9.67927E+06 0.00234377
9.68729E+06 0.00234102
9.69531E+06 0.00233828
9.70332E+06 0.00233554
9.71134E+06 0.00233281
9.71936E+06 0.00233008
9.72738E+06 0.00232736
9.73540E+06 0.00232465
9.74342E+06 0.00232194
9.75143E+06 0.00231923
9.75945E+06 0.00231653
9.76747E+06 0.00231384
9.77549E+06 0.00231115
9.78351E+06 0.00230846
9.79153E+06 0.00230578
9.79954E+06 0.00230311
9.80756E+06 0.00230044
9.81558E+06 0.00229778
9.82360E+06 0.00229512
9.83162E+06 0.00229247
9.83964E+06 0.00228982
9.84765E+06 0.00228718
9.85567E+06 0.00228455
9.86369E+06 0.00228191
9.87171E+06 0.00227929
9.87973E+06 0.00227667
9.88775E+06 0.00227405
9.89576E+06 0.00227144
9.90378E+06 0.00226883
9.91180E+06 0.00226623
9.91982E+06 0.00226364
9.92784E+06 0.00226105
9.93585E+06 0.00225846
9.94387E+06 0.00225588
9.95189E+06 0.00225331
9.95991E+06 0.00225074
9.96793E+06 0.00224817
9.97595E+06 0.00224561
9.98396E+06 0.00224306
9.99198E+06 0.00224051
1.00000E+07 0.00223796
1.00076E+07 0.00223449
1.00153E+07 0.00223104
1.00229E+07 0.00222759
1.00305E+07 0.00222415
1.00381E+07 0.00222071
1.00458E+07 0.00221729
1.00534E+07 0.00221387
1.00610E+07 0.00221046
1.00687E+07 0.00220706
1.00763E+07 0.00220366
1.00839E+07 0.00220028
1.00915E+07 0.00219690
1.00992E+07 0.00219353
1.01068E+07 0.00219017
1.01144E+07 0.00218681
1.01220E+07 0.00218347
1.01297E+07 0.00218013
1.01373E+07 0.00217679
1.01449E+07 0.00217347
1.01525E+07 0.00217015
1.01602E+07 0.00216684
1.01678E+07 0.00216354
1.01754E+07 0.00216025
1.01830E+07 0.00215696
1.01907E+07 0.00215368
1.01983E+07 0.00215041
1.02059E+07 0.00214714
1.02136E+07 0.00214389
1.02212E+07 0.00214064
1.02288E+07 0.00213740
1.02364E+07 0.00213416
1.02441E+07 0.00213094
1.02517E+07 0.00212771
1.02593E+07 0.00212450
1.02669E+07 0.00212129
1.02746E+07 0.00211809
1.02822E+07 0.00211490
1.02898E+07 0.00211172
1.02975E+07 0.00210854
1.03051E+07 0.00210537
1.03127E+07 0.00210220
1.03203E+07 0.00209905
1.03280E+07 0.00209590
1.03356E+07 0.00209276
1.03432E+07 0.00208962
1.03508E+07 0.00208650
1.03585E+07 0.00208337
1.03661E+07 0.00208026
1.03737E+07 0.00207715
1.03813E+07 0.00207405
1.03890E+07 0.00207096
1.03966E+07 0.00206787
1.04042E+07 0.00206479
1.04118E+07 0.00206172
1.04195E+07 0.00205866
1.04271E+07 0.00205560
1.04347E+07 0.00205255
1.04424E+07 0.00204950
1.04500E+07 0.00204646
1.04576E+07 0.00204343
1.04652E+07 0.00204040
1.04729E+07 0.00203739
1.04805E+07 0.00203437
1.04881E+07 0.00203137
1.04982E+07 0.00202824
1.05083E+07 0.00202512
1.05184E+07 0.00202200
1.05285E+07 0.00201889
1.05387E+07 0.00201579
1.05488E+07 0.00201270
1.05589E+07 0.00200962
1.05690E+07 0.00200654
1.05791E+07 0.00200347
1.05892E+07 0.00200041
1.05993E+07 0.00199735
1.06094E+07 0.00199431
1.06195E+07 0.00199127
1.06296E+07 0.00198824
1.06398E+07 0.00198521
1.06499E+07 0.00198220
1.06600E+07 0.00197919
1.06701E+07 0.00197619
1.06802E+07 0.00197320
1.06903E+07 0.00197021
1.07004E+07 0.00196723
1.07105E+07 0.00196426
1.07206E+07 0.00196129
1.07307E+07 0.00195833
1.07408E+07 0.00195538
1.07510E+07 0.00195244
1.07611E+07 0.00194951
1.07712E+07 0.00194658
1.07813E+07 0.00194365
1.07914E+07 0.00194074
1.08015E+07 0.00193783
1.08116E+07 0.00193494
1.08116E+07 0.00193493
1.08175E+07 0.00193324
1.08234E+07 0.00193156
1.08293E+07 0.00192987
1.08352E+07 0.00192820
1.08411E+07 0.00192652
1.08470E+07 0.00192485
1.08529E+07 0.00192317
1.08587E+07 0.00192151
1.08646E+07 0.00191984
1.08705E+07 0.00191817
1.08764E+07 0.00191651
1.08823E+07 0.00191485
1.08882E+07 0.00191320
1.08941E+07 0.00191154
1.08999E+07 0.00190989
1.09058E+07 0.00190824
1.09117E+07 0.00190659
1.09176E+07 0.00190495
1.09235E+07 0.00190330
1.09294E+07 0.00190166
1.09353E+07 0.00190002
1.09411E+07 0.00189839
1.09470E+07 0.00189675
1.09529E+07 0.00189512
1.09588E+07 0.00189349
1.09647E+07 0.00189186
1.09706E+07 0.00189024
1.09765E+07 0.00188862
1.09824E+07 0.00188700
1.09882E+07 0.00188538
1.09941E+07 0.00188376
1.10000E+07 0.00188215
1.10078E+07 0.00187951
1.10156E+07 0.00187688
1.10234E+07 0.00187426
1.10313E+07 0.00187164
1.10391E+07 0.00186903
1.10469E+07 0.00186642
1.10547E+07 0.00186382
1.10625E+07 0.00186122
1.10703E+07 0.00185863
1.10781E+07 0.00185604
1.10859E+07 0.00185346
1.10938E+07 0.00185089
1.11016E+07 0.00184832
1.11094E+07 0.00184575
1.11172E+07 0.00184320
1.11250E+07 0.00184064
1.11328E+07 0.00183809
1.11406E+07 0.00183555
1.11484E+07 0.00183301
1.11563E+07 0.00183048
1.11641E+07 0.00182795
1.11719E+07 0.00182543
1.11797E+07 0.00182292
1.11875E+07 0.00182041
1.11953E+07 0.00181790
1.12031E+07 0.00181540
1.12109E+07 0.00181290
1.12188E+07 0.00181041
1.12266E+07 0.00180792
1.12344E+07 0.00180544
1.12422E+07 0.00180297
1.12500E+07 0.00180050
1.12578E+07 0.00179803
1.12656E+07 0.00179557
1.12734E+07 0.00179312
1.12813E+07 0.00179067
1.12891E+07 0.00178822
1.12969E+07 0.00178579
1.13047E+07 0.00178335
1.13125E+07 0.00178092
1.13203E+07 0.00177850
1.13281E+07 0.00177608
1.13359E+07 0.00177366
1.13438E+07 0.00177125
1.13516E+07 0.00176885
1.13594E+07 0.00176645
1.13672E+07 0.00176405
1.13750E+07 0.00176166
1.13828E+07 0.00175928
1.13906E+07 0.00175690
1.13984E+07 0.00175452
1.14063E+07 0.00175215
1.14141E+07 0.00174978
1.14219E+07 0.00174742
1.14297E+07 0.00174507
1.14375E+07 0.00174272
1.14453E+07 0.00174037
1.14531E+07 0.00173802
1.14609E+07 0.00173569
1.14688E+07 0.00173336
1.14766E+07 0.00173103
1.14844E+07 0.00172870
1.14922E+07 0.00172639
1.15000E+07 0.00172407
1.15078E+07 0.00172176
1.15156E+07 0.00171946
1.15234E+07 0.00171716
1.15313E+07 0.00171486
1.15391E+07 0.00171257
1.15469E+07 0.00171029
1.15547E+07 0.00170801
1.15625E+07 0.00170573
1.15703E+07 0.00170346
1.15781E+07 0.00170119
1.15859E+07 0.00169893
1.15938E+07 0.00169667
1.16016E+07 0.00169441
1.16094E+07 0.00169216
1.16172E+07 0.00168992
1.16250E+07 0.00168768
1.16328E+07 0.00168544
1.16406E+07 0.00168321
1.16484E+07 0.00168098
1.16563E+07 0.00167876
1.16641E+07 0.00167654
1.16719E+07 0.00167433
1.16797E+07 0.00167212
1.16875E+07 0.00166991
1.16953E+07 0.00166771
1.17031E+07 0.00166552
1.17109E+07 0.00166332
1.17188E+07 0.00166114
1.17266E+07 0.00165895
1.17344E+07 0.00165677
1.17422E+07 0.00165460
1.17500E+07 0.00165243
1.17578E+07 0.00165026
1.17656E+07 0.00164810
1.17734E+07 0.00164594
1.17813E+07 0.00164379
1.17891E+07 0.00164164
1.17969E+07 0.00163950
1.18047E+07 0.00163736
1.18125E+07 0.00163522
1.18203E+07 0.00163309
1.18281E+07 0.00163096
1.18359E+07 0.00162884
1.18438E+07 0.00162672
1.18516E+07 0.00162460
1.18594E+07 0.00162249
1.18672E+07 0.00162038
1.18750E+07 0.00161828
1.18828E+07 0.00161618
1.18906E+07 0.00161408
1.18984E+07 0.00161199
1.19063E+07 0.00160991
1.19141E+07 0.00160782
1.19219E+07 0.00160574
1.19297E+07 0.00160367
1.19375E+07 0.00160160
1.19453E+07 0.00159953
1.19531E+07 0.00159747
1.19609E+07 0.00159541
1.19688E+07 0.00159336
1.19766E+07 0.00159131
1.19844E+07 0.00158926
1.19922E+07 0.00158722
1.20000E+07 0.00158518
1.20156E+07 0.00158053
1.20313E+07 0.00157591
1.20469E+07 0.00157131
1.20625E+07 0.00156672
1.20781E+07 0.00156215
1.20938E+07 0.00155761
1.21094E+07 0.00155308
1.21250E+07 0.00154857
1.21406E+07 0.00154408
1.21563E+07 0.00153961
1.21719E+07 0.00153516
1.21875E+07 0.00153072
1.22031E+07 0.00152631
1.22188E+07 0.00152191
1.22344E+07 0.00151753
1.22500E+07 0.00151317
1.22656E+07 0.00150883
1.22813E+07 0.00150450
1.22969E+07 0.00150019
1.23125E+07 0.00149591
1.23281E+07 0.00149163
1.23438E+07 0.00148738
1.23594E+07 0.00148314
1.23750E+07 0.00147892
1.23906E+07 0.00147472
1.24063E+07 0.00147054
1.24219E+07 0.00146637
1.24375E+07 0.00146222
1.24531E+07 0.00145809
1.24688E+07 0.00145397
1.24844E+07 0.00144987
1.25000E+07 0.00144579
1.25156E+07 0.00144172
1.25313E+07 0.00143767
1.25469E+07 0.00143364
1.25625E+07 0.00142962
1.25781E+07 0.00142562
1.25938E+07 0.00142163
1.26094E+07 0.00141766
1.26250E+07 0.00141371
1.26406E+07 0.00140977
1.26563E+07 0.00140585
1.26719E+07 0.00140195
1.26875E+07 0.00139806
1.27031E+07 0.00139418
1.27188E+07 0.00139032
1.27344E+07 0.00138648
1.27500E+07 0.00138265
1.27656E+07 0.00137884
1.27813E+07 0.00137504
1.27969E+07 0.00137126
1.28125E+07 0.00136749
1.28281E+07 0.00136374
1.28438E+07 0.00136000
1.28594E+07 0.00135628
1.28750E+07 0.00135257
1.28906E+07 0.00134887
1.29063E+07 0.00134520
1.29219E+07 0.00134153
1.29375E+07 0.00133788
1.29531E+07 0.00133424
1.29688E+07 0.00133062
1.29844E+07 0.00132701
1.30000E+07 0.00132342
1.30156E+07 0.00132080
1.30313E+07 0.00131819
1.30469E+07 0.00131558
1.30625E+07 0.00131299
1.30781E+07 0.00131040
1.30938E+07 0.00130782
1.31094E+07 0.00130525
1.31250E+07 0.00130269
1.31406E+07 0.00130013
1.31563E+07 0.00129759
1.31719E+07 0.00129505
1.31875E+07 0.00129252
1.32031E+07 0.00128999
1.32188E+07 0.00128748
1.32344E+07 0.00128497
1.32500E+07 0.00128247
1.32656E+07 0.00127998
1.32813E+07 0.00127750
1.32969E+07 0.00127502
1.33125E+07 0.00127255
1.33281E+07 0.00127009
1.33438E+07 0.00126764
1.33594E+07 0.00126519
1.33750E+07 0.00126275
1.33906E+07 0.00126032
1.34063E+07 0.00125790
1.34219E+07 0.00125548
1.34375E+07 0.00125308
1.34531E+07 0.00125068
1.34688E+07 0.00124828
1.34844E+07 0.00124590
1.35000E+07 0.00124352
1.35156E+07 0.00124115
1.35313E+07 0.00123878
1.35469E+07 0.00123643
1.35625E+07 0.00123408
1.35781E+07 0.00123173
1.35938E+07 0.00122940
1.36094E+07 0.00122707
1.36250E+07 0.00122475
1.36406E+07 0.00122244
1.36563E+07 0.00122013
1.36719E+07 0.00121783
1.36875E+07 0.00121554
1.37031E+07 0.00121325
1.37188E+07 0.00121097
1.37344E+07 0.00120870
1.37500E+07 0.00120643
1.37656E+07 0.00120417
1.37813E+07 0.00120192
1.37969E+07 0.00119968
1.38125E+07 0.00119744
1.38281E+07 0.00119521
1.38438E+07 0.00119298
1.38594E+07 0.00119076
1.38750E+07 0.00118855
1.38906E+07 0.00118634
1.39063E+07 0.00118415
1.39219E+07 0.00118195
1.39375E+07 0.00117977
1.39531E+07 0.00117759
1.39688E+07 0.00117542
1.39844E+07 0.00117325
1.40000E+07 0.00117109
1.40313E+07 0.00116847
1.40625E+07 0.00116586
1.40938E+07 0.00116326
1.41250E+07 0.00116067
1.41563E+07 0.00115809
1.41875E+07 0.00115553
1.42188E+07 0.00115297
1.42500E+07 0.00115043
1.42813E+07 0.00114790
1.43125E+07 0.00114538
1.43438E+07 0.00114287
1.43750E+07 0.00114037
1.44063E+07 0.00113789
1.44375E+07 0.00113541
1.44688E+07 0.00113294
1.45000E+07 0.00113049
1.45313E+07 0.00112804
1.45625E+07 0.00112561
1.45938E+07 0.00112319
1.46250E+07 0.00112077
1.46563E+07 0.00111837
1.46875E+07 0.00111598
1.47188E+07 0.00111359
1.47500E+07 0.00111122
1.47813E+07 0.00110886
1.48125E+07 0.00110651
1.48438E+07 0.00110417
1.48750E+07 0.00110183
1.49063E+07 0.00109951
1.49375E+07 0.00109720
1.49688E+07 0.00109489
1.50000E+07 0.00109260
1.50341E+07 0.00109143
1.50681E+07 0.00109027
1.51022E+07 0.00108911
1.51362E+07 0.00108795
1.51902E+07 0.00108612
1.52442E+07 0.00108431
1.52982E+07 0.00108250
1.53522E+07 0.00108070
1.54061E+07 0.00107891
1.54601E+07 0.00107713
1.55141E+07 0.00107536
1.55681E+07 0.00107360
1.56221E+07 0.00107185
1.56761E+07 0.00107011
1.57301E+07 0.00106837
1.57841E+07 0.00106665
1.58380E+07 0.00106493
1.58920E+07 0.00106322
1.59460E+07 0.00106152
1.60000E+07 0.00105983
1.60156E+07 0.00105977
1.60313E+07 0.00105971
1.60469E+07 0.00105964
1.60625E+07 0.00105958
1.60781E+07 0.00105952
1.60938E+07 0.00105946
1.61094E+07 0.00105940
1.61250E+07 0.00105934
1.61406E+07 0.00105928
1.61563E+07 0.00105921
1.61719E+07 0.00105915
1.61875E+07 0.00105909
1.62031E+07 0.00105903
1.62188E+07 0.00105897
1.62344E+07 0.00105891
1.62500E+07 0.00105885
1.62656E+07 0.00105879
1.62813E+07 0.00105873
1.62969E+07 0.00105866
1.63125E+07 0.00105860
1.63281E+07 0.00105854
1.63438E+07 0.00105848
1.63594E+07 0.00105842
1.63750E+07 0.00105836
1.63906E+07 0.00105830
1.64063E+07 0.00105824
1.64219E+07 0.00105818
1.64375E+07 0.00105812
1.64531E+07 0.00105806
1.64688E+07 0.00105800
1.64844E+07 0.00105794
1.65000E+07 0.00105788
1.65156E+07 0.00105782
1.65313E+07 0.00105776
1.65469E+07 0.00105770
1.65625E+07 0.00105764
1.65781E+07 0.00105758
1.65938E+07 0.00105752
1.66094E+07 0.00105746
1.66250E+07 0.00105740
1.66406E+07 0.00105734
1.66563E+07 0.00105728
1.66719E+07 0.00105722
1.66875E+07 0.00105716
1.67031E+07 0.00105710
1.67188E+07 0.00105705
1.67344E+07 0.00105699
1.67500E+07 0.00105693
1.67656E+07 0.00105687
1.67813E+07 0.00105681
1.67969E+07 0.00105675
1.68125E+07 0.00105669
1.68281E+07 0.00105663
1.68438E+07 0.00105657
1.68594E+07 0.00105652
1.68750E+07 0.00105646
1.68906E+07 0.00105640
1.69063E+07 0.00105634
1.69219E+07 0.00105628
1.69375E+07 0.00105622
1.69531E+07 0.00105617
1.69688E+07 0.00105611
1.69844E+07 0.00105605
1.70000E+07 0.00105599
1.70094E+07 0.00105610
1.70187E+07 0.00105621
1.70281E+07 0.00105632
1.70374E+07 0.00105643
1.70468E+07 0.00105654
1.70561E+07 0.00105666
1.70655E+07 0.00105677
1.70748E+07 0.00105688
1.70842E+07 0.00105699
1.70936E+07 0.00105710
1.71029E+07 0.00105721
1.71123E+07 0.00105732
1.71216E+07 0.00105743
1.71310E+07 0.00105754
1.71403E+07 0.00105765
1.71497E+07 0.00105776
1.71590E+07 0.00105787
1.71684E+07 0.00105798
1.71778E+07 0.00105809
1.71871E+07 0.00105820
1.71965E+07 0.00105831
1.72058E+07 0.00105842
1.72152E+07 0.00105853
1.72245E+07 0.00105864
1.72339E+07 0.00105875
1.72432E+07 0.00105886
1.72526E+07 0.00105897
1.72619E+07 0.00105908
1.72713E+07 0.00105919
1.72807E+07 0.00105930
1.72900E+07 0.00105941
1.72994E+07 0.00105952
1.73087E+07 0.00105963
1.73181E+07 0.00105974
1.73274E+07 0.00105984
1.73368E+07 0.00105995
1.73461E+07 0.00106006
1.73555E+07 0.00106017
1.73648E+07 0.00106028
1.73742E+07 0.00106039
1.73836E+07 0.00106050
1.73929E+07 0.00106061
1.74023E+07 0.00106072
1.74116E+07 0.00106083
1.74210E+07 0.00106094
1.74303E+07 0.00106104
1.74397E+07 0.00106115
1.74490E+07 0.00106126
1.74584E+07 0.00106137
1.74677E+07 0.00106148
1.74771E+07 0.00106159
1.74865E+07 0.00106170
1.74958E+07 0.00106180
1.75052E+07 0.00106191
1.75145E+07 0.00106202
1.75239E+07 0.00106213
1.75332E+07 0.00106224
1.75426E+07 0.00106235
1.75519E+07 0.00106245
1.75613E+07 0.00106256
1.75707E+07 0.00106267
1.75800E+07 0.00106278
1.75894E+07 0.00106289
1.75987E+07 0.00106299
1.76113E+07 0.00106314
1.76238E+07 0.00106328
1.76363E+07 0.00106343
1.76489E+07 0.00106357
1.76614E+07 0.00106372
1.76740E+07 0.00106386
1.76865E+07 0.00106400
1.76990E+07 0.00106415
1.77116E+07 0.00106429
1.77241E+07 0.00106444
1.77367E+07 0.00106458
1.77492E+07 0.00106472
1.77617E+07 0.00106487
1.77743E+07 0.00106501
1.77868E+07 0.00106515
1.77994E+07 0.00106530
1.78119E+07 0.00106544
1.78244E+07 0.00106558
1.78370E+07 0.00106573
1.78495E+07 0.00106587
1.78621E+07 0.00106601
1.78746E+07 0.00106616
1.78871E+07 0.00106630
1.78997E+07 0.00106644
1.79122E+07 0.00106658
1.79248E+07 0.00106673
1.79373E+07 0.00106687
1.79498E+07 0.00106701
1.79624E+07 0.00106715
1.79749E+07 0.00106730
1.79875E+07 0.00106744
1.80000E+07 0.00106758
1.80156E+07 0.00106802
1.80313E+07 0.00106846
1.80469E+07 0.00106889
1.80625E+07 0.00106933
1.80781E+07 0.00106977
1.80938E+07 0.00107021
1.81094E+07 0.00107064
1.81250E+07 0.00107108
1.81406E+07 0.00107152
1.81563E+07 0.00107195
1.81719E+07 0.00107239
1.81875E+07 0.00107282
1.82031E+07 0.00107326
1.82188E+07 0.00107369
1.82344E+07 0.00107413
1.82500E+07 0.00107456
1.82656E+07 0.00107500
1.82813E+07 0.00107543
1.82969E+07 0.00107587
1.83125E+07 0.00107630
1.83281E+07 0.00107674
1.83438E+07 0.00107717
1.83594E+07 0.00107760
1.83750E+07 0.00107804
1.83906E+07 0.00107847
1.84063E+07 0.00107890
1.84219E+07 0.00107934
1.84375E+07 0.00107977
1.84531E+07 0.00108020
1.84688E+07 0.00108063
1.84844E+07 0.00108107
1.85000E+07 0.00108150
1.85156E+07 0.00108193
1.85313E+07 0.00108236
1.85469E+07 0.00108279
1.85625E+07 0.00108322
1.85781E+07 0.00108366
1.85938E+07 0.00108409
1.86094E+07 0.00108452
1.86250E+07 0.00108495
1.86406E+07 0.00108538
1.86563E+07 0.00108581
1.86719E+07 0.00108624
1.86875E+07 0.00108667
1.87031E+07 0.00108710
1.87188E+07 0.00108753
1.87344E+07 0.00108796
1.87500E+07 0.00108838
1.87656E+07 0.00108881
1.87813E+07 0.00108924
1.87969E+07 0.00108967
1.88125E+07 0.00109010
1.88281E+07 0.00109053
1.88438E+07 0.00109095
1.88594E+07 0.00109138
1.88750E+07 0.00109181
1.88906E+07 0.00109224
1.89063E+07 0.00109266
1.89219E+07 0.00109309
1.89375E+07 0.00109352
1.89531E+07 0.00109394
1.89688E+07 0.00109437
1.89844E+07 0.00109479
1.90000E+07 0.00109522
1.90270E+07 0.00109622
1.90539E+07 0.00109722
1.90809E+07 0.00109821
1.91079E+07 0.00109921
1.91348E+07 0.00110020
1.91618E+07 0.00110120
1.91888E+07 0.00110219
1.92157E+07 0.00110319
1.92427E+07 0.00110418
1.92697E+07 0.00110517
1.92966E+07 0.00110617
1.93236E+07 0.00110716
1.93506E+07 0.00110815
1.93775E+07 0.00110914
1.94045E+07 0.00111013
1.94315E+07 0.00111112
1.94584E+07 0.00111211
1.94854E+07 0.00111310
1.95124E+07 0.00111409
1.95393E+07 0.00111508
1.95663E+07 0.00111606
1.95933E+07 0.00111705
1.96202E+07 0.00111804
1.96472E+07 0.00111902
1.96742E+07 0.00112001
1.97011E+07 0.00112099
1.97281E+07 0.00112198
1.97550E+07 0.00112296
1.97820E+07 0.00112395
1.98090E+07 0.00112493
1.98359E+07 0.00112591
1.98629E+07 0.00112689
1.98972E+07 0.00112814
1.99315E+07 0.00112939
1.99657E+07 0.00113064
2.00000E+07 0.00113188
