Cd-106(n,tot) ENDFB-8.0
Energy(eV) XS(b)
1.00000E-05 75.3832
1.03125E-05 74.2428
1.06250E-05 73.1532
1.09375E-05 72.1107
1.12500E-05 71.1122
1.15625E-05 70.1545
1.18750E-05 69.2350
1.21875E-05 68.3513
1.25000E-05 67.5010
1.28125E-05 66.6822
1.31250E-05 65.8928
1.34375E-05 65.1313
1.37500E-05 64.3960
1.43750E-05 62.9982
1.50000E-05 61.6892
1.56250E-05 60.4598
1.62500E-05 59.3023
1.68750E-05 58.2101
1.75000E-05 57.1772
1.81250E-05 56.1985
1.87500E-05 55.2694
1.93750E-05 54.3859
2.00000E-05 53.5443
2.09375E-05 52.3537
2.18750E-05 51.2410
2.28125E-05 50.1980
2.37500E-05 49.2179
2.46875E-05 48.2944
2.56250E-05 47.4225
2.65625E-05 46.5975
2.75000E-05 45.8154
2.84375E-05 45.0725
2.93750E-05 44.3658
3.03125E-05 43.6925
3.12500E-05 43.0499
3.21875E-05 42.4358
3.31250E-05 41.8483
3.40625E-05 41.2854
3.50000E-05 40.7455
3.59375E-05 40.2270
3.68750E-05 39.7287
3.78125E-05 39.2492
3.87500E-05 38.7874
3.96875E-05 38.3422
4.06250E-05 37.9127
4.25000E-05 37.0972
4.43750E-05 36.3346
4.62500E-05 35.6194
4.81250E-05 34.9470
5.00000E-05 34.3132
5.15625E-05 33.8120
5.31250E-05 33.3335
5.46875E-05 32.8758
5.62500E-05 32.4377
5.78125E-05 32.0177
5.93750E-05 31.6147
6.09375E-05 31.2275
6.25000E-05 30.8552
6.40625E-05 30.4968
6.56250E-05 30.1515
6.71875E-05 29.8185
6.87500E-05 29.4971
7.18750E-05 28.8867
7.50000E-05 28.3155
7.81250E-05 27.7797
8.12500E-05 27.2756
8.43750E-05 26.8005
8.75000E-05 26.3515
9.06250E-05 25.9265
9.37500E-05 25.5234
9.68750E-05 25.1405
0.000100000 24.7760
0.000103125 24.4287
0.000106250 24.0972
0.000109375 23.7803
0.000112500 23.4771
0.000115625 23.1867
0.000118750 22.9081
0.000121875 22.6405
0.000125000 22.3834
0.000128125 22.1360
0.000131250 21.8978
0.000134375 21.6681
0.000137500 21.4466
0.000143750 21.0262
0.000150000 20.6331
0.000156250 20.2647
0.000162500 19.9185
0.000168750 19.5923
0.000175000 19.2845
0.000181250 18.9933
0.000187500 18.7173
0.000193750 18.4553
0.000200000 18.2062
0.000209375 17.8545
0.000218750 17.5266
0.000228125 17.2200
0.000237500 16.9326
0.000246875 16.6624
0.000256250 16.4078
0.000265625 16.1675
0.000275000 15.9402
0.000284375 15.7248
0.000293750 15.5202
0.000303125 15.3257
0.000312500 15.1405
0.000321875 14.9638
0.000331250 14.7951
0.000340625 14.6338
0.000350000 14.4793
0.000359375 14.3313
0.000368750 14.1892
0.000378125 14.0528
0.000387500 13.9216
0.000396875 13.7954
0.000406250 13.6738
0.000425000 13.4434
0.000443750 13.2287
0.000462500 13.0279
0.000481250 12.8397
0.000500000 12.6627
0.000515625 12.5232
0.000531250 12.3902
0.000546875 12.2632
0.000562500 12.1420
0.000578125 12.0260
0.000593750 11.9148
0.000609375 11.8083
0.000625000 11.7060
0.000640625 11.6077
0.000656250 11.5131
0.000671875 11.4221
0.000687500 11.3343
0.000718750 11.1681
0.000750000 11.0129
0.000781250 10.8677
0.000812500 10.7315
0.000843750 10.6034
0.000875000 10.4826
0.000906250 10.3685
0.000937500 10.2605
0.000968750 10.1580
0.00100000 10.0607
0.00103125 9.96809
0.00106250 9.87982
0.00109375 9.79559
0.00112500 9.71508
0.00115625 9.63805
0.00118750 9.56424
0.00121875 9.49345
0.00125000 9.42547
0.00128125 9.36013
0.00131250 9.29727
0.00134375 9.23673
0.00137500 9.17837
0.00143750 9.06771
0.00150000 8.96440
0.00156250 8.86766
0.00162500 8.77684
0.00168750 8.69135
0.00175000 8.61071
0.00181250 8.53447
0.00187500 8.46226
0.00193750 8.39373
0.00200000 8.32858
0.00209375 8.23663
0.00218750 8.15092
0.00228125 8.07077
0.00237500 7.99561
0.00246875 7.92496
0.00256250 7.85838
0.00265625 7.79550
0.00275000 7.73599
0.00284375 7.67956
0.00293750 7.62596
0.00303125 7.57496
0.00312500 7.52636
0.00321875 7.47998
0.00331250 7.43565
0.00340625 7.39323
0.00350000 7.35259
0.00359375 7.31361
0.00368750 7.27617
0.00378125 7.24018
0.00387500 7.20556
0.00396875 7.17220
0.00406250 7.14005
0.00425000 7.07907
0.00443750 7.02212
0.00462500 6.96878
0.00481250 6.91869
0.00500000 6.87152
0.00515625 6.83426
0.00531250 6.79870
0.00546875 6.76472
0.00562500 6.73221
0.00578125 6.70106
0.00593750 6.67119
0.00609375 6.64250
0.00625000 6.61493
0.00640625 6.58840
0.00656250 6.56284
0.00671875 6.53821
0.00687500 6.51444
0.00718750 6.46931
0.00750000 6.42711
0.00781250 6.38752
0.00812500 6.35030
0.00843750 6.31521
0.00875000 6.28206
0.00906250 6.25068
0.00937500 6.22092
0.00968750 6.19265
0.0100000 6.16573
0.0103125 6.14008
0.0106250 6.11560
0.0109375 6.09219
0.0112500 6.06978
0.0115625 6.04831
0.0118750 6.02771
0.0121875 6.00793
0.0125000 5.98890
0.0128125 5.97059
0.0131250 5.95295
0.0134375 5.93594
0.0137500 5.91952
0.0143750 5.88834
0.0150000 5.85917
0.0156250 5.83179
0.0162500 5.80603
0.0168750 5.78174
0.0175000 5.75879
0.0181250 5.73705
0.0187500 5.71642
0.0193750 5.69682
0.0200000 5.67816
0.0206625 5.65932
0.0213250 5.64138
0.0219875 5.62427
0.0226500 5.60793
0.0233125 5.59230
0.0239750 5.57733
0.0246375 5.56298
0.0253000 5.54921
0.0264578 5.52640
0.0276156 5.50507
0.0287734 5.48505
0.0299313 5.46623
0.0310891 5.44848
0.0322469 5.43171
0.0334047 5.41582
0.0345625 5.40075
0.0355274 5.38877
0.0364922 5.37726
0.0374570 5.36621
0.0384219 5.35558
0.0393867 5.34535
0.0403516 5.33549
0.0413164 5.32598
0.0422813 5.31680
0.0442109 5.29936
0.0461406 5.28304
0.0480703 5.26772
0.0500000 5.25330
0.0515625 5.24223
0.0531250 5.23165
0.0546875 5.22154
0.0562500 5.21185
0.0578125 5.20257
0.0593750 5.19365
0.0609375 5.18509
0.0625000 5.17685
0.0640625 5.16892
0.0656250 5.16127
0.0671875 5.15390
0.0687500 5.14678
0.0718750 5.13325
0.0750000 5.12058
0.0781250 5.10867
0.0812500 5.09747
0.0843750 5.08689
0.0875000 5.07689
0.0906250 5.06741
0.0937500 5.05841
0.0968750 5.04985
0.100000 5.04170
0.103125 5.03392
0.106250 5.02650
0.109375 5.01939
0.112500 5.01258
0.115625 5.00605
0.118750 4.99978
0.121875 4.99376
0.125000 4.98796
0.128125 4.98238
0.131250 4.97701
0.134375 4.97182
0.137500 4.96681
0.143750 4.95728
0.150000 4.94836
0.156250 4.93997
0.162500 4.93206
0.168750 4.92460
0.175000 4.91755
0.181250 4.91086
0.187500 4.90451
0.193750 4.89847
0.200000 4.89272
0.209375 4.88458
0.218750 4.87696
0.228125 4.86981
0.237500 4.86308
0.246875 4.85674
0.256250 4.85075
0.265625 4.84508
0.275000 4.83970
0.284375 4.83458
0.293750 4.82971
0.303125 4.82507
0.312500 4.82063
0.321875 4.81639
0.331250 4.81233
0.340625 4.80843
0.350000 4.80469
0.359375 4.80109
0.368750 4.79763
0.378125 4.79430
0.387500 4.79109
0.396875 4.78800
0.406250 4.78501
0.425000 4.77933
0.443750 4.77399
0.462500 4.76898
0.500000 4.75981
0.531250 4.75291
0.562500 4.74656
0.593750 4.74070
0.625000 4.73528
0.687500 4.72552
0.750000 4.71696
0.812500 4.70938
0.875000 4.70259
0.937500 4.69646
1.00000 4.69086
1.06250 4.68573
1.12500 4.68101
1.18750 4.67663
1.25000 4.67256
1.37500 4.66520
1.50000 4.65869
1.62500 4.65286
1.75000 4.64760
1.87500 4.64281
2.00000 4.63839
2.18750 4.63238
2.37500 4.62698
2.56250 4.62208
2.75000 4.61758
2.93750 4.61343
3.12500 4.60957
3.31250 4.60595
3.50000 4.60255
3.68750 4.59934
3.87500 4.59630
4.25000 4.59064
4.62500 4.58546
5.00000 4.58067
5.31250 4.57693
5.62500 4.57338
5.93750 4.56999
6.25000 4.56676
6.56250 4.56365
6.87500 4.56067
7.50000 4.55500
8.12500 4.54969
8.75000 4.54467
9.37500 4.53990
10.0000 4.53534
10.6250 4.53096
11.2500 4.52675
11.8750 4.52269
12.5000 4.51876
13.1250 4.51494
13.7500 4.51124
14.3750 4.50763
15.0000 4.50412
16.2500 4.49733
17.5000 4.49084
18.7500 4.48461
20.0000 4.47860
20.9375 4.47423
21.8750 4.46997
22.8125 4.46581
23.7500 4.46175
25.6250 4.45388
27.5000 4.44633
29.3750 4.43907
31.2500 4.43206
33.1250 4.42529
35.0000 4.41875
36.8750 4.41241
38.7500 4.40625
40.6250 4.40028
42.5000 4.39447
44.3750 4.38881
46.2500 4.38330
48.1250 4.37793
50.0000 4.37270
53.1250 4.36424
56.2500 4.35609
59.3750 4.34824
62.5000 4.34065
65.6250 4.33331
68.7500 4.32619
71.8750 4.31929
75.0000 4.31258
78.1250 4.30606
81.2500 4.29971
84.3750 4.29352
87.5000 4.28748
90.6250 4.28158
93.7500 4.27581
96.8750 4.27016
100.000 4.26463
103.125 4.25920
106.250 4.25387
109.375 4.24864
112.500 4.24349
118.750 4.23345
125.000 4.22369
131.250 4.21418
137.500 4.20489
143.750 4.19578
150.000 4.18684
156.250 4.17803
162.500 4.16933
168.750 4.16072
175.000 4.15218
181.250 4.14369
187.500 4.13522
193.750 4.12676
200.000 4.11829
208.017 4.10738
216.033 4.09639
224.050 4.08527
232.066 4.07400
242.588 4.05886
247.849 4.05117
253.110 4.04330
263.632 4.02721
274.154 4.01039
279.415 4.00173
284.675 3.99278
289.936 3.98364
295.197 3.97424
300.458 3.96448
305.719 3.95448
310.980 3.94412
316.241 3.93341
321.752 3.92166
327.264 3.90943
332.775 3.89663
338.286 3.88315
343.798 3.86901
349.309 3.85402
354.821 3.83811
360.332 3.82120
363.839 3.80979
367.347 3.79782
370.854 3.78526
374.361 3.77215
377.868 3.75823
381.376 3.74348
384.883 3.72782
388.390 3.71112
391.021 3.69781
393.651 3.68376
396.281 3.66890
398.912 3.65309
401.542 3.63624
404.173 3.61824
406.803 3.59887
408.118 3.58863
409.434 3.57801
410.812 3.56637
412.189 3.55420
413.567 3.54146
414.945 3.52809
416.323 3.51404
417.701 3.49924
419.079 3.48363
420.456 3.46711
421.772 3.45042
423.087 3.43274
424.402 3.41394
425.717 3.39391
426.375 3.38339
427.033 3.37251
427.690 3.36124
428.348 3.34957
429.006 3.33746
429.663 3.32490
430.321 3.31187
430.978 3.29834
431.667 3.28353
432.356 3.26806
433.045 3.25188
433.734 3.23496
434.423 3.21722
435.112 3.19860
435.801 3.17903
436.490 3.15844
437.179 3.13674
437.868 3.11382
438.557 3.08959
438.901 3.07695
439.245 3.06393
439.590 3.05052
439.934 3.03670
440.279 3.02246
440.623 3.00777
440.968 2.99261
441.312 2.97696
441.657 2.96079
442.001 2.94410
442.408 2.92364
442.815 2.90237
443.222 2.88023
443.630 2.85717
444.037 2.83312
444.444 2.80804
444.851 2.78189
445.258 2.75463
445.602 2.73064
445.947 2.70580
446.291 2.68007
446.636 2.65345
446.980 2.62592
447.325 2.59751
447.497 2.58297
447.669 2.56822
447.841 2.55328
448.014 2.53814
448.295 2.51298
448.577 2.48742
448.859 2.46155
449.000 2.44855
449.141 2.43554
449.282 2.42252
449.423 2.40956
449.564 2.39667
449.705 2.38390
449.846 2.37130
449.986 2.35892
450.127 2.34683
450.268 2.33511
450.441 2.32142
450.613 2.30860
450.785 2.29690
450.957 2.28659
451.130 2.27802
451.302 2.27162
451.474 2.26790
451.646 2.26749
451.818 2.27117
451.905 2.27484
451.991 2.27992
452.077 2.28657
452.163 2.29496
452.249 2.30530
452.335 2.31781
452.421 2.33278
452.507 2.35045
452.593 2.37117
452.680 2.39531
452.766 2.42331
452.852 2.45566
452.938 2.49290
453.024 2.53570
453.126 2.59451
453.228 2.66359
453.329 2.74469
453.431 2.83984
453.533 2.95180
453.635 3.08363
453.686 3.15819
453.736 3.23925
453.787 3.32747
453.838 3.42338
453.897 3.54529
453.956 3.68003
454.014 3.82952
454.073 3.99573
454.132 4.18103
454.190 4.38823
454.249 4.62075
454.279 4.74800
454.308 4.88276
454.343 5.05662
454.378 5.24375
454.414 5.44615
454.449 5.66556
454.484 5.90469
454.519 6.16454
454.554 6.44846
454.590 6.75963
454.621 7.06220
454.652 7.39223
454.670 7.59232
454.688 7.80176
454.705 8.02242
454.723 8.25508
454.740 8.50207
454.758 8.76152
454.776 9.03582
454.793 9.32607
454.817 9.74056
454.840 10.1887
454.864 10.6740
454.887 11.2001
454.899 11.4810
454.911 11.7714
454.923 12.0766
454.934 12.3923
454.946 12.7244
454.958 13.0681
454.969 13.4267
454.981 13.8010
454.992 14.1611
455.003 14.5358
455.014 14.9260
455.024 15.3283
455.035 15.7510
455.046 16.1871
455.057 16.6454
455.067 17.1182
455.078 17.6153
455.089 18.1332
455.100 18.6727
455.110 19.2295
455.121 19.8150
455.132 20.4193
455.143 21.0548
455.153 21.7106
455.164 22.4003
455.175 23.1189
455.186 23.8676
455.196 24.6404
455.207 25.4528
455.218 26.2991
455.229 27.1806
455.240 28.0901
455.250 29.0460
455.261 30.0413
455.272 31.0777
455.283 32.1463
455.293 33.2689
455.304 34.4260
455.315 35.6411
455.326 36.8932
455.336 38.2075
455.347 39.5742
455.369 42.4581
455.390 45.5713
455.412 48.9286
455.433 52.5453
455.455 56.4369
455.476 60.6191
455.498 65.1081
455.519 69.9428
455.541 75.0945
455.562 80.6270
455.584 86.5046
455.606 92.7969
455.627 99.4601
455.649 106.536
455.670 114.036
455.692 122.011
455.713 130.396
455.735 139.236
455.756 148.537
455.778 158.350
455.799 168.586
455.821 179.291
455.842 190.462
455.864 202.148
455.885 214.234
455.907 226.760
455.928 239.713
455.971 266.890
456.014 295.454
456.056 323.891
456.097 353.177
456.179 413.053
456.265 474.956
456.308 504.473
456.351 532.347
456.394 558.025
456.437 581.101
456.480 601.181
456.523 617.781
456.571 631.692
456.618 640.714
456.657 644.368
456.665 644.672
456.691 644.666
456.716 643.149
456.742 640.133
456.767 635.647
456.793 629.623
456.819 622.169
456.845 613.345
456.871 603.263
456.898 591.463
456.925 578.491
456.979 549.271
457.033 516.495
457.087 481.107
457.160 430.360
457.234 378.823
457.288 341.709
457.342 305.930
457.369 288.683
457.396 272.024
457.422 255.935
457.449 240.454
457.476 225.557
457.503 211.377
457.530 197.825
457.557 185.009
457.584 172.838
457.611 161.398
457.638 150.596
457.665 140.500
457.688 132.280
457.712 124.533
457.735 117.246
457.758 110.430
457.781 104.012
457.805 98.0285
457.828 92.4099
457.851 87.1864
457.874 82.2943
457.898 77.7381
457.921 73.4992
457.944 69.5754
457.967 65.9150
457.991 62.5319
458.014 59.3800
458.037 56.4699
458.064 53.3494
458.091 50.5030
458.118 47.8876
458.145 45.5018
458.172 43.3088
458.199 41.3067
458.226 39.4640
458.253 37.7792
458.280 36.2255
458.307 34.8016
458.334 33.4851
458.361 32.2750
458.388 31.1526
458.414 30.1174
458.441 29.1538
458.468 28.2616
458.500 27.2827
458.532 26.3832
458.564 25.5493
458.596 24.7788
458.628 24.0604
458.659 23.3929
458.691 22.7691
458.723 22.1847
458.755 21.6343
458.787 21.1178
458.819 20.6292
458.850 20.1688
458.882 19.7315
458.914 19.3181
458.978 18.5513
459.032 17.9571
459.086 17.4073
459.139 16.8971
459.193 16.4220
459.247 15.9786
459.301 15.5636
459.355 15.1745
459.409 14.8087
459.463 14.4644
459.517 14.1396
459.571 13.8327
459.625 13.5424
459.678 13.2673
459.732 13.0063
459.786 12.7583
459.840 12.5229
459.948 12.0841
460.056 11.6846
460.163 11.3194
460.271 10.9846
460.379 10.6762
460.487 10.3917
460.594 10.1281
460.702 9.88361
460.790 9.69611
460.879 9.51908
460.967 9.35166
461.055 9.19330
461.143 9.04296
461.231 8.90022
461.319 8.76452
461.408 8.63551
461.496 8.51245
461.584 8.39507
461.760 8.17601
461.937 7.97546
462.113 7.79142
462.221 7.68614
462.329 7.58591
462.436 7.49038
462.544 7.39931
462.652 7.31225
462.760 7.22902
462.975 7.07318
463.191 6.92993
463.406 6.79795
463.622 6.67587
463.837 6.56274
464.092 6.43919
464.347 6.32552
464.602 6.22058
464.856 6.12344
465.111 6.03322
465.366 5.94927
465.620 5.87091
465.875 5.79759
466.091 5.73910
466.306 5.68366
466.522 5.63100
466.737 5.58095
466.953 5.53330
467.168 5.48790
467.384 5.44458
467.600 5.40322
467.815 5.36366
468.031 5.32582
468.246 5.28956
468.462 5.25480
468.893 5.18939
469.324 5.12896
469.755 5.07292
470.186 5.02082
470.617 4.97226
471.048 4.92687
471.479 4.88434
471.910 4.84440
472.342 4.80683
472.773 4.77141
473.145 4.74240
473.517 4.71478
473.890 4.68844
474.262 4.66324
474.634 4.63910
475.006 4.61596
475.379 4.59377
475.751 4.57247
476.123 4.55199
476.496 4.53230
477.240 4.49508
477.985 4.46045
478.729 4.42815
479.592 4.39332
480.454 4.36094
481.316 4.33074
482.178 4.30249
483.040 4.27599
483.903 4.25107
484.765 4.22759
485.627 4.20545
486.254 4.19013
486.881 4.17545
487.508 4.16139
488.135 4.14795
488.723 4.13592
489.311 4.12447
489.899 4.11366
490.486 4.10357
490.780 4.09883
491.074 4.09434
491.368 4.09014
491.662 4.08628
491.956 4.08281
492.250 4.07982
492.544 4.07742
492.838 4.07579
493.151 4.07515
493.357 4.07555
493.563 4.07681
493.769 4.07917
493.974 4.08299
494.077 4.08561
494.180 4.08880
494.283 4.09269
494.386 4.09741
494.489 4.10318
494.592 4.11025
494.694 4.11902
494.797 4.13006
494.851 4.13705
494.905 4.14509
494.959 4.15441
495.013 4.16532
495.067 4.17820
495.121 4.19353
495.175 4.21196
495.228 4.23422
495.282 4.26140
495.336 4.29470
495.363 4.31415
495.390 4.33565
495.417 4.35951
495.444 4.38601
495.471 4.41553
495.498 4.44817
495.525 4.48452
495.552 4.52468
495.579 4.56934
495.606 4.61858
495.632 4.67300
495.659 4.73307
495.686 4.79954
495.713 4.87242
495.740 4.95279
495.767 5.04059
495.794 5.13703
495.821 5.24195
495.848 5.35669
495.875 5.48096
495.902 5.61621
495.929 5.76194
495.956 5.91974
495.983 6.08887
496.010 6.27098
496.037 6.46505
496.064 6.67200
496.090 6.89199
496.125 7.19157
496.159 7.51244
496.193 7.85425
496.228 8.21630
496.262 8.59755
496.296 8.99658
496.331 9.41157
496.365 9.83906
496.414 10.4702
496.463 11.1151
496.561 12.4041
496.615 13.0845
496.668 13.7218
496.720 14.2769
496.771 14.7627
496.798 14.9861
496.825 15.1846
496.852 15.3582
496.879 15.5043
496.907 15.6265
496.935 15.7171
496.968 15.7823
497.000 15.8033
497.011 15.8004
497.046 15.7568
497.081 15.6618
497.113 15.5357
497.144 15.3715
497.167 15.2285
497.198 15.0021
497.229 14.7438
497.266 14.3992
497.303 14.0175
497.334 13.6694
497.366 13.3019
497.428 12.5218
497.588 10.4264
497.650 9.62385
497.682 9.23699
497.713 8.86229
497.744 8.50132
497.775 8.15538
497.807 7.82551
497.838 7.51344
497.865 7.25637
497.892 7.01340
497.919 6.78280
497.946 6.56626
497.973 6.36205
498.000 6.17146
498.027 5.99342
498.054 5.82758
498.081 5.67298
498.108 5.53029
498.135 5.39842
498.162 5.27686
498.189 5.16467
498.216 5.06211
498.243 4.96819
498.270 4.88236
498.293 4.81578
498.316 4.75424
498.339 4.69743
498.362 4.64527
498.384 4.59700
498.407 4.55276
498.430 4.51187
498.453 4.47445
498.475 4.43992
498.498 4.40821
498.521 4.37910
498.544 4.35249
498.589 4.30552
498.635 4.26591
498.680 4.23237
498.726 4.20400
498.771 4.17986
498.817 4.15921
498.862 4.14144
498.908 4.12605
498.953 4.11260
498.999 4.10078
499.061 4.08667
499.124 4.07453
499.187 4.06396
499.249 4.05464
499.312 4.04633
499.374 4.03884
499.499 4.02584
499.625 4.01483
499.750 4.00533
499.875 3.99700
500.000 3.98960
500.164 3.98101
500.329 3.97343
500.493 3.96666
500.658 3.96053
500.822 3.95493
500.986 3.94976
501.315 3.94045
501.644 3.93219
501.972 3.92470
502.301 3.91780
502.630 3.91136
503.123 3.90235
503.616 3.89391
504.109 3.88590
504.602 3.87824
505.095 3.87085
505.588 3.86369
506.081 3.85671
506.574 3.84989
507.560 3.83660
508.546 3.82370
509.532 3.81112
510.518 3.79878
511.570 3.78585
512.622 3.77312
513.674 3.76055
514.726 3.74811
516.830 3.72356
518.933 3.69930
521.037 3.67521
523.141 3.65120
525.244 3.62716
527.348 3.60303
530.240 3.56953
533.133 3.53551
536.026 3.50078
538.918 3.46514
541.811 3.42844
544.703 3.39046
547.596 3.35101
550.488 3.30992
553.381 3.26687
556.273 3.22171
559.166 3.17414
560.612 3.14934
562.058 3.12378
563.505 3.09753
564.951 3.07045
566.397 3.04245
567.844 3.01360
569.290 2.98380
570.736 2.95287
572.182 2.92092
573.629 2.88785
575.469 2.84389
577.310 2.79774
579.151 2.74925
580.992 2.69849
582.832 2.64473
584.673 2.58796
586.514 2.52792
587.434 2.49658
588.354 2.46431
589.801 2.41162
591.247 2.35635
592.693 2.29832
594.139 2.23734
595.586 2.17317
596.309 2.13982
597.032 2.10560
597.755 2.07046
598.478 2.03438
599.201 1.99733
599.925 1.95927
601.042 1.89839
602.160 1.83490
603.277 1.76869
604.395 1.69965
605.512 1.62769
606.071 1.59062
606.630 1.55282
607.189 1.51421
607.748 1.47481
608.306 1.43465
608.865 1.39373
609.588 1.33966
610.311 1.28440
611.035 1.22801
611.758 1.17059
612.481 1.11228
613.204 1.05329
613.927 0.993861
614.650 0.934359
615.275 0.883247
615.899 0.832804
616.524 0.783503
617.148 0.735955
617.773 0.690919
618.398 0.649349
618.710 0.630216
619.022 0.612440
619.334 0.596235
619.647 0.581860
619.926 0.570759
620.205 0.561544
620.485 0.554450
620.764 0.549744
620.904 0.548380
621.044 0.547731
621.183 0.547842
621.323 0.548760
621.463 0.550537
621.602 0.553226
621.742 0.556886
621.882 0.561577
622.079 0.570084
622.178 0.575215
622.276 0.580967
622.375 0.587366
622.473 0.594443
622.572 0.602226
622.671 0.610748
622.753 0.618441
622.835 0.626689
622.860 0.629280
622.921 0.635971
622.983 0.642998
623.086 0.655502
623.188 0.669000
623.291 0.683552
623.394 0.699209
623.472 0.711886
623.550 0.725255
623.706 0.754151
623.862 0.786125
624.018 0.821404
624.174 0.860237
624.331 0.902892
624.409 0.925757
624.487 0.949660
624.565 0.974702
624.643 1.00086
624.782 1.05072
624.922 1.10467
625.062 1.16301
625.132 1.19394
625.202 1.22604
625.271 1.25945
625.341 1.29411
625.411 1.33017
625.481 1.36759
625.551 1.40651
625.621 1.44687
625.691 1.48886
625.760 1.53240
625.851 1.59129
625.941 1.65314
626.032 1.71807
626.122 1.78625
626.212 1.85784
626.303 1.93301
626.393 2.01193
626.483 2.09470
626.557 2.16561
626.631 2.23942
626.705 2.31624
626.779 2.39610
626.853 2.47935
626.927 2.56590
627.001 2.65613
627.075 2.74997
627.149 2.84781
627.223 2.94973
627.297 3.05589
627.371 3.16633
627.445 3.28157
627.519 3.40150
627.593 3.52667
627.667 3.65698
627.757 3.82397
627.848 3.99976
627.938 4.18489
628.028 4.37990
628.119 4.58540
628.209 4.80203
628.300 5.03049
628.390 5.27123
628.480 5.52560
628.571 5.79419
628.661 6.07793
628.752 6.37781
628.842 6.69492
628.932 7.03043
629.023 7.38559
629.113 7.76136
629.245 8.34920
629.376 8.98982
629.442 9.33196
629.508 9.68898
629.573 10.0623
629.639 10.4527
629.705 10.8618
629.770 11.2895
629.836 11.7381
629.902 12.2075
629.968 12.7003
630.033 13.2165
630.099 13.7582
630.165 14.3269
630.255 15.1569
630.346 16.0461
630.436 17.0000
630.526 18.0244
630.617 19.1259
630.707 20.3121
630.798 21.5911
630.888 22.9723
630.978 24.4662
631.069 26.0847
631.159 27.8413
631.250 29.7514
631.340 31.8326
631.430 34.1050
631.521 36.5918
631.611 39.3167
631.702 42.3171
631.747 43.9306
631.792 45.6265
631.837 47.4102
631.882 49.2878
631.928 51.2659
631.973 53.3517
632.018 55.5531
632.063 57.8787
632.108 60.3378
632.154 62.9408
632.199 65.6991
632.244 68.6251
632.289 71.7326
632.334 75.0370
632.380 78.5549
632.425 82.3050
632.470 86.3081
632.515 90.5870
632.560 95.1672
632.606 100.077
632.651 105.348
632.696 111.002
632.741 117.103
632.786 123.681
632.831 130.786
632.877 138.469
632.922 146.790
632.967 155.814
633.012 165.611
633.057 176.236
633.111 190.057
633.138 197.495
633.164 205.319
633.191 213.551
633.218 222.215
633.244 231.334
633.271 240.932
633.298 251.074
633.325 261.712
633.351 272.908
633.378 284.691
633.405 297.091
633.431 310.135
633.458 323.855
633.485 338.280
633.530 364.394
633.575 392.766
633.620 423.542
633.666 456.863
633.711 492.865
633.756 531.669
633.801 573.380
633.846 617.982
633.891 665.731
633.937 716.562
633.982 770.469
634.027 827.405
634.072 887.279
634.117 949.950
634.163 1015.23
634.208 1082.86
634.298 1223.90
634.389 1369.95
634.479 1517.00
634.569 1660.17
634.656 1789.88
634.700 1850.05
634.743 1906.37
634.787 1958.38
634.831 2005.30
634.874 2046.76
634.918 2082.31
634.960 2110.93
635.002 2133.28
635.045 2149.15
635.087 2158.37
635.115 2160.81
635.161 2158.39
635.207 2148.16
635.253 2130.29
635.299 2105.02
635.345 2072.74
635.391 2033.86
635.437 1988.92
635.483 1938.47
635.547 1859.88
635.611 1773.55
635.675 1681.37
635.739 1585.19
635.862 1397.13
635.923 1303.59
635.984 1212.13
636.040 1131.24
636.095 1053.50
636.151 979.227
636.207 908.786
636.262 842.416
636.318 780.258
636.373 722.361
636.429 668.696
636.460 640.935
636.490 614.406
636.521 589.081
636.551 564.931
636.582 541.922
636.613 520.018
636.643 499.182
636.674 479.437
636.704 460.614
636.735 442.739
636.765 425.771
636.796 409.669
636.827 394.392
636.857 379.900
636.888 366.155
636.918 353.159
636.949 340.790
636.980 329.055
637.010 317.922
637.041 307.355
637.071 297.323
637.102 287.796
637.163 270.169
637.224 254.201
637.285 239.731
637.347 226.588
637.408 214.639
637.469 203.712
637.530 193.711
637.591 184.533
637.652 176.102
637.714 168.312
637.775 161.108
637.836 154.432
637.897 148.239
637.958 142.464
638.020 137.076
638.081 132.040
638.142 127.332
638.203 122.907
638.264 118.756
638.325 114.842
638.386 111.159
638.448 107.677
638.509 104.386
638.570 101.271
638.631 98.3197
638.692 95.5196
638.754 92.8603
638.876 87.9296
638.998 83.4510
639.121 79.3747
639.243 75.6459
639.365 72.2296
639.449 70.0567
639.532 68.0043
639.616 66.0609
639.699 64.2185
639.783 62.4678
639.866 60.8064
640.033 57.7218
640.200 54.9185
640.366 52.3646
640.533 50.0285
640.700 47.8848
640.822 46.4215
640.945 45.0437
641.067 43.7425
641.189 42.5141
641.312 41.3509
641.434 40.2500
641.557 39.2051
641.679 38.2139
641.801 37.2711
641.924 36.3748
642.168 34.7067
642.413 33.1880
642.658 31.8011
642.902 30.5287
643.147 29.3594
643.392 28.2812
643.636 27.2844
643.881 26.3606
644.126 25.5026
644.371 24.7039
644.615 23.9589
644.849 23.2931
645.082 22.6676
645.316 22.0789
645.550 21.5241
645.783 21.0001
646.017 20.5049
646.250 20.0360
646.484 19.5918
646.717 19.1703
646.951 18.7698
647.185 18.3891
647.418 18.0267
647.652 17.6813
647.885 17.3520
648.352 16.7369
648.597 16.4360
648.842 16.1485
649.331 15.6104
649.820 15.1167
650.310 14.6624
650.799 14.2429
651.289 13.8546
651.778 13.4942
652.267 13.1590
652.601 12.9435
652.935 12.7378
653.268 12.5413
653.602 12.3535
654.269 12.0017
654.937 11.6789
655.604 11.3809
656.271 11.1050
656.939 10.8491
657.606 10.6112
658.096 10.4471
658.585 10.2912
659.074 10.1427
659.564 10.0013
660.053 9.86635
660.543 9.73753
661.032 9.61441
661.521 9.49665
662.011 9.38386
662.500 9.27577
663.479 9.07258
664.458 8.88505
665.436 8.71148
666.415 8.55037
667.394 8.40045
668.373 8.26061
669.352 8.12988
670.330 8.00740
671.309 7.89243
672.288 7.78430
673.267 7.68249
674.201 7.59100
675.135 7.50412
676.070 7.42148
677.004 7.34291
677.938 7.26821
678.872 7.19706
679.807 7.12918
680.741 7.06444
681.675 7.00255
682.610 6.94334
683.544 6.88668
684.478 6.83238
685.412 6.78027
686.347 6.73028
688.215 6.63605
690.173 6.54483
692.130 6.46042
694.088 6.38208
696.045 6.30921
698.003 6.24121
699.960 6.17764
701.918 6.11807
703.876 6.06213
706.723 5.98659
709.570 5.91720
712.418 5.85332
715.265 5.79424
718.112 5.73934
720.960 5.68827
723.807 5.64064
726.654 5.59611
730.570 5.53949
734.485 5.48739
738.400 5.43938
742.315 5.39509
746.230 5.35389
750.145 5.31564
754.060 5.27997
757.975 5.24656
761.890 5.21533
765.805 5.18594
769.721 5.15828
773.636 5.13224
777.551 5.10759
781.466 5.08430
789.296 5.04125
797.126 5.00249
804.957 4.96707
812.787 4.93472
820.617 4.90517
828.447 4.87781
836.277 4.85261
844.108 4.82923
851.938 4.80739
859.768 4.78711
867.598 4.76807
883.259 4.73343
898.919 4.70261
914.580 4.67499
925.257 4.65773
935.935 4.64170
957.290 4.61224
978.645 4.58601
1000.00 4.56247
1017.58 4.54480
1035.16 4.52847
1070.31 4.49895
1105.47 4.47290
1140.63 4.44959
1167.97 4.43306
1195.31 4.41762
1250.00 4.38940
1312.50 4.36056
1375.00 4.33429
1437.50 4.30983
1500.00 4.28661
1593.75 4.25318
1671.88 4.22586
1750.00 4.19844
1812.50 4.17609
1875.00 4.15309
1937.50 4.12920
2000.00 4.10412
2055.65 4.08052
2111.31 4.05547
2166.96 4.02869
2222.61 3.99979
2258.02 3.98005
2293.44 3.95918
2328.85 3.93692
2364.27 3.91314
2388.30 3.89599
2412.33 3.87796
2436.36 3.85894
2460.40 3.83885
2474.31 3.82669
2488.22 3.81413
2502.13 3.80116
2516.05 3.78780
2524.27 3.77973
2532.49 3.77156
2540.71 3.76330
2548.93 3.75502
2557.15 3.74675
2565.38 3.73864
2569.49 3.73470
2573.60 3.73087
2577.71 3.72719
2581.82 3.72373
2586.88 3.71988
2590.04 3.71780
2593.20 3.71605
2596.36 3.71474
2599.53 3.71399
2602.69 3.71398
2605.85 3.71495
2609.01 3.71724
2610.59 3.71900
2612.17 3.72134
2613.83 3.72450
2615.49 3.72854
2617.15 3.73365
2618.81 3.74009
2620.47 3.74820
2622.13 3.75842
2623.79 3.77136
2624.62 3.77907
2625.45 3.78781
2626.32 3.79825
2627.19 3.81024
2628.06 3.82406
2628.93 3.84002
2629.80 3.85860
2630.67 3.88031
2631.54 3.90590
2632.41 3.93622
2632.96 3.95856
2633.52 3.98364
2634.07 4.01204
2634.62 4.04422
2635.18 4.08106
2635.73 4.12331
2636.28 4.17216
2636.84 4.22906
2637.23 4.27574
2637.63 4.32820
2638.02 4.38757
2638.42 4.45512
2638.81 4.53267
2639.21 4.62185
2639.41 4.67179
2639.60 4.72545
2639.80 4.78382
2640.00 4.84683
2640.22 4.92301
2640.43 5.00648
2640.65 5.09912
2640.87 5.20139
2641.09 5.31586
2641.30 5.44342
2641.52 5.58700
2641.74 5.74965
2641.96 5.93627
2642.07 6.03991
2642.17 6.15043
2642.28 6.27086
2642.39 6.40138
2642.50 6.54338
2642.61 6.69706
2642.72 6.86729
2642.83 7.05520
2642.94 7.26386
2643.04 7.49477
2643.15 7.75682
2643.26 8.05082
2643.37 8.38922
2643.48 8.77435
2643.53 8.99280
2643.59 9.22391
2643.64 9.47798
2643.70 9.74760
2643.75 10.0449
2643.80 10.3612
2643.86 10.7043
2643.91 11.0767
2643.97 11.4891
2644.02 11.9298
2644.08 12.4187
2644.13 12.9416
2644.19 13.5223
2644.24 14.1438
2644.29 14.8211
2644.35 15.5591
2644.40 16.3786
2644.46 17.2555
2644.51 18.2287
2644.57 19.2692
2644.62 20.4223
2644.67 21.6534
2644.73 22.9898
2644.78 24.4390
2644.84 26.0393
2644.89 27.7404
2644.95 29.6141
2645.00 31.6007
2645.06 33.7825
2645.11 36.0887
2645.16 38.5659
2645.22 41.2224
2645.26 43.4176
2645.30 45.7298
2645.34 48.1623
2645.39 50.7185
2645.43 53.4016
2645.47 56.2144
2645.51 59.1596
2645.55 62.2394
2645.60 65.4558
2645.64 68.8105
2645.68 72.3046
2645.72 75.9389
2645.81 83.6289
2645.89 91.8766
2645.94 97.5734
2646.00 103.389
2646.11 115.647
2646.22 128.795
2646.32 142.480
2646.43 156.807
2646.54 171.473
2646.76 200.827
2646.88 216.453
2647.00 231.186
2647.10 243.823
2647.21 255.154
2647.32 265.140
2647.43 273.375
2647.49 277.454
2647.56 280.785
2647.65 284.386
2647.75 286.383
2647.82 286.836
2647.90 286.133
2647.99 284.072
2648.07 280.915
2648.15 276.622
2648.23 271.105
2648.32 264.616
2648.40 257.084
2648.48 248.789
2648.61 234.393
2648.74 218.734
2648.90 197.050
2649.07 174.700
2649.23 152.528
2649.31 141.675
2649.40 131.252
2649.47 121.554
2649.55 112.240
2649.63 103.351
2649.71 95.0189
2649.79 87.0530
2649.87 79.6680
2649.95 72.6810
2650.02 66.2689
2650.07 63.0146
2650.11 59.9700
2650.15 57.0543
2650.19 54.2654
2650.23 51.5375
2650.27 48.9978
2650.31 46.5772
2650.35 44.2725
2650.40 42.0286
2650.44 39.9488
2650.48 37.9749
2650.52 36.1035
2650.56 34.2889
2650.60 32.6137
2650.64 31.0298
2650.68 29.5337
2650.74 27.4947
2650.80 25.6241
2650.86 23.9107
2650.92 22.3436
2650.98 20.9122
2651.04 19.6062
2651.10 18.4159
2651.16 17.3320
2651.22 16.3455
2651.28 15.4484
2651.34 14.6327
2651.40 13.8913
2651.46 13.2174
2651.52 12.6047
2651.58 12.0475
2651.64 11.5484
2651.69 11.2202
2651.73 10.9198
2651.81 10.3727
2651.89 9.88380
2651.97 9.45625
2652.06 9.07196
2652.14 8.73368
2652.22 8.43095
2652.30 8.15897
2652.39 7.91079
2652.47 7.68885
2652.55 7.48465
2652.63 7.30053
2652.72 7.12976
2652.80 6.97457
2652.88 6.83122
2652.96 6.69837
2653.13 6.45832
2653.29 6.24863
2653.46 6.06365
2653.62 5.89911
2653.79 5.75173
2653.95 5.61894
2654.12 5.49869
2654.28 5.38994
2654.45 5.29002
2654.61 5.19847
2654.78 5.11433
2654.94 5.03678
2655.11 4.96511
2655.27 4.89872
2655.60 4.78008
2655.93 4.67667
2656.26 4.58618
2656.59 4.50649
2656.92 4.43611
2657.37 4.35208
2657.82 4.27990
2658.27 4.21712
2658.72 4.16238
2659.17 4.11411
2659.62 4.07148
2660.07 4.03346
2660.51 3.99953
2661.17 3.95577
2661.83 3.91811
2662.49 3.88534
2663.15 3.85671
2663.81 3.83144
2664.47 3.80909
2665.13 3.78914
2665.79 3.77132
2666.57 3.75251
2667.35 3.73583
2668.13 3.72094
2668.91 3.70762
2669.69 3.69569
2670.47 3.68508
2671.25 3.67573
2672.02 3.66771
2672.86 3.66089
2673.28 3.65851
2673.70 3.65729
2674.12 3.65833
2674.33 3.66048
2674.54 3.66457
2674.75 3.67180
2674.96 3.68394
2675.07 3.69267
2675.17 3.70374
2675.28 3.71768
2675.38 3.73494
2675.51 3.76196
2675.64 3.79650
2675.76 3.84087
2675.89 3.89634
2676.02 3.96597
2676.15 4.05098
2676.21 4.10058
2676.27 4.15421
2676.34 4.21385
2676.40 4.27793
2676.46 4.34873
2676.53 4.42552
2676.59 4.50851
2676.66 4.59643
2676.72 4.69222
2676.78 4.79463
2676.85 4.90370
2676.91 5.01755
2676.97 5.13972
2677.04 5.26832
2677.10 5.40312
2677.17 5.54159
2677.23 5.68775
2677.29 5.83660
2677.42 6.14947
2677.79 7.12248
2677.89 7.36241
2677.98 7.59161
2678.08 7.81148
2678.17 8.01384
2678.24 8.15803
2678.31 8.28796
2678.38 8.40440
2678.45 8.50616
2678.53 8.60081
2678.61 8.67472
2678.69 8.72843
2678.77 8.75708
2678.83 8.76391
2678.84 8.76373
2678.92 8.75141
2678.98 8.72666
2679.03 8.69189
2679.09 8.64609
2679.17 8.55501
2679.26 8.44010
2679.35 8.30316
2679.43 8.14627
2679.52 7.97177
2679.60 7.78446
2679.73 7.47780
2679.86 7.15227
2680.12 6.48298
2680.29 6.04532
2680.38 5.83559
2680.46 5.63631
2680.55 5.44403
2680.63 5.26214
2680.72 5.09135
2680.80 4.93214
2680.87 4.81965
2680.93 4.71553
2681.00 4.61796
2681.06 4.52685
2681.13 4.44080
2681.19 4.36229
2681.25 4.28973
2681.32 4.22290
2681.40 4.14165
2681.49 4.06959
2681.58 4.00604
2681.66 3.95026
2681.75 3.90154
2681.83 3.85918
2681.92 3.82251
2682.01 3.79122
2682.13 3.75185
2682.26 3.72067
2682.39 3.69609
2682.52 3.67688
2682.65 3.66164
2682.78 3.64969
2682.91 3.64011
2683.03 3.63249
2683.29 3.62109
2683.55 3.61310
2683.81 3.60705
2684.06 3.60219
2684.58 3.59447
2685.09 3.58829
2686.12 3.57840
2687.15 3.57045
2688.70 3.56045
2690.24 3.55180
2691.78 3.54400
2693.33 3.53679
2696.42 3.52337
2699.51 3.51084
2702.59 3.49883
2705.68 3.48709
2708.77 3.47547
2711.86 3.46385
2716.66 3.44553
2721.47 3.42666
2726.27 3.40697
2731.08 3.38620
2736.22 3.36243
2741.37 3.33675
2743.94 3.32310
2746.52 3.30881
2749.09 3.29388
2751.67 3.27836
2754.07 3.26349
2755.27 3.25605
2756.47 3.24876
2757.67 3.24184
2758.27 3.23865
2758.87 3.23576
2759.47 3.23333
2760.07 3.23159
2760.67 3.23096
2761.27 3.23227
2761.66 3.23508
2761.85 3.23753
2762.05 3.24111
2762.24 3.24637
2762.43 3.25419
2762.62 3.26591
2762.82 3.28353
2762.91 3.29550
2763.01 3.31002
2763.11 3.32794
2763.20 3.34957
2763.30 3.37613
2763.40 3.40795
2763.49 3.44673
2763.59 3.49279
2763.69 3.54836
2763.78 3.61369
2763.88 3.69163
2763.98 3.78217
2764.07 3.88888
2764.17 4.01125
2764.27 4.15356
2764.36 4.31450
2764.44 4.46700
2764.52 4.63348
2764.60 4.81881
2764.68 5.01897
2764.76 5.23936
2764.84 5.47470
2764.93 5.73084
2765.01 6.00115
2765.09 6.29177
2765.17 6.59462
2765.25 6.91605
2765.33 7.24654
2765.41 7.59245
2765.49 7.94300
2765.65 8.66028
2765.79 9.29006
2765.93 9.89878
2766.07 10.4721
2766.14 10.7413
2766.21 10.9907
2766.32 11.3742
2766.38 11.5429
2766.44 11.6947
2766.52 11.8614
2766.59 11.9972
2766.69 12.1242
2766.75 12.1737
2766.82 12.2051
2766.85 12.2085
2766.86 12.2084
2766.87 12.2080
2766.87 12.2072
2766.89 12.2044
2766.92 12.1935
2766.98 12.1572
2767.04 12.1007
2767.10 12.0254
2767.15 11.9311
2767.24 11.7588
2767.32 11.5517
2767.39 11.3416
2767.47 11.1075
2767.54 10.8520
2767.61 10.5777
2767.70 10.2421
2767.78 9.89354
2767.95 9.15794
2768.11 8.40336
2768.28 7.66375
2768.36 7.30148
2768.45 6.95496
2768.53 6.61807
2768.61 6.30062
2768.67 6.10660
2768.72 5.92315
2768.77 5.74677
2768.82 5.57761
2768.87 5.41578
2768.93 5.26135
2768.98 5.11432
2769.03 4.97468
2769.08 4.83989
2769.14 4.71493
2769.19 4.59706
2769.24 4.48612
2769.29 4.38192
2769.34 4.28427
2769.40 4.19294
2769.45 4.10770
2769.51 4.01221
2769.57 3.92617
2769.64 3.84632
2769.70 3.77474
2769.76 3.70866
2769.82 3.64971
2769.89 3.59555
2769.95 3.54746
2770.05 3.47974
2770.15 3.42327
2770.25 3.37586
2770.34 3.33620
2770.44 3.30309
2770.54 3.27550
2770.64 3.25252
2770.74 3.23336
2770.84 3.21734
2770.94 3.20392
2771.14 3.18299
2771.33 3.16767
2771.53 3.15601
2771.73 3.14669
2771.93 3.13899
2772.33 3.12641
2772.72 3.11597
2773.12 3.10673
2773.91 3.09027
2774.70 3.07532
2775.49 3.06110
2776.29 3.04717
2777.12 3.03253
2777.95 3.01774
2779.62 2.98712
2781.46 2.95097
2783.29 2.91129
2785.13 2.86713
2786.96 2.81738
2788.80 2.76062
2789.72 2.72905
2790.63 2.69503
2791.55 2.65816
2792.47 2.61815
2793.39 2.57444
2794.30 2.52661
2795.30 2.46887
2796.30 2.40434
2796.81 2.36909
2797.31 2.33172
2797.81 2.29196
2798.31 2.24958
2798.76 2.20817
2799.22 2.16414
2799.68 2.11729
2800.14 2.06748
2800.60 2.01427
2801.06 1.95754
2801.52 1.89712
2801.98 1.83304
2802.33 1.78081
2802.68 1.72667
2803.04 1.67069
2803.39 1.61392
2803.57 1.58543
2803.75 1.55748
2803.93 1.53031
2804.10 1.50449
2804.28 1.48073
2804.46 1.46052
2804.63 1.44553
2804.81 1.43848
2804.92 1.43980
2805.03 1.44694
2805.14 1.46171
2805.25 1.48593
2805.36 1.52276
2805.47 1.57486
2805.58 1.64743
2805.69 1.74433
2805.80 1.87379
2805.85 1.95287
2805.91 2.04125
2805.96 2.14345
2806.02 2.25929
2806.07 2.39028
2806.13 2.53520
2806.18 2.70115
2806.24 2.88751
2806.29 3.09635
2806.34 3.32539
2806.40 3.58545
2806.45 3.87507
2806.51 4.19693
2806.56 4.54707
2806.61 4.88159
2806.66 5.24589
2806.70 5.64201
2806.75 6.07210
2806.80 6.53837
2806.85 7.04309
2806.89 7.58861
2806.94 8.16432
2806.99 8.79765
2807.03 9.47903
2807.08 10.2110
2807.13 10.9959
2807.17 11.8365
2807.22 12.7350
2807.27 13.6941
2807.31 14.6936
2807.36 15.7318
2807.40 16.8066
2807.45 17.9686
2807.49 19.1680
2807.53 20.2844
2807.57 21.4521
2807.61 22.6719
2807.65 23.9445
2807.69 25.5494
2807.74 27.2329
2807.79 28.9957
2807.84 30.8382
2807.88 32.7603
2807.93 34.7617
2807.98 36.8417
2808.02 38.9992
2808.08 41.7661
2808.14 44.5942
2808.20 47.5259
2808.25 50.5554
2808.37 56.9377
2808.48 63.5650
2808.64 73.0297
2808.80 82.6487
2808.91 89.5599
2809.02 96.2690
2809.13 102.158
2809.23 107.612
2809.35 113.090
2809.46 117.869
2809.58 121.810
2809.64 123.642
2809.70 125.160
2809.79 126.699
2809.87 127.716
2809.87 127.780
2809.89 127.950
2809.94 128.198
2809.98 128.287
2810.07 128.014
2810.13 127.453
2810.20 126.593
2810.26 125.462
2810.32 124.084
2810.42 121.441
2810.51 118.237
2810.63 113.348
2810.76 107.803
2810.88 101.661
2811.00 95.1211
2811.24 82.1299
2811.35 75.6122
2811.47 69.2236
2811.59 62.7450
2811.65 59.5987
2811.72 56.5931
2811.78 53.6373
2811.84 50.8327
2811.90 48.1356
2811.96 45.5499
2812.04 42.4097
2812.12 39.4590
2812.19 36.6984
2812.23 35.3891
2812.27 34.1265
2812.31 32.9103
2812.35 31.7399
2812.39 30.6146
2812.43 29.5336
2812.47 28.4961
2812.51 27.5012
2812.55 26.5479
2812.58 25.6353
2812.65 24.2653
2812.71 23.0107
2812.77 21.8256
2812.83 20.7437
2812.89 19.7249
2812.95 18.7974
2813.01 17.9394
2813.08 17.1467
2813.14 16.4034
2813.20 15.7290
2813.26 15.0974
2813.32 14.5249
2813.38 13.9890
2813.44 13.5033
2813.51 13.0556
2813.57 12.6427
2813.63 12.2557
2813.69 11.9044
2813.75 11.5747
2813.81 11.2748
2813.87 10.9926
2813.94 10.7353
2814.00 10.4963
2814.06 10.2740
2814.18 9.87045
2814.30 9.51797
2814.43 9.20772
2814.55 8.93463
2814.66 8.70936
2814.77 8.50471
2814.88 8.31772
2815.00 8.14740
2815.22 7.84277
2815.44 7.57860
2815.66 7.34637
2815.89 7.13997
2816.11 6.95491
2816.33 6.78780
2816.58 6.62109
2816.82 6.47079
2817.07 6.33343
2817.32 6.20834
2817.56 6.09300
2817.81 5.98713
2818.30 5.79833
2818.65 5.67704
2819.01 5.56725
2819.37 5.46735
2819.72 5.37604
2820.08 5.29225
2820.44 5.21506
2821.15 5.07755
2821.64 4.99403
2822.13 4.91807
2822.63 4.84869
2823.12 4.78504
2824.10 4.67227
2825.08 4.57540
2826.33 4.47009
2827.58 4.38069
2828.83 4.30362
2830.08 4.23643
2831.06 4.18928
2832.04 4.14637
2834.01 4.07110
2835.97 4.00712
2837.93 3.95204
2839.36 3.91658
2841.33 3.87325
2842.31 3.85375
2843.29 3.83567
2844.27 3.81900
2845.25 3.80387
2846.23 3.79051
2847.22 3.77938
2847.71 3.77489
2848.20 3.77132
2848.69 3.76893
2849.18 3.76810
2849.67 3.76945
2850.16 3.77412
2850.41 3.77840
2850.65 3.78467
2850.90 3.79397
2851.14 3.80813
2851.30 3.82113
2851.46 3.83851
2851.61 3.86208
2851.77 3.89423
2851.92 3.93851
2852.00 3.96626
2852.08 3.99866
2852.16 4.03645
2852.24 4.08045
2852.31 4.13160
2852.39 4.19092
2852.47 4.26049
2852.55 4.33981
2852.63 4.43104
2852.71 4.53565
2852.78 4.65519
2852.86 4.79130
2852.94 4.94571
2853.02 5.12020
2853.10 5.31660
2853.17 5.53673
2853.25 5.78242
2853.33 6.05543
2853.41 6.35743
2853.49 6.68995
2853.56 7.05434
2853.60 7.24885
2853.64 7.45173
2853.70 7.77476
2853.76 8.11739
2853.82 8.47973
2853.88 8.85512
2853.94 9.25634
2853.99 9.66947
2854.05 10.1083
2854.11 10.5573
2854.17 11.0310
2854.23 11.5210
2854.35 12.5354
2854.46 13.5966
2854.58 14.6896
2854.82 17.0012
2854.95 18.1255
2855.07 19.1822
2855.20 20.2440
2855.27 20.7260
2855.34 21.1698
2855.42 21.6668
2855.51 22.0913
2855.57 22.3547
2855.63 22.5702
2855.69 22.7528
2855.76 22.8751
2855.83 22.9583
2855.88 22.9727
2855.95 22.9378
2856.02 22.8544
2856.07 22.7325
2856.15 22.5164
2856.21 22.2972
2856.27 22.0378
2856.35 21.6253
2856.42 21.1538
2856.49 20.6943
2856.56 20.1947
2856.70 19.1011
2856.82 18.0828
2856.93 17.0208
2857.17 14.8195
2857.29 13.6196
2857.42 12.4658
2857.55 11.3676
2857.61 10.8400
2857.67 10.3397
2857.74 9.85188
2857.80 9.38569
2857.87 8.94185
2857.93 8.52723
2857.99 8.12894
2858.06 7.75949
2858.12 7.40703
2858.18 7.08227
2858.22 6.88733
2858.26 6.70095
2858.34 6.35745
2858.42 6.04166
2858.50 5.75989
2858.58 5.50325
2858.66 5.27631
2858.74 5.07140
2858.82 4.89173
2858.90 4.73079
2858.98 4.59076
2859.06 4.46624
2859.14 4.35864
2859.22 4.26356
2859.30 4.18188
2859.38 4.11009
2859.46 4.04868
2859.54 3.99492
2859.61 3.94908
2859.69 3.90903
2859.77 3.87492
2859.85 3.84511
2859.93 3.81969
2860.09 3.77838
2860.25 3.74716
2860.41 3.72320
2860.57 3.70445
2860.73 3.68941
2860.92 3.67482
2861.11 3.66288
2861.49 3.64402
2861.87 3.62924
2862.25 3.61699
2862.64 3.60640
2863.02 3.59708
2863.78 3.58102
2864.54 3.56735
2865.31 3.55530
2866.07 3.54440
2866.83 3.53433
2867.68 3.52388
2868.53 3.51400
2870.22 3.49553
2871.92 3.47830
2873.62 3.46196
2875.31 3.44620
2877.01 3.43091
2880.40 3.40140
2883.79 3.37287
2887.18 3.34497
2890.58 3.31744
2893.97 3.29004
2897.70 3.25986
2901.43 3.22948
2905.16 3.19870
2908.89 3.16736
2912.62 3.13533
2916.35 3.10249
2920.09 3.06881
2921.95 3.05167
2923.82 3.03440
2925.26 3.02100
2926.70 3.00761
2928.14 2.99434
2929.58 2.98139
2931.03 2.96901
2932.47 2.95777
2933.19 2.95287
2933.91 2.94874
2934.63 2.94571
2935.35 2.94433
2935.94 2.94504
2936.54 2.94835
2936.83 2.95147
2937.13 2.95603
2937.43 2.96267
2937.72 2.97254
2937.89 2.98048
2938.06 2.99089
2938.23 3.00479
2938.40 3.02351
2938.57 3.04937
2938.74 3.08500
2938.83 3.10786
2938.91 3.13486
2939.00 3.16672
2939.08 3.20381
2939.17 3.24796
2939.25 3.29987
2939.34 3.36074
2939.42 3.43195
2939.51 3.51501
2939.59 3.61157
2939.68 3.72344
2939.76 3.85091
2939.84 3.99906
2939.93 4.16863
2940.01 4.36187
2940.10 4.57831
2940.18 4.82540
2940.23 4.96187
2940.27 5.10297
2940.31 5.25570
2940.35 5.41320
2940.40 5.57917
2940.44 5.75385
2940.51 6.06025
2940.58 6.39154
2940.64 6.74841
2940.71 7.13137
2940.78 7.54076
2940.85 7.97665
2940.92 8.43888
2940.99 8.91978
2941.06 9.43275
2941.13 9.96986
2941.20 10.5298
2941.26 11.1107
2941.40 12.3272
2941.54 13.5894
2941.79 15.9926
2941.92 17.1645
2942.05 18.2828
2942.19 19.4033
2942.26 19.9156
2942.32 20.3901
2942.42 20.9740
2942.51 21.4688
2942.57 21.7273
2942.63 21.9431
2942.71 22.1756
2942.77 22.2937
2942.83 22.3754
2942.91 22.4115
2942.98 22.3754
2943.04 22.2885
2943.11 22.1557
2943.18 21.9258
2943.25 21.6900
2943.31 21.4157
2943.40 20.9097
2943.50 20.3221
2943.57 19.7756
2943.65 19.1821
2943.73 18.5480
2943.81 17.8885
2943.94 16.6808
2944.07 15.4352
2944.34 12.9188
2944.49 11.6058
2944.56 10.9713
2944.63 10.3667
2944.70 9.77753
2944.78 9.22180
2944.85 8.69272
2944.92 8.19138
2944.99 7.71212
2945.06 7.26842
2945.14 6.84800
2945.21 6.46215
2945.28 6.09963
2945.35 5.76965
2945.43 5.46614
2945.50 5.18806
2945.54 5.02665
2945.59 4.87440
2945.63 4.73099
2945.68 4.59901
2945.72 4.47213
2945.77 4.35566
2945.86 4.14172
2945.94 3.95456
2946.03 3.79158
2946.12 3.65028
2946.21 3.52827
2946.30 3.42333
2946.39 3.33335
2946.48 3.25644
2946.57 3.19086
2946.66 3.13504
2946.75 3.08759
2946.83 3.04728
2946.92 3.01303
2947.01 2.98360
2947.10 2.95882
2947.28 2.91949
2947.46 2.89028
2947.64 2.86807
2947.81 2.85068
2947.99 2.83664
2948.35 2.81488
2948.64 2.80098
2948.93 2.78920
2949.51 2.76950
2950.09 2.75309
2950.66 2.73879
2951.24 2.72597
2951.82 2.71422
2952.40 2.70334
2952.98 2.69319
2953.78 2.68016
2954.58 2.66833
2955.39 2.65784
2956.19 2.64901
2956.99 2.64242
2957.39 2.64026
2957.79 2.63910
2958.19 2.63918
2958.59 2.64087
2958.99 2.64465
2959.39 2.65120
2959.84 2.66316
2960.06 2.67173
2960.28 2.68270
2960.51 2.69703
2960.73 2.71602
2960.95 2.74213
2961.17 2.77886
2961.31 2.80861
2961.44 2.84629
2961.58 2.89438
2961.71 2.95560
2961.84 3.03498
2961.91 3.08292
2961.98 3.13650
2962.04 3.19819
2962.11 3.26817
2962.18 3.34751
2962.24 3.43593
2962.31 3.53736
2962.38 3.65191
2962.44 3.78106
2962.51 3.92643
2962.58 4.08972
2962.64 4.27276
2962.71 4.47748
2962.78 4.70233
2962.84 4.95622
2962.91 5.23811
2962.98 5.55027
2963.04 5.88960
2963.11 6.26867
2963.18 6.68490
2963.25 7.14055
2963.31 7.63010
2963.37 8.12857
2963.43 8.65702
2963.50 9.22454
2963.56 9.83233
2963.62 10.4924
2963.68 11.1842
2963.74 11.9187
2963.80 12.6961
2963.86 13.5303
2963.92 14.3939
2963.99 15.2995
2964.05 16.2458
2964.11 17.2315
2964.17 18.2547
2964.29 20.4039
2964.41 22.6889
2964.54 25.0612
2964.78 29.8901
2964.95 33.1056
2965.03 34.6511
2965.12 36.1086
2965.24 38.0904
2965.36 39.8362
2965.42 40.6179
2965.48 41.3104
2965.54 41.9221
2965.60 42.4486
2965.70 43.0905
2965.76 43.3838
2965.83 43.5912
2965.91 43.6962
2966.00 43.5907
2966.07 43.3869
2966.13 43.1004
2966.22 42.4861
2966.28 41.9756
2966.34 41.3928
2966.41 40.5910
2966.48 39.6998
2966.60 37.9785
2966.72 36.0524
2966.80 34.5193
2966.89 32.9114
2967.06 29.5676
2967.32 24.4448
2967.45 21.9569
2967.58 19.5775
2967.64 18.5257
2967.70 17.5239
2967.76 16.5402
2967.82 15.6094
2967.88 14.7013
2967.94 13.8475
2968.00 13.0196
2968.06 12.2458
2968.12 11.5000
2968.18 10.8069
2968.24 10.1426
2968.30 9.52871
2968.36 8.94349
2968.42 8.40550
2968.48 7.89532
2968.54 7.42870
2968.59 7.00961
2968.65 6.62038
2968.71 6.25965
2968.76 5.92605
2968.82 5.61815
2968.88 5.33453
2968.94 5.07378
2968.99 4.83851
2969.05 4.61897
2969.11 4.41819
2969.16 4.23485
2969.22 4.06771
2969.28 3.91554
2969.33 3.77719
2969.39 3.65155
2969.45 3.53949
2969.50 3.43602
2969.56 3.34233
2969.62 3.25755
2969.67 3.18088
2969.79 3.04888
2969.90 2.94187
2970.02 2.85344
2970.13 2.78144
2970.24 2.72149
2970.36 2.67212
2970.48 2.62674
2970.60 2.58923
2970.73 2.55730
2970.85 2.53017
2971.10 2.48559
2971.35 2.45003
2971.60 2.42029
2971.85 2.39452
2972.10 2.37160
2972.35 2.35089
2972.84 2.31396
2973.34 2.28144
2973.84 2.25193
2974.34 2.22459
2975.12 2.18456
2975.90 2.14678
2976.68 2.11025
2977.45 2.07432
2978.23 2.03849
2979.01 2.00252
2979.79 1.96611
2980.57 1.92904
2981.52 1.88254
2982.48 1.83457
2983.43 1.78482
2984.38 1.73308
2985.33 1.67905
2986.29 1.62265
2987.24 1.56360
2988.19 1.50169
2989.14 1.43666
2990.09 1.36846
2991.05 1.29679
2992.00 1.22168
2992.95 1.14295
2993.90 1.06087
2994.38 1.01855
2994.86 0.975602
2995.33 0.932041
2995.81 0.887997
2996.42 0.831508
2997.02 0.775029
2997.63 0.719273
2998.23 0.665258
2998.84 0.614422
2999.14 0.590801
2999.45 0.568798
2999.75 0.548803
3000.05 0.531285
3000.35 0.516807
3000.66 0.506053
3000.90 0.500736
3001.13 0.498733
3001.37 0.500581
3001.61 0.506939
3001.85 0.518591
3002.09 0.536461
3002.32 0.561652
3002.44 0.577395
3002.56 0.595481
3002.69 0.618162
3002.82 0.644185
3002.95 0.673881
3003.08 0.707618
3003.21 0.745808
3003.34 0.788562
3003.50 0.850296
3003.67 0.921265
3003.83 1.00316
3003.99 1.09753
3004.15 1.20696
3004.32 1.33228
3004.40 1.40194
3004.48 1.47675
3004.56 1.55712
3004.64 1.64350
3004.77 1.79597
3004.90 1.96758
3004.96 2.06141
3005.03 2.16111
3005.09 2.26710
3005.16 2.37986
3005.22 2.49989
3005.29 2.62776
3005.35 2.76407
3005.42 2.90951
3005.48 3.06482
3005.55 3.23079
3005.61 3.40834
3005.68 3.59843
3005.74 3.78596
3005.80 3.98603
3005.86 4.19965
3005.92 4.42399
3005.98 4.66786
3006.04 4.92439
3006.10 5.20370
3006.16 5.49798
3006.22 5.81889
3006.28 6.15752
3006.34 6.52733
3006.39 6.91811
3006.45 7.34544
3006.51 7.79757
3006.57 8.29255
3006.63 8.81679
3006.69 9.39125
3006.75 10.0002
3006.81 10.6678
3006.87 11.3759
3006.93 12.1526
3006.99 12.9765
3007.05 13.8804
3007.11 14.8390
3007.17 15.8904
3007.23 17.0050
3007.29 18.2268
3007.35 19.5212
3007.41 20.9387
3007.47 22.4387
3007.52 24.0510
3007.58 25.7828
3007.64 27.6738
3007.70 29.7039
3007.76 31.8810
3007.82 34.1732
3007.88 36.6661
3007.94 39.2845
3008.00 42.1254
3008.06 45.1016
3008.12 48.3217
3008.18 51.6856
3008.24 55.3142
3008.30 59.0930
3008.36 63.1558
3008.42 67.3725
3008.48 71.8904
3008.54 76.5624
3008.60 81.5493
3008.66 86.6864
3008.72 92.1480
3008.77 97.7511
3008.83 103.683
3008.89 109.742
3009.01 122.620
3009.13 136.322
3009.25 150.754
3009.37 165.793
3009.49 181.289
3009.73 212.907
3009.85 228.600
3009.96 243.899
3010.07 257.110
3010.18 269.501
3010.28 281.020
3010.39 291.498
3010.50 300.938
3010.61 308.983
3010.71 315.504
3010.82 320.398
3010.93 323.570
3010.96 324.254
3011.08 325.127
3011.20 323.946
3011.32 320.755
3011.43 315.639
3011.52 310.723
3011.60 304.969
3011.69 298.392
3011.77 291.067
3011.94 275.017
3012.10 257.079
3012.34 228.932
3012.58 200.145
3012.75 180.676
3012.83 171.172
3012.91 162.031
3013.00 153.068
3013.08 144.530
3013.16 136.232
3013.24 128.393
3013.33 120.836
3013.41 113.751
3013.49 106.969
3013.57 100.652
3013.66 94.6440
3013.74 89.0808
3013.82 83.8783
3013.90 79.0244
3013.97 75.2538
3014.04 71.7555
3014.10 68.4160
3014.17 65.3245
3014.24 62.3792
3014.31 59.6572
3014.37 57.1045
3014.44 54.7117
3014.51 52.4374
3014.58 50.3394
3014.64 48.3461
3014.71 46.5076
3014.78 44.7607
3014.85 43.1489
3014.91 41.6384
3014.98 40.2221
3015.06 38.5885
3015.14 37.0952
3015.23 35.6952
3015.31 34.4124
3015.39 33.2065
3015.47 32.0983
3015.56 31.0656
3015.64 30.1015
3015.72 29.1894
3015.80 28.3457
3015.89 27.5448
3015.97 26.8015
3016.05 26.0934
3016.13 25.4340
3016.30 24.2221
3016.39 23.6110
3016.48 23.0341
3016.66 21.9718
3016.84 21.0159
3017.02 20.1510
3017.20 19.3642
3017.38 18.6454
3017.56 17.9860
3017.74 17.3820
3017.90 16.8658
3018.07 16.3846
3018.23 15.9347
3018.40 15.5159
3018.56 15.1202
3018.73 14.7481
3019.05 14.0687
3019.38 13.4597
3019.71 12.9142
3020.04 12.4199
3020.37 11.9726
3020.70 11.5637
3021.03 11.1906
3021.36 10.8470
3021.69 10.5313
3022.02 10.2387
3022.35 9.96831
3022.68 9.71628
3023.01 9.48221
3023.55 9.13088
3024.09 8.81562
3024.63 8.53064
3025.17 8.27179
3025.71 8.03519
3026.24 7.81889
3026.78 7.62005
3027.32 7.43665
3027.98 7.23090
3028.64 7.04300
3029.30 6.87072
3029.96 6.71215
3030.62 6.56572
3031.28 6.43006
3031.94 6.30401
3032.59 6.18655
3033.43 6.04810
3034.27 5.92064
3035.11 5.80292
3035.95 5.69382
3037.63 5.49775
3039.31 5.32612
3040.62 5.20535
3041.94 5.09512
3043.26 4.99398
3044.58 4.90073
3045.90 4.81438
3047.21 4.73408
3049.85 4.58885
3052.01 4.48274
3054.16 4.38602
3056.32 4.29723
3058.48 4.21523
3059.62 4.17441
3060.75 4.13523
3061.89 4.09761
3063.03 4.06170
3064.17 4.02764
3065.31 3.99600
3065.88 3.98140
3066.45 3.96802
3067.02 3.95646
3067.30 3.95176
3067.59 3.94826
3067.78 3.94690
3067.98 3.94682
3068.17 3.94863
3068.36 3.95322
3068.56 3.96203
3068.75 3.97708
3068.85 3.98789
3068.95 4.00131
3069.05 4.01800
3069.14 4.03857
3069.24 4.06402
3069.34 4.09467
3069.44 4.13210
3069.53 4.17657
3069.63 4.23017
3069.73 4.29307
3069.83 4.36708
3069.92 4.45362
3070.02 4.55529
3070.12 4.67151
3070.21 4.80475
3070.31 4.95647
3070.41 5.12993
3070.51 5.32284
3070.60 5.53789
3070.70 5.77589
3070.77 5.95669
3070.84 6.14614
3070.90 6.34987
3070.97 6.56173
3071.04 6.78778
3071.11 7.02099
3071.17 7.26781
3071.24 7.52032
3071.38 8.05397
3071.51 8.61402
3071.78 9.76685
3071.91 10.3093
3072.03 10.8270
3072.16 11.3116
3072.29 11.7505
3072.42 12.1318
3072.48 12.2985
3072.54 12.4444
3072.62 12.6002
3072.70 12.7241
3072.78 12.8172
3072.86 12.8695
3072.93 12.8908
3072.95 12.8913
3072.95 12.8912
3072.96 12.8906
3072.97 12.8896
3072.98 12.8867
3073.02 12.8761
3073.07 12.8439
3073.16 12.7641
3073.27 12.5917
3073.37 12.3889
3073.47 12.1393
3073.56 11.8726
3073.65 11.5740
3073.74 11.2478
3073.83 10.8984
3073.95 10.4269
3074.07 9.93505
3074.30 8.93195
3074.41 8.43352
3074.53 7.95277
3074.64 7.48751
3074.76 7.05073
3074.83 6.79493
3074.90 6.55392
3074.97 6.32449
3075.04 6.10701
3075.11 5.89883
3075.18 5.70590
3075.25 5.52517
3075.32 5.35651
3075.39 5.19752
3075.46 5.05237
3075.53 4.91835
3075.60 4.79503
3075.67 4.68192
3075.74 4.57851
3075.81 4.48426
3075.88 4.39861
3075.95 4.31994
3076.02 4.24990
3076.09 4.18676
3076.16 4.12998
3076.23 4.07835
3076.30 4.03281
3076.44 3.95578
3076.58 3.89421
3076.72 3.84586
3076.86 3.80763
3077.00 3.77732
3077.12 3.75629
3077.24 3.73885
3077.36 3.72425
3077.48 3.71188
3077.72 3.69202
3077.96 3.67657
3078.20 3.66370
3078.44 3.65254
3078.92 3.63304
3079.40 3.61572
3079.88 3.59966
3080.84 3.56982
3081.80 3.54181
3082.75 3.51488
3083.71 3.48861
3084.67 3.46278
3085.99 3.42756
3087.31 3.39261
3089.95 3.32275
3091.34 3.28582
3092.73 3.24857
3094.12 3.21093
3095.51 3.17288
3096.89 3.13436
3098.28 3.09554
3099.67 3.05684
3100.36 3.03789
3101.06 3.01976
3101.54 3.00834
3101.78 3.00336
3102.01 2.99931
3102.25 2.99676
3102.49 2.99673
3102.61 2.99813
3102.73 3.00084
3102.85 3.00522
3102.97 3.01161
3103.09 3.02067
3103.21 3.03295
3103.33 3.04920
3103.45 3.07009
3103.57 3.09692
3103.69 3.13064
3103.81 3.17248
3103.93 3.22326
3104.05 3.28520
3104.17 3.35933
3104.29 3.44704
3104.41 3.54872
3104.53 3.66725
3104.65 3.80278
3104.77 3.95594
3104.89 4.12547
3104.99 4.27975
3105.09 4.44562
3105.19 4.62240
3105.28 4.80907
3105.38 5.00434
3105.48 5.20658
3105.68 5.62399
3105.84 5.95690
3105.99 6.27979
3106.15 6.58100
3106.23 6.72062
3106.31 6.84871
3106.38 6.96148
3106.46 7.06163
3106.53 7.14975
3106.61 7.22494
3106.68 7.29007
3106.76 7.33830
3106.85 7.37361
3106.93 7.38547
3106.96 7.38558
3106.96 7.38533
3106.98 7.38405
3107.00 7.38196
3107.03 7.37558
3107.12 7.34363
3107.23 7.27612
3107.33 7.17846
3107.44 7.05262
3107.51 6.96059
3107.57 6.85921
3107.71 6.63335
3107.84 6.38038
3107.97 6.10735
3108.14 5.74282
3108.31 5.37179
3108.48 5.00712
3108.57 4.82962
3108.65 4.65963
3108.73 4.49407
3108.82 4.33763
3108.90 4.18721
3108.99 4.04683
3109.07 3.91345
3109.16 3.79039
3109.24 3.67476
3109.33 3.56922
3109.41 3.47549
3109.49 3.39046
3109.57 3.31263
3109.65 3.24168
3109.73 3.17724
3109.81 3.11894
3109.89 3.06635
3109.97 3.01907
3110.05 2.97618
3110.13 2.93831
3110.29 2.87441
3110.45 2.82378
3110.61 2.78375
3110.77 2.75183
3110.93 2.72648
3111.09 2.70592
3111.25 2.68891
3111.41 2.67450
3111.57 2.66198
3111.89 2.64057
3112.21 2.62188
3112.53 2.60462
3113.17 2.57176
3113.81 2.53962
3114.45 2.50750
3115.23 2.46770
3116.02 2.42698
3117.58 2.34188
3119.15 2.25063
3120.72 2.15193
3121.50 2.09929
3122.28 2.04434
3123.07 1.98682
3123.85 1.92653
3124.63 1.86325
3125.41 1.79676
3126.20 1.72685
3126.98 1.65330
3127.76 1.57590
3128.55 1.49449
3129.33 1.40896
3130.11 1.31934
3130.90 1.22587
3131.29 1.17779
3131.68 1.12913
3132.07 1.07982
3132.46 1.03032
3132.85 0.980700
3133.24 0.931630
3133.67 0.879064
3134.10 0.828786
3134.53 0.782037
3134.95 0.740709
3135.38 0.707454
3135.59 0.694947
3135.81 0.686031
3136.02 0.681360
3136.23 0.681862
3136.45 0.688633
3136.66 0.702941
3136.80 0.716533
3136.93 0.734097
3137.06 0.756457
3137.20 0.783924
3137.33 0.817671
3137.46 0.858080
3137.60 0.906811
3137.73 0.964379
3137.89 1.04847
3138.01 1.12051
3138.12 1.20300
3138.20 1.26437
3138.27 1.33186
3138.35 1.40609
3138.42 1.48664
3138.50 1.57646
3138.58 1.67405
3138.65 1.78302
3138.73 1.90162
3138.79 2.01786
3138.86 2.14485
3138.93 2.28368
3138.99 2.43320
3139.06 2.59928
3139.13 2.78126
3139.19 2.98081
3139.26 3.19635
3139.33 3.43643
3139.39 3.70019
3139.46 3.99012
3139.53 4.30396
3139.59 4.65420
3139.66 5.03958
3139.73 5.46373
3139.79 5.92326
3139.84 6.29363
3139.89 6.69086
3139.94 7.11687
3139.99 7.57367
3140.04 8.06338
3140.09 8.58825
3140.14 9.15063
3140.19 9.75301
3140.24 10.3980
3140.28 11.0883
3140.33 11.8267
3140.38 12.6163
3140.43 13.4600
3140.48 14.3611
3140.53 15.3228
3140.58 16.3270
3140.62 17.2131
3140.66 18.1461
3140.70 19.1278
3140.74 20.1605
3140.78 21.2459
3140.82 22.3863
3140.86 23.5836
3140.90 24.8398
3140.94 26.1572
3140.98 27.5376
3141.02 28.9833
3141.06 30.4961
3141.10 32.0780
3141.14 33.7311
3141.18 35.4573
3141.22 37.2583
3141.27 39.6176
3141.32 42.0491
3141.37 44.6017
3141.41 47.2781
3141.46 50.0806
3141.51 53.0114
3141.56 56.0721
3141.61 59.2642
3141.66 62.5886
3141.71 66.0458
3141.76 69.6358
3141.81 73.3583
3141.90 81.1959
3142.00 89.4560
3142.10 98.2843
3142.20 107.563
3142.30 117.246
3142.39 127.173
3142.59 147.986
3142.78 169.128
3142.98 190.009
3143.08 200.030
3143.18 209.618
3143.31 221.728
3143.44 232.546
3143.53 238.866
3143.62 244.439
3143.71 249.208
3143.79 253.081
3143.88 256.137
3143.97 258.228
3144.00 258.725
3144.10 259.578
3144.19 259.275
3144.29 257.830
3144.39 255.306
3144.52 250.051
3144.65 242.932
3144.78 234.654
3144.91 225.100
3145.02 215.451
3145.14 205.200
3145.37 183.269
3145.62 158.455
3145.75 146.260
3145.88 134.430
3146.01 123.010
3146.13 112.284
3146.20 107.132
3146.26 102.237
3146.32 97.4468
3146.39 92.9164
3146.45 88.5042
3146.51 84.3490
3146.58 80.3189
3146.64 76.5385
3146.71 72.8856
3146.77 69.4712
3146.83 66.1831
3146.90 63.1195
3146.96 60.1780
3147.02 57.4448
3147.09 54.8273
3147.15 52.4009
3147.21 50.0822
3147.28 47.9370
3147.34 45.8904
3147.40 43.9998
3147.47 42.1984
3147.53 40.5105
3147.60 38.9295
3147.66 37.4714
3147.72 36.0837
3147.79 34.8040
3147.85 33.5860
3147.91 32.4624
3147.98 31.3925
3148.04 30.3896
3148.10 29.4490
3148.17 28.5798
3148.23 27.7501
3148.29 26.9823
3148.36 26.2482
3148.42 25.5675
3148.51 24.6905
3148.60 23.8799
3148.68 23.1292
3148.77 22.4401
3148.86 21.7915
3148.94 21.1936
3149.03 20.6284
3149.11 20.1051
3149.20 19.6084
3149.29 19.1467
3149.46 18.2959
3149.63 17.5352
3149.81 16.8503
3149.93 16.3856
3150.06 15.9557
3150.19 15.5536
3150.32 15.1766
3150.57 14.4886
3150.82 13.8762
3151.08 13.3271
3151.33 12.8319
3151.59 12.3829
3151.84 11.9738
3152.09 11.5981
3152.35 11.2545
3152.60 10.9378
3152.86 10.6450
3153.11 10.3724
3153.37 10.1200
3153.62 9.88470
3153.87 9.66480
3154.36 9.28182
3154.84 8.94214
3155.33 8.63817
3155.81 8.36456
3156.30 8.11696
3156.78 7.89182
3157.27 7.68622
3157.75 7.49771
3158.26 7.31601
3158.77 7.14916
3159.28 6.99483
3159.79 6.85217
3160.81 6.59592
3161.82 6.37266
3162.61 6.21853
3163.39 6.07833
3164.18 5.94986
3164.96 5.83188
3165.75 5.72281
3166.53 5.62188
3168.10 5.44061
3169.12 5.33566
3170.14 5.23902
3172.17 5.06677
3174.20 4.91726
3176.24 4.78577
3177.81 4.69425
3179.38 4.61018
3180.95 4.53250
3182.52 4.46019
3185.66 4.32919
3188.81 4.21291
3192.87 4.07909
3196.94 3.95954
3201.00 3.85061
3205.07 3.74967
3209.88 3.63805
3214.68 3.53211
3219.49 3.43000
3224.29 3.33015
3228.36 3.24638
3232.43 3.16252
3236.49 3.07786
3240.56 2.99173
3244.62 2.90345
3248.69 2.81238
3252.76 2.71777
3256.82 2.61887
3261.63 2.49529
3266.43 2.36315
3271.24 2.22023
3273.64 2.14415
3276.04 2.06464
3278.08 1.99436
3280.11 1.92119
3282.14 1.84488
3284.18 1.76520
3286.21 1.68190
3288.24 1.59474
3290.28 1.50348
3292.31 1.40788
3294.90 1.27963
3296.19 1.21270
3297.49 1.14389
3298.78 1.07317
3300.07 1.00061
3301.37 0.926347
3302.66 0.850627
3303.95 0.773630
3305.25 0.695865
3306.54 0.617967
3307.84 0.540836
3309.13 0.465575
3309.78 0.429216
3310.42 0.394077
3311.07 0.360495
3311.72 0.328866
3312.36 0.299667
3313.01 0.273519
3313.40 0.259374
3313.80 0.246783
3314.19 0.235950
3314.58 0.227126
3314.97 0.220524
3315.37 0.216459
3315.76 0.215259
3315.96 0.215846
3316.15 0.217287
3316.34 0.219479
3316.52 0.222529
3316.71 0.226487
3316.89 0.231407
3317.05 0.236550
3317.22 0.242515
3317.38 0.249346
3317.54 0.257035
3317.76 0.269082
3317.98 0.282955
3318.20 0.298919
3318.42 0.316975
3318.64 0.337447
3318.86 0.360322
3319.08 0.385872
3319.29 0.414298
3319.55 0.451310
3319.80 0.492718
3320.06 0.539066
3320.31 0.590804
3320.57 0.648426
3320.82 0.712479
3321.07 0.783570
3321.33 0.862370
3321.58 0.949985
3321.84 1.04656
3322.09 1.15335
3322.22 1.21089
3322.34 1.27138
3322.47 1.33497
3322.60 1.40181
3322.73 1.47208
3322.85 1.54594
3322.98 1.62359
3323.11 1.70522
3323.23 1.79105
3323.36 1.88129
3323.49 1.97697
3323.62 2.07682
3323.74 2.18187
3323.87 2.29238
3324.00 2.40868
3324.12 2.53108
3324.25 2.65995
3324.38 2.79564
3324.51 2.93973
3324.63 3.09039
3324.76 3.24917
3324.89 3.41658
3325.01 3.59313
3325.14 3.77940
3325.27 3.97600
3325.39 4.18359
3325.52 4.40465
3325.65 4.63650
3325.78 4.88164
3325.90 5.14098
3326.03 5.41547
3326.16 5.70618
3326.28 6.01422
3326.41 6.34086
3326.54 6.68742
3326.67 7.05538
3326.79 7.44634
3326.92 7.86205
3327.05 8.30442
3327.17 8.77556
3327.30 9.27777
3327.43 9.81359
3327.52 10.2289
3327.61 10.6601
3327.71 11.1179
3327.80 11.5937
3327.89 12.0994
3327.98 12.6257
3328.08 13.1857
3328.17 13.7692
3328.26 14.3910
3328.35 15.0398
3328.45 15.7320
3328.54 16.4553
3328.63 17.2282
3328.72 18.0370
3328.81 18.8930
3328.91 19.7997
3329.03 21.1416
3329.16 22.5982
3329.29 24.1819
3329.41 25.9064
3329.54 27.7873
3329.67 29.8420
3329.80 32.0899
3329.92 34.5528
3330.05 37.2549
3330.18 40.2231
3330.30 43.4872
3330.43 47.0801
3330.49 49.0265
3330.56 51.0376
3330.62 53.1824
3330.68 55.3989
3330.75 57.7629
3330.81 60.2061
3330.88 62.8118
3330.94 65.5044
3331.00 68.3755
3331.07 71.3898
3331.13 74.5537
3331.19 77.8207
3331.26 81.3012
3331.32 84.8928
3331.38 88.7162
3331.45 92.6583
3331.51 96.8511
3331.58 101.240
3331.70 110.554
3331.83 120.713
3331.96 131.759
3332.08 143.728
3332.21 156.647
3332.34 170.533
3332.46 185.388
3332.59 201.198
3332.72 217.932
3332.85 235.538
3332.97 253.796
3333.10 272.442
3333.22 291.492
3333.34 311.124
3333.47 330.872
3333.59 350.885
3333.71 370.653
3333.96 409.129
3334.09 429.000
3334.23 447.740
3334.36 465.066
3334.49 480.705
3334.63 494.406
3334.76 505.942
3334.90 515.119
3335.03 521.785
3335.14 525.348
3335.26 527.086
3335.38 526.698
3335.50 524.201
3335.62 519.691
3335.69 515.690
3335.77 510.953
3335.86 504.294
3335.92 499.084
3336.00 491.894
3336.03 489.376
3336.12 479.895
3336.19 471.894
3336.26 463.670
3336.39 447.233
3336.51 432.266
3336.62 416.633
3336.72 402.100
3336.82 387.279
3337.02 357.220
3337.36 307.155
3337.53 283.350
3337.70 260.714
3337.82 245.800
3337.94 231.713
3338.06 218.355
3338.17 205.744
3338.23 199.669
3338.29 193.784
3338.35 188.089
3338.41 182.673
3338.47 177.349
3338.52 172.292
3338.58 167.327
3338.64 162.617
3338.71 157.155
3338.78 152.002
3338.85 147.072
3338.92 142.356
3338.99 137.784
3339.06 133.479
3339.13 129.365
3339.20 125.436
3339.27 121.630
3339.33 118.047
3339.40 114.625
3339.47 111.357
3339.54 108.234
3339.61 105.251
3339.68 102.399
3339.75 99.6727
3339.81 97.4362
3339.87 95.2828
3339.93 93.2089
3339.98 91.2442
3340.10 87.4914
3340.22 83.9994
3340.33 80.7456
3340.45 77.7091
3340.57 74.8711
3340.69 72.2147
3340.80 69.7245
3340.92 67.3864
3341.04 65.1880
3341.15 63.1180
3341.27 61.1660
3341.39 59.3230
3341.50 57.5805
3341.62 55.9309
3341.74 54.3545
3341.86 52.8716
3341.97 51.4629
3342.09 50.1232
3342.32 47.6326
3342.56 45.3667
3342.79 43.2894
3343.03 41.3947
3343.26 39.6536
3343.50 38.0488
3343.69 36.8236
3343.88 35.6731
3344.07 34.5909
3344.26 33.5767
3344.45 32.6147
3344.65 31.7105
3344.84 30.8504
3345.03 30.0398
3345.41 28.5366
3345.79 27.1778
3346.18 25.9444
3346.56 24.8203
3347.03 23.5736
3347.50 22.4528
3347.97 21.4363
3348.43 20.5145
3348.90 19.6717
3349.37 18.9017
3349.84 18.1927
3350.31 17.5408
3350.86 16.8325
3351.42 16.1858
3351.97 15.5913
3352.52 15.0450
3353.08 14.5395
3353.63 14.0721
3354.18 13.6371
3354.74 13.2327
3355.67 12.6070
3356.61 12.0464
3357.55 11.5413
3358.48 11.0838
3359.42 10.6674
3360.36 10.2867
3361.30 9.93703
3362.23 9.61505
3363.17 9.31681
3364.11 9.03990
3365.04 8.78199
3365.98 8.54132
3366.92 8.31564
3367.85 8.10376
3368.79 7.90443
3369.73 7.71681
3370.36 7.59494
3371.00 7.47795
3371.64 7.36578
3372.28 7.25867
3372.92 7.15654
3373.56 7.06028
3373.88 7.01479
3374.20 6.97185
3374.52 6.93231
3374.84 6.89812
3375.01 6.88322
3375.18 6.87191
3375.35 6.86540
3375.52 6.86561
3375.69 6.87508
3375.86 6.89705
3375.94 6.91407
3376.03 6.93594
3376.11 6.96343
3376.20 6.99735
3376.28 7.03915
3376.37 7.08888
3376.45 7.14809
3376.54 7.21797
3376.62 7.29981
3376.71 7.39497
3376.79 7.50491
3376.88 7.63113
3376.97 7.77698
3377.05 7.94066
3377.14 8.12534
3377.22 8.33258
3377.31 8.56386
3377.39 8.82059
3377.48 9.10402
3377.56 9.41524
3377.65 9.75931
3377.73 10.1288
3377.82 10.5279
3377.90 10.9565
3377.99 11.4197
3378.07 11.9059
3378.16 12.4188
3378.24 12.9568
3378.34 13.5914
3378.43 14.2506
3378.63 15.6151
3378.82 17.0153
3379.01 18.3778
3379.11 19.0704
3379.21 19.7193
3379.31 20.3215
3379.41 20.8675
3379.53 21.4179
3379.65 21.8683
3379.76 22.2082
3379.85 22.3893
3379.91 22.4685
3379.98 22.5203
3380.00 22.5271
3380.04 22.5303
3380.05 22.5298
3380.06 22.5277
3380.07 22.5251
3380.08 22.5171
3380.12 22.4919
3380.19 22.4097
3380.26 22.2807
3380.36 22.0381
3380.43 21.8100
3380.50 21.5420
3380.63 20.9560
3380.75 20.2591
3380.87 19.5530
3380.98 18.7857
3381.10 17.9717
3381.21 17.1257
3381.43 15.4849
3381.65 13.8772
3381.76 13.1028
3381.87 12.3673
3381.97 11.6629
3382.08 11.0071
3382.15 10.6171
3382.22 10.2507
3382.28 9.90253
3382.35 9.57266
3382.42 9.26111
3382.49 8.96778
3382.55 8.69241
3382.62 8.43465
3382.69 8.19405
3382.75 7.97008
3382.82 7.76214
3382.89 7.56956
3382.95 7.39165
3383.02 7.22767
3383.09 7.07686
3383.16 6.93846
3383.22 6.80989
3383.29 6.69415
3383.36 6.58850
3383.42 6.49222
3383.49 6.40458
3383.56 6.32489
3383.63 6.25250
3383.69 6.18678
3383.83 6.07300
3383.96 5.97925
3384.09 5.90179
3384.23 5.83742
3384.33 5.79515
3384.43 5.75836
3384.64 5.69661
3384.84 5.64619
3385.05 5.60384
3385.25 5.56659
3385.46 5.53307
3385.86 5.47248
3386.27 5.41700
3386.68 5.36449
3387.09 5.31394
3387.50 5.26493
3388.32 5.16976
3389.14 5.07754
3389.95 4.98738
3390.77 4.89884
3391.79 4.78960
3392.81 4.68147
3393.84 4.57398
3394.86 4.46678
3395.98 4.34873
3397.11 4.23032
3398.23 4.11104
3399.36 3.99053
3400.48 3.86827
3401.60 3.74409
3402.73 3.61750
3403.85 3.48808
3404.98 3.35529
3406.10 3.21892
3407.23 3.07841
3408.35 2.93330
3409.47 2.78311
3410.60 2.62740
3411.72 2.46575
3412.85 2.29783
3413.97 2.12321
3414.53 2.03350
3415.09 1.94218
3415.66 1.84914
3416.22 1.75484
3416.78 1.65927
3417.34 1.56266
3417.91 1.46518
3418.47 1.36761
3419.03 1.27041
3419.59 1.17440
3420.15 1.08070
3420.72 0.990822
3421.28 0.906808
3421.56 0.867832
3421.84 0.831436
3422.17 0.792356
3422.51 0.758736
3422.84 0.731689
3423.17 0.712730
3423.50 0.703724
3423.67 0.703656
3423.83 0.706985
3424.00 0.714091
3424.17 0.725401
3424.33 0.741392
3424.50 0.762606
3424.74 0.804366
3424.86 0.830738
3424.98 0.860881
3425.07 0.885789
3425.29 0.957650
3425.48 1.03225
3425.66 1.12130
3425.85 1.22697
3425.94 1.28718
3426.03 1.35188
3426.17 1.46189
3426.31 1.58556
3426.45 1.72651
3426.59 1.88493
3426.73 2.06562
3426.80 2.16413
3426.87 2.26904
3426.94 2.38244
3427.01 2.50166
3427.08 2.62878
3427.15 2.76440
3427.23 2.91132
3427.30 3.06612
3427.37 3.23403
3427.44 3.41120
3427.51 3.60366
3427.58 3.80704
3427.65 4.02510
3427.72 4.25909
3427.79 4.51411
3427.86 4.78449
3427.93 5.07536
3428.00 5.38853
3428.07 5.73099
3428.14 6.09528
3428.21 6.48844
3428.28 6.91306
3428.33 7.22386
3428.38 7.55176
3428.42 7.89778
3428.47 8.26304
3428.52 8.64868
3428.57 9.05594
3428.62 9.48610
3428.66 9.93080
3428.71 10.4104
3428.76 10.9171
3428.81 11.4526
3428.85 12.0185
3428.90 12.6165
3428.95 13.2485
3429.00 13.9163
3429.05 14.6068
3429.12 15.7230
3429.19 16.9155
3429.26 18.2064
3429.33 19.6031
3429.40 21.1356
3429.47 22.7688
3429.54 24.5316
3429.61 26.4324
3429.68 28.5101
3429.75 30.7149
3429.82 33.1187
3429.89 35.6625
3429.96 38.4277
3430.03 41.3447
3430.10 44.4590
3430.17 47.7779
3430.24 51.3604
3430.31 55.1114
3430.38 59.0853
3430.45 63.2861
3430.52 67.7168
3430.59 72.3793
3430.66 77.2737
3430.73 82.3988
3430.80 87.8296
3430.87 93.4083
3430.94 99.2870
3431.01 105.291
3431.15 117.966
3431.29 131.217
3431.44 145.079
3431.58 159.166
3431.86 187.495
3432.02 203.574
3432.19 218.588
3432.33 230.070
3432.47 240.183
3432.59 247.570
3432.71 253.627
3432.83 258.241
3432.95 261.324
3433.02 262.436
3433.10 262.933
3433.22 262.452
3433.34 260.376
3433.46 256.754
3433.58 251.670
3433.66 247.021
3433.75 241.687
3433.84 235.730
3433.93 229.297
3434.10 215.445
3434.27 200.484
3434.46 183.479
3434.65 166.567
3434.82 151.739
3434.91 144.763
3434.99 138.160
3435.08 131.988
3435.16 126.297
3435.25 121.134
3435.33 116.589
3435.39 113.960
3435.44 111.627
3435.50 109.509
3435.55 107.690
3435.61 106.106
3435.66 104.820
3435.72 103.786
3435.77 103.044
3435.86 102.422
3435.94 102.486
3436.03 103.227
3436.11 104.611
3436.20 106.650
3436.29 109.304
3436.37 112.540
3436.46 116.320
3436.57 121.821
3436.64 126.194
3436.72 130.884
3436.81 136.369
3436.89 142.053
3437.07 154.089
3437.24 166.302
3437.41 178.264
3437.49 183.947
3437.58 189.280
3437.68 194.945
3437.77 200.079
3437.90 206.038
3438.03 210.704
3438.11 212.883
3438.19 214.540
3438.27 215.651
3438.35 216.237
3438.43 216.280
3438.50 215.806
3438.58 214.824
3438.66 213.348
3438.74 211.395
3438.81 208.952
3438.89 206.106
3439.05 199.183
3439.13 194.785
3439.22 190.019
3439.38 179.643
3439.54 169.281
3439.70 158.472
3439.85 147.497
3440.01 136.675
3440.09 131.328
3440.16 126.078
3440.24 120.947
3440.32 116.013
3440.40 111.165
3440.47 106.478
3440.55 101.964
3440.63 97.6836
3440.70 93.8962
3440.77 90.2643
3440.84 86.7891
3440.91 83.5162
3440.98 80.3512
3441.05 77.3811
3441.12 74.5184
3441.19 71.8403
3441.27 69.2660
3441.34 66.8304
3441.41 64.5282
3441.48 62.3840
3441.55 60.3309
3441.62 58.4212
3441.69 56.5947
3441.76 54.8971
3441.84 53.1194
3441.92 51.4546
3441.99 49.8952
3442.07 48.4524
3442.15 47.0818
3442.23 45.7965
3442.30 44.5900
3442.38 43.4709
3442.46 42.4044
3442.54 41.4006
3442.62 40.4546
3442.69 39.5731
3442.77 38.7292
3442.85 37.9308
3443.00 36.4660
3443.13 35.3643
3443.26 34.3556
3443.39 33.4210
3443.51 32.5521
3443.64 31.7355
3443.77 30.9777
3443.89 30.2666
3444.02 29.5976
3444.15 28.9619
3444.28 28.3658
3444.53 27.2654
3444.78 26.2711
3445.04 25.3671
3445.35 24.3648
3445.66 23.4608
3445.97 22.6405
3446.28 21.8925
3446.59 21.2071
3446.90 20.5767
3447.22 19.9947
3447.53 19.4573
3447.98 18.7392
3448.43 18.0916
3448.88 17.5034
3449.33 16.9664
3449.79 16.4731
3450.24 16.0202
3450.69 15.6020
3451.14 15.2145
3451.77 14.7256
3452.39 14.2815
3453.01 13.8763
3453.63 13.5050
3454.25 13.1636
3454.88 12.8484
3455.50 12.5566
3456.12 12.2860
3456.85 11.9896
3457.59 11.7161
3458.32 11.4630
3459.06 11.2280
3459.79 11.0094
3460.53 10.8052
3462.00 10.4351
3463.24 10.1554
3464.49 9.90202
3465.73 9.67137
3466.97 9.46059
3468.22 9.26685
3469.46 9.08823
3470.70 8.92295
3471.95 8.76965
3474.44 8.49337
3476.92 8.25135
3479.41 8.03723
3481.90 7.84647
3484.38 7.67495
3486.87 7.51959
3489.36 7.37817
3491.85 7.24887
3494.33 7.12999
3496.82 7.02032
3501.80 6.82417
3506.77 6.65340
3511.75 6.50298
3516.72 6.36913
3521.69 6.24914
3526.67 6.14056
3531.64 6.04142
3536.62 5.95053
3541.59 5.86678
3551.54 5.71684
3561.49 5.58583
3571.44 5.46957
3581.39 5.36500
3591.34 5.26980
3601.29 5.18220
3612.14 5.09363
3621.64 5.02103
3631.14 4.95220
3635.89 4.91905
3640.64 4.88673
3645.39 4.85533
3647.76 4.84004
3650.13 4.82512
3651.72 4.81547
3653.30 4.80614
3654.88 4.79725
3656.47 4.78897
3658.05 4.78165
3658.84 4.77855
3659.63 4.77599
3660.42 4.77417
3661.21 4.77339
3662.01 4.77412
3662.80 4.77723
3663.31 4.78124
3663.81 4.78788
3664.07 4.79279
3664.32 4.79935
3664.58 4.80849
3664.83 4.82159
3665.09 4.84121
3665.21 4.85457
3665.34 4.87120
3665.47 4.89214
3665.60 4.91816
3665.72 4.95074
3665.85 4.99147
3665.98 5.04274
3666.11 5.10605
3666.23 5.18442
3666.36 5.28093
3666.49 5.39906
3666.55 5.46800
3666.61 5.54270
3666.68 5.62608
3666.74 5.71608
3666.80 5.81615
3666.87 5.92374
3666.97 6.11245
3667.07 6.32715
3667.16 6.57012
3667.26 6.84355
3667.36 7.14951
3667.41 7.31699
3667.46 7.48985
3667.51 7.67532
3667.56 7.86615
3667.61 8.07027
3667.66 8.27963
3667.71 8.50285
3667.76 8.73107
3667.81 8.97361
3667.86 9.22075
3667.96 9.74832
3668.06 10.3128
3668.15 10.9124
3668.25 11.5447
3668.35 12.2063
3668.45 12.8860
3668.63 14.2114
3668.82 15.5670
3669.00 16.9057
3669.19 18.1684
3669.27 18.7165
3669.36 19.2326
3669.44 19.7116
3669.52 20.1437
3669.63 20.6233
3669.74 21.0223
3669.80 21.2296
3669.87 21.4005
3669.95 21.5519
3670.03 21.6499
3670.11 21.6970
3670.13 21.6995
3670.21 21.6737
3670.27 21.6161
3670.33 21.5312
3670.42 21.3349
3670.54 20.9587
3670.66 20.5062
3670.77 19.9660
3670.88 19.4027
3670.98 18.7810
3671.09 18.1105
3671.19 17.4011
3671.39 15.9785
3671.59 14.5177
3671.78 13.0796
3671.88 12.3853
3671.98 11.7214
3672.05 11.2767
3672.12 10.8465
3672.18 10.4318
3672.25 10.0392
3672.32 9.65760
3672.39 9.29869
3672.45 8.95210
3672.52 8.62821
3672.59 8.31737
3672.66 8.02866
3672.72 7.75324
3672.79 7.49892
3672.86 7.25772
3672.93 7.03624
3672.99 6.82735
3673.06 6.63659
3673.12 6.47029
3673.19 6.31846
3673.25 6.17564
3673.31 6.04580
3673.37 5.92418
3673.44 5.81407
3673.50 5.71289
3673.56 5.62010
3673.64 5.50681
3673.73 5.40773
3673.81 5.32024
3673.89 5.24320
3673.98 5.17552
3674.06 5.11622
3674.14 5.06436
3674.23 5.01909
3674.31 4.97919
3674.39 4.94489
3674.56 4.88912
3674.73 4.84670
3674.89 4.81474
3675.06 4.79017
3675.22 4.77129
3675.39 4.75646
3675.56 4.74457
3675.85 4.72852
3676.14 4.71648
3676.43 4.70685
3676.72 4.69878
3677.30 4.68559
3677.89 4.67492
3678.47 4.66586
3679.05 4.65795
3679.63 4.65086
3680.22 4.64438
3680.88 4.63755
3681.63 4.63040
3682.38 4.62368
3683.88 4.61114
3685.37 4.59940
3686.87 4.58819
3688.37 4.57732
3689.87 4.56669
3692.86 4.54583
3695.86 4.52526
3698.85 4.50479
3704.84 4.46378
3711.50 4.41749
3718.15 4.36994
3725.47 4.31561
3732.79 4.25849
3740.11 4.19775
3747.43 4.13239
3754.75 4.06108
3762.07 3.98210
3769.40 3.89307
3773.06 3.84379
3776.72 3.79072
3780.38 3.73310
3784.04 3.67007
3787.70 3.60065
3791.36 3.52354
3795.02 3.43705
3798.68 3.33907
3800.51 3.28487
3802.34 3.22666
3804.17 3.16392
3806.00 3.09609
3807.83 3.02234
3809.66 2.94184
3811.49 2.85357
3813.32 2.75631
3815.15 2.64858
3816.98 2.52859
3817.89 2.46334
3818.81 2.39419
3819.72 2.32078
3820.64 2.24277
3821.35 2.17900
3822.05 2.11213
3822.76 2.04189
3823.47 1.96810
3824.18 1.89054
3824.88 1.80905
3825.59 1.72345
3826.30 1.63365
3826.75 1.57323
3827.21 1.51122
3827.67 1.44741
3828.13 1.38221
3828.58 1.31552
3829.04 1.24791
3829.50 1.17949
3829.96 1.11115
3830.41 1.04342
3830.87 0.977598
3831.33 0.915345
3831.79 0.859107
3832.25 0.811982
3832.47 0.793327
3832.70 0.779019
3832.93 0.769911
3833.16 0.767285
3833.39 0.772642
3833.62 0.787775
3833.76 0.803662
3833.91 0.825261
3834.06 0.853455
3834.20 0.889017
3834.35 0.933672
3834.49 0.988275
3834.64 1.05536
3834.78 1.13613
3834.95 1.24924
3835.03 1.31544
3835.11 1.38900
3835.20 1.47069
3835.28 1.56140
3835.39 1.69067
3835.49 1.83680
3835.59 2.00354
3835.70 2.19391
3835.80 2.41138
3835.91 2.65996
3835.96 2.79734
3836.01 2.94427
3836.06 3.10145
3836.11 3.26960
3836.17 3.47107
3836.23 3.68445
3836.29 3.91427
3836.34 4.16182
3836.40 4.43332
3836.46 4.72089
3836.51 5.03060
3836.57 5.36412
3836.63 5.72977
3836.69 6.11685
3836.74 6.53345
3836.80 6.98170
3836.86 7.46384
3836.91 7.98225
3836.97 8.53942
3837.03 9.13799
3837.09 9.79239
3837.14 10.4830
3837.20 11.2237
3837.26 12.0175
3837.31 12.8679
3837.37 13.7781
3837.43 14.7515
3837.49 15.7918
3837.54 16.9227
3837.60 18.1091
3837.66 19.3735
3837.71 20.7199
3837.77 22.1520
3837.83 23.6738
3837.89 25.2891
3837.94 27.0018
3838.00 28.8484
3838.06 30.7690
3838.12 32.8347
3838.17 34.9777
3838.23 37.2767
3838.29 39.6555
3838.34 42.1555
3838.40 44.7793
3838.46 47.5785
3838.52 50.4584
3838.57 53.4677
3838.63 56.6075
3838.69 59.8785
3838.74 63.2806
3838.80 66.8134
3838.86 70.4761
3838.97 78.2538
3839.09 86.4579
3839.20 95.1227
3839.32 104.206
3839.43 113.737
3839.54 123.486
3839.77 143.646
3840.00 163.943
3840.23 183.505
3840.42 198.286
3840.51 205.066
3840.60 211.388
3840.71 218.140
3840.82 224.103
3840.93 229.207
3841.04 233.358
3841.12 235.877
3841.20 237.834
3841.26 238.811
3841.38 240.073
3841.49 240.136
3841.61 239.019
3841.73 236.779
3841.84 233.595
3841.95 229.512
3842.07 224.528
3842.18 218.815
3842.29 212.599
3842.40 205.823
3842.51 198.577
3842.61 191.023
3842.63 189.519
3842.69 185.531
3842.74 181.559
3842.85 173.486
3842.97 164.853
3843.04 159.381
3843.10 154.978
3843.17 149.084
3843.19 148.182
3843.22 145.258
3843.26 142.351
3843.32 138.357
3843.40 132.450
3843.51 124.269
3843.61 117.518
3843.71 111.063
3843.80 105.354
3843.89 99.8632
3843.98 94.5986
3844.06 89.5662
3844.19 82.8972
3844.31 76.7438
3844.44 71.0026
3844.56 65.7550
3844.66 61.9132
3844.76 58.3315
3844.86 54.9993
3844.95 51.9360
3845.05 49.0667
3845.15 46.4120
3845.25 43.9595
3845.34 41.7188
3845.43 39.8986
3845.51 38.2233
3845.60 36.6451
3845.68 35.1940
3845.77 33.8281
3845.85 32.5726
3845.94 31.3911
3846.02 30.3051
3846.11 29.2826
3846.19 28.3422
3846.27 27.4560
3846.36 26.6399
3846.44 25.8698
3846.53 25.1593
3846.61 24.4952
3846.70 23.8736
3846.79 23.1977
3846.89 22.5699
3846.99 21.9859
3847.09 21.4413
3847.19 20.9325
3847.28 20.4562
3847.38 20.0092
3847.48 19.5930
3847.58 19.1967
3847.67 18.8225
3847.77 18.4684
3847.87 18.1361
3848.07 17.5136
3848.26 16.9511
3848.39 16.5930
3848.53 16.2580
3848.79 15.6393
3849.06 15.0825
3849.33 14.5801
3849.59 14.1207
3849.86 13.7003
3850.13 13.3140
3850.39 12.9591
3850.79 12.4846
3851.18 12.0586
3851.57 11.6739
3851.96 11.3248
3852.35 11.0067
3852.74 10.7155
3853.13 10.4481
3853.52 10.2016
3853.91 9.97309
3854.31 9.76178
3855.09 9.38216
3855.87 9.05082
3856.65 8.75911
3857.40 8.51126
3858.15 8.28877
3858.89 8.08788
3859.64 7.90582
3860.39 7.73965
3861.13 7.58775
3861.88 7.44801
3862.62 7.31934
3864.19 7.07947
3865.75 6.87316
3867.32 6.69372
3868.88 6.53621
3870.09 6.42696
3871.30 6.32707
3873.72 6.15066
3876.14 5.99935
3878.55 5.86810
3881.68 5.72164
3884.81 5.59605
3887.94 5.48692
3891.07 5.39105
3893.35 5.32834
3896.48 5.25039
3898.04 5.21474
3899.60 5.18124
3901.17 5.14990
3902.73 5.12095
3904.30 5.09479
3905.08 5.08303
3905.86 5.07236
3906.50 5.06467
3907.14 5.05816
3907.78 5.05321
3908.42 5.05042
3909.06 5.05076
3909.38 5.05266
3909.70 5.05625
3910.02 5.06231
3910.34 5.07225
3910.66 5.08874
3910.82 5.10085
3910.98 5.11672
3911.14 5.13764
3911.30 5.16529
3911.46 5.20190
3911.62 5.25033
3911.78 5.31425
3911.94 5.39822
3912.02 5.44944
3912.10 5.50786
3912.18 5.57436
3912.26 5.64991
3912.34 5.73552
3912.42 5.83231
3912.50 5.94145
3912.58 6.06419
3912.66 6.20183
3912.74 6.35573
3912.82 6.52730
3912.90 6.71798
3912.98 6.92920
3913.06 7.16243
3913.14 7.41910
3913.22 7.70059
3913.30 8.00822
3913.38 8.34322
3913.46 8.70669
3913.54 9.09958
3913.62 9.50078
3913.69 9.92970
3913.77 10.3866
3913.85 10.8650
3913.92 11.3775
3914.00 11.9101
3914.07 12.4764
3914.15 13.0603
3914.22 13.6761
3914.30 14.3059
3914.45 15.6326
3914.60 17.0205
3914.75 18.4448
3915.04 21.1256
3915.18 22.3997
3915.32 23.5923
3915.47 24.7374
3915.55 25.2550
3915.62 25.7217
3915.72 26.2596
3915.82 26.7051
3915.92 27.0890
3916.02 27.3364
3916.12 27.4756
3916.20 27.5197
3916.21 27.5199
3916.24 27.5130
3916.27 27.4941
3916.34 27.4128
3916.40 27.3078
3916.48 27.1106
3916.59 26.7015
3916.69 26.2448
3916.79 25.7040
3916.87 25.2153
3916.95 24.6867
3917.10 23.5009
3917.24 22.3600
3917.37 21.1549
3917.64 18.6202
3917.78 17.2448
3917.93 15.8980
3918.07 14.6028
3918.15 13.9763
3918.22 13.3777
3918.29 12.7922
3918.36 12.2371
3918.44 11.6981
3918.51 11.1908
3918.58 10.7016
3918.65 10.2444
3918.73 9.80650
3918.80 9.39990
3918.89 8.93667
3918.97 8.50978
3919.06 8.11817
3919.15 7.76048
3919.24 7.43518
3919.33 7.14057
3919.41 6.87483
3919.50 6.63607
3919.59 6.42236
3919.68 6.23178
3919.77 6.06243
3919.85 5.91242
3919.94 5.77999
3920.03 5.66341
3920.12 5.56107
3920.21 5.47146
3920.29 5.39317
3920.38 5.32490
3920.47 5.26547
3920.56 5.21379
3920.65 5.16889
3920.73 5.12991
3920.91 5.06662
3921.09 5.01871
3921.26 4.98215
3921.44 4.95388
3921.61 4.93163
3921.86 4.90734
3922.11 4.88873
3922.36 4.87368
3922.61 4.86110
3923.11 4.84046
3923.60 4.82358
3924.10 4.80908
3924.60 4.79625
3925.59 4.77398
3926.58 4.75475
3927.58 4.73746
3928.57 4.72151
3929.57 4.70653
3931.22 4.68311
3932.88 4.66113
3934.54 4.64012
3936.19 4.61985
3939.51 4.58102
3942.82 4.54392
3946.13 4.50809
3949.45 4.47326
3952.76 4.43919
3956.07 4.40575
3958.72 4.37936
3962.70 4.34019
3966.68 4.30137
3970.65 4.26280
3974.63 4.22441
3978.61 4.18621
3980.59 4.16725
3982.58 4.14846
3984.57 4.12996
3986.56 4.11195
3988.55 4.09494
3989.54 4.08704
3990.53 4.07980
3991.86 4.07172
3992.52 4.06875
3993.18 4.06689
3993.85 4.06668
3994.51 4.06914
3994.84 4.07207
3995.17 4.07693
3995.50 4.08504
3995.67 4.09104
3995.83 4.09890
3996.02 4.11093
3996.21 4.12745
3996.39 4.15048
3996.58 4.18223
3996.77 4.22632
3996.95 4.28654
3997.05 4.32484
3997.14 4.36895
3997.23 4.42011
3997.33 4.47929
3997.42 4.54828
3997.51 4.62673
3997.61 4.71652
3997.70 4.81887
3997.79 4.93643
3997.89 5.06804
3997.98 5.21623
3998.07 5.38236
3998.17 5.56989
3998.26 5.77612
3998.35 6.00414
3998.45 6.25504
3998.54 6.52975
3998.63 6.82902
3998.72 7.15337
3998.82 7.50303
3998.89 7.79519
3998.96 8.09843
3999.04 8.42083
3999.11 8.75313
3999.18 9.10393
3999.25 9.46285
3999.40 10.2208
3999.54 11.0175
3999.69 11.8410
3999.98 13.5027
4000.11 14.2574
4000.25 14.9773
4000.38 15.6468
4000.52 16.2462
4000.65 16.7702
4000.78 17.1981
4000.86 17.4005
4000.94 17.5663
4001.05 17.7388
4001.11 17.7944
4001.19 17.8349
4001.23 17.8412
4001.31 17.8204
4001.38 17.7692
4001.45 17.6863
4001.56 17.4867
4001.65 17.2756
4001.73 17.0224
4001.81 16.7706
4001.88 16.4898
4002.03 15.8502
4002.18 15.1227
4002.33 14.3282
4002.48 13.4881
4002.63 12.6236
4002.82 11.5364
4003.01 10.4833
4003.10 9.97394
4003.20 9.48207
4003.29 9.01022
4003.38 8.56510
4003.48 8.13874
4003.57 7.73718
4003.66 7.36118
4003.76 7.01468
4003.85 6.69022
4003.95 6.39136
4004.04 6.11751
4004.13 5.87039
4004.23 5.62998
4004.33 5.41443
4004.41 5.26815
4004.48 5.13431
4004.56 5.01219
4004.63 4.90108
4004.71 4.80027
4004.78 4.70903
4004.86 4.62668
4004.93 4.55253
4005.01 4.48592
4005.08 4.42624
4005.23 4.32524
4005.38 4.24513
4005.53 4.18205
4005.68 4.13267
4005.83 4.09420
4005.98 4.06433
4006.13 4.04119
4006.28 4.02328
4006.43 4.00942
4006.73 3.99036
4007.03 3.97902
4007.33 3.97267
4007.73 3.96986
4008.13 3.97323
4008.33 3.97782
4008.53 3.98510
4008.73 3.99606
4008.93 4.01215
4009.13 4.03553
4009.33 4.06925
4009.53 4.11762
4009.63 4.14906
4009.73 4.18650
4009.83 4.23098
4009.93 4.28368
4010.03 4.34594
4010.13 4.41925
4010.23 4.50529
4010.33 4.60587
4010.43 4.72301
4010.53 4.85887
4010.63 5.01575
4010.73 5.19610
4010.83 5.40245
4010.93 5.63744
4011.03 5.90369
4011.13 6.20383
4011.23 6.54040
4011.28 6.72310
4011.33 6.91579
4011.42 7.27997
4011.51 7.67248
4011.60 8.10339
4011.68 8.56369
4011.77 9.06443
4011.86 9.59433
4011.95 10.1653
4012.03 10.7637
4012.12 11.4019
4012.21 12.0639
4012.30 12.7627
4012.38 13.4795
4012.56 14.9861
4012.73 16.5510
4013.03 19.2487
4013.18 20.5408
4013.33 21.7511
4013.48 22.8462
4013.56 23.3406
4013.63 23.7946
4013.73 24.3309
4013.83 24.7817
4013.96 25.2354
4014.04 25.4174
4014.11 25.5334
4014.19 25.6116
4014.24 25.6226
4014.30 25.6000
4014.38 25.5210
4014.43 25.4258
4014.53 25.1748
4014.64 24.7862
4014.75 24.2864
4014.86 23.6897
4014.95 23.1278
4015.04 22.5099
4015.13 21.8426
4015.22 21.1408
4015.38 19.7966
4015.54 18.3899
4015.86 15.5087
4016.03 14.0173
4016.11 13.2978
4016.20 12.6087
4016.28 11.9363
4016.37 11.2989
4016.45 10.6832
4016.54 10.1053
4016.62 9.55235
4016.71 9.03213
4016.79 8.54489
4016.88 8.09570
4016.96 7.67346
4017.04 7.28745
4017.13 6.92756
4017.21 6.60116
4017.27 6.40261
4017.32 6.21562
4017.38 6.03979
4017.43 5.87471
4017.49 5.71997
4017.54 5.57511
4017.65 5.31556
4017.76 5.08783
4017.87 4.89266
4017.98 4.72316
4018.09 4.57927
4018.20 4.45539
4018.31 4.35019
4018.42 4.26113
4018.53 4.18656
4018.64 4.12311
4018.75 4.07014
4018.86 4.02514
4018.97 3.98756
4019.08 3.95556
4019.19 3.92851
4019.41 3.88611
4019.63 3.85482
4019.84 3.83103
4020.06 3.81222
4020.28 3.79693
4020.72 3.77275
4021.04 3.75844
4021.36 3.74586
4022.00 3.72413
4022.64 3.70536
4023.27 3.68856
4023.91 3.67306
4024.55 3.65850
4025.82 3.63125
4027.10 3.60542
4028.37 3.58033
4029.65 3.55553
4030.93 3.53078
4033.48 3.48063
4036.03 3.42888
4037.62 3.39539
4039.22 3.36094
4040.81 3.32543
4042.40 3.28885
4044.00 3.25126
4045.59 3.21302
4046.39 3.19389
4047.19 3.17502
4047.98 3.15687
4048.78 3.14055
4049.30 3.13252
4049.56 3.13027
4049.82 3.13020
4050.08 3.13366
4050.21 3.13738
4050.34 3.14286
4050.47 3.15065
4050.59 3.16119
4050.72 3.17535
4050.85 3.19373
4050.98 3.21760
4051.11 3.24771
4051.24 3.28587
4051.37 3.33298
4051.50 3.39143
4051.63 3.46217
4051.76 3.54827
4051.89 3.65049
4052.02 3.77258
4052.15 3.91480
4052.28 4.08145
4052.41 4.27186
4052.47 4.37778
4052.54 4.49063
4052.60 4.61054
4052.67 4.73563
4052.73 4.86988
4052.80 5.01144
4052.86 5.16028
4052.93 5.31392
4053.01 5.51570
4053.09 5.72800
4053.17 5.95040
4053.24 6.17938
4053.38 6.59021
4053.51 7.01863
4053.78 7.91825
4054.05 8.82319
4054.19 9.25850
4054.32 9.66619
4054.43 9.96284
4054.53 10.2349
4054.64 10.4783
4054.74 10.6877
4054.84 10.8637
4054.95 11.0004
4055.06 11.1012
4055.13 11.1442
4055.20 11.1649
4055.25 11.1677
4055.25 11.1676
4055.26 11.1669
4055.27 11.1659
4055.29 11.1627
4055.33 11.1518
4055.39 11.1259
4055.48 11.0552
4055.55 10.9821
4055.62 10.8929
4055.69 10.7856
4055.76 10.6621
4055.89 10.3723
4056.03 10.0266
4056.17 9.63842
4056.31 9.21467
4056.44 8.76487
4056.80 7.54877
4056.97 6.94694
4057.06 6.65633
4057.15 6.37360
4057.24 6.09711
4057.33 5.83423
4057.42 5.58277
4057.50 5.34349
4057.59 5.11445
4057.68 4.90117
4057.77 4.70119
4057.86 4.51456
4057.94 4.35829
4058.01 4.21430
4058.09 4.07866
4058.17 3.95451
4058.25 3.83830
4058.33 3.73260
4058.41 3.63427
4058.48 3.54534
4058.56 3.46307
4058.64 3.38906
4058.72 3.32094
4058.80 3.25994
4058.96 3.15419
4059.11 3.06820
4059.27 2.99864
4059.43 2.94253
4059.58 2.89727
4059.74 2.86064
4059.90 2.83080
4060.05 2.80621
4060.21 2.78567
4060.37 2.76819
4060.53 2.75302
4060.68 2.73957
4061.00 2.71619
4061.31 2.69568
4061.62 2.67672
4062.25 2.64101
4062.88 2.60644
4063.82 2.55489
4064.76 2.50262
4065.63 2.45346
4066.49 2.40283
4068.22 2.29589
4069.95 2.18002
4071.67 2.05361
4072.54 1.98591
4073.40 1.91496
4074.26 1.84054
4075.13 1.76255
4075.99 1.68061
4076.85 1.59473
4077.72 1.50460
4078.58 1.41036
4079.45 1.31186
4080.31 1.20959
4081.17 1.10389
4082.04 0.996050
4082.47 0.941761
4082.90 0.887687
4083.33 0.834262
4083.76 0.782169
4084.19 0.731894
4084.63 0.684511
4085.06 0.641262
4085.49 0.603861
4085.78 0.582653
4086.08 0.566043
4086.37 0.554979
4086.67 0.550829
4086.96 0.555171
4087.26 0.569960
4087.55 0.597674
4087.70 0.617326
4087.84 0.641444
4088.03 0.679423
4088.22 0.726753
4088.29 0.746566
4088.45 0.801815
4088.60 0.857386
4088.74 0.921119
4088.88 0.994479
4089.02 1.07874
4089.12 1.14123
4089.21 1.20888
4089.30 1.28283
4089.40 1.36368
4089.49 1.45308
4089.58 1.54984
4089.68 1.65569
4089.77 1.77153
4089.86 1.89980
4089.96 2.03892
4090.05 2.19147
4090.14 2.35887
4090.23 2.54273
4090.33 2.74485
4090.42 2.96724
4090.51 3.21218
4090.57 3.38040
4090.63 3.55942
4090.69 3.75002
4090.75 3.95300
4090.81 4.16925
4090.87 4.39972
4090.93 4.64542
4090.98 4.90285
4091.04 5.18203
4091.10 5.47991
4091.16 5.79782
4091.22 6.13715
4091.28 6.49943
4091.34 6.88625
4091.40 7.29932
4091.46 7.73273
4091.51 8.16221
4091.56 8.61833
4091.62 9.10270
4091.67 9.61704
4091.73 10.1632
4091.78 10.7429
4091.83 11.3583
4091.89 12.0113
4091.94 12.7041
4092.00 13.4390
4092.05 14.2181
4092.10 15.0440
4092.16 15.9191
4092.21 16.8459
4092.27 17.8270
4092.32 18.8651
4092.37 19.9630
4092.43 21.1235
4092.48 22.3494
4092.54 23.6436
4092.59 25.0090
4092.64 26.4486
4092.70 27.9653
4092.75 29.5620
4092.81 31.2418
4092.86 33.0074
4092.91 34.8618
4092.97 36.8076
4093.02 38.8477
4093.08 40.9847
4093.13 43.2209
4093.18 45.5145
4093.26 49.1195
4093.34 52.9026
4093.42 56.9660
4093.50 61.2107
4093.58 65.7480
4093.65 70.4643
4093.73 75.4803
4093.81 80.6667
4093.92 88.2243
4094.03 96.2036
4094.13 104.581
4094.24 113.324
4094.35 122.392
4094.46 131.738
4094.67 151.028
4094.89 170.651
4095.11 189.960
4095.21 199.275
4095.32 208.241
4095.43 216.765
4095.54 224.686
4095.67 233.929
4095.81 241.959
4095.95 248.702
4096.08 254.041
4096.18 257.068
4096.29 259.225
4096.35 260.171
4096.50 260.857
4096.65 259.688
4096.80 256.702
4096.94 252.034
4097.10 245.229
4097.26 236.863
4097.42 227.069
4097.58 216.232
4097.74 204.261
4097.90 191.707
4098.23 166.024
4098.39 153.302
4098.55 141.031
4098.71 129.218
4098.79 123.553
4098.87 118.131
4098.99 110.468
4099.11 103.223
4099.23 96.4081
4099.34 90.0824
4099.46 84.1361
4099.58 78.6628
4099.64 76.0589
4099.70 73.5571
4099.75 71.1555
4099.81 68.8898
4099.89 65.8795
4099.97 63.0421
4100.06 60.3705
4100.14 57.8574
4100.22 55.4952
4100.30 53.2763
4100.38 51.1930
4100.46 49.2612
4100.54 47.4252
4100.62 45.7028
4100.70 44.0869
4100.78 42.5707
4100.86 41.1477
4100.95 39.8117
4101.03 38.5569
4101.11 37.3918
4101.19 36.2820
4101.27 35.2376
4101.35 34.2539
4101.43 33.3378
4101.59 31.6355
4101.75 30.1230
4101.91 28.7566
4102.08 27.5321
4102.24 26.4164
4102.40 25.4078
4102.55 24.5635
4102.69 23.7835
4102.84 23.0608
4102.99 22.3891
4103.13 21.7632
4103.28 21.1784
4103.57 20.1167
4103.87 19.1776
4104.16 18.3407
4104.46 17.5899
4104.75 16.9126
4105.07 16.2390
4105.40 15.6326
4105.72 15.0807
4106.04 14.5792
4106.37 14.1189
4106.69 13.6975
4107.01 13.3090
4107.34 12.9499
4107.81 12.4724
4108.28 12.0432
4108.75 11.6546
4109.22 11.3012
4109.69 10.9777
4110.16 10.6817
4110.63 10.4093
4111.10 10.1577
4111.75 9.84152
4112.39 9.55557
4113.04 9.29578
4113.69 9.05908
4114.33 8.84188
4114.98 8.64217
4116.27 8.28764
4117.57 7.98196
4118.86 7.71602
4120.15 7.48237
4121.45 7.27544
4122.74 7.09057
4124.03 6.92449
4125.33 6.77419
4126.62 6.63770
4127.91 6.51299
4129.21 6.39869
4131.79 6.19611
4134.15 6.03662
4136.50 5.89616
4138.85 5.77132
4141.20 5.65971
4143.79 5.54998
4145.08 5.49978
4146.37 5.45265
4147.67 5.40862
4148.96 5.36819
4149.61 5.34961
4150.25 5.33254
4150.90 5.31771
4151.22 5.31176
4151.55 5.30757
4151.87 5.30637
4152.03 5.30755
4152.19 5.31044
4152.36 5.31562
4152.52 5.32381
4152.68 5.33594
4152.84 5.35305
4153.00 5.37677
4153.16 5.40874
4153.33 5.45103
4153.49 5.50561
4153.65 5.57583
4153.81 5.66372
4153.89 5.71572
4153.97 5.77346
4154.05 5.83734
4154.13 5.90683
4154.25 6.02172
4154.37 6.15235
4154.49 6.29969
4154.60 6.46305
4154.72 6.64576
4154.84 6.84500
4154.96 7.06406
4155.07 7.29879
4155.19 7.55229
4155.31 7.81891
4155.43 8.10134
4155.54 8.39248
4156.01 9.61033
4156.18 10.0175
4156.34 10.3995
4156.50 10.7444
4156.58 10.8994
4156.66 11.0392
4156.80 11.2488
4156.87 11.3353
4156.94 11.4079
4157.01 11.4713
4157.09 11.5185
4157.17 11.5528
4157.25 11.5675
4157.28 11.5680
4157.34 11.5609
4157.40 11.5414
4157.51 11.4834
4157.60 11.4122
4157.68 11.3205
4157.77 11.2077
4157.85 11.0777
4157.94 10.9304
4158.03 10.7674
4158.11 10.5880
4158.20 10.3980
4158.37 9.98730
4158.56 9.49524
4158.75 8.98929
4158.91 8.58439
4159.02 8.28578
4159.14 7.99550
4159.25 7.71619
4159.37 7.45226
4159.48 7.20082
4159.60 6.96551
4159.71 6.74720
4159.83 6.54804
4159.90 6.42329
4159.98 6.30638
4160.06 6.19722
4160.13 6.09690
4160.21 6.00261
4160.29 5.91656
4160.36 5.83623
4160.44 5.76343
4160.52 5.69593
4160.59 5.63519
4160.74 5.52933
4160.90 5.44329
4161.05 5.37460
4161.17 5.33301
4161.28 5.29906
4161.40 5.27199
4161.51 5.25117
4161.63 5.23607
4161.74 5.22631
4161.86 5.22168
4161.97 5.22208
4162.13 5.23150
4162.30 5.25224
4162.46 5.28601
4162.62 5.33511
4162.78 5.40374
4162.87 5.44701
4162.95 5.49640
4163.03 5.55393
4163.11 5.61903
4163.19 5.69329
4163.27 5.77771
4163.35 5.87462
4163.43 5.98283
4163.52 6.10626
4163.60 6.24321
4163.68 6.39845
4163.76 6.56960
4163.84 6.75989
4163.92 6.97079
4164.00 7.20678
4164.09 7.46358
4164.17 7.74536
4164.25 8.05348
4164.33 8.39357
4164.41 8.75853
4164.49 9.15337
4164.57 9.57899
4164.65 10.0127
4164.73 10.4753
4164.80 10.9669
4164.88 11.4806
4164.96 12.0295
4165.03 12.5988
4165.11 13.2028
4165.19 13.8245
4165.26 14.4788
4165.34 15.1471
4165.49 16.5511
4165.64 18.0159
4165.80 19.5156
4166.09 22.3246
4166.23 23.6633
4166.37 24.9085
4166.53 26.1139
4166.60 26.6599
4166.68 27.1536
4166.78 27.7337
4166.88 28.2156
4166.98 28.6152
4167.09 28.8914
4167.16 29.0199
4167.24 29.1021
4167.29 29.1111
4167.38 29.0591
4167.46 28.9437
4167.54 28.7639
4167.63 28.4441
4167.71 28.1238
4167.79 27.7458
4167.91 27.0041
4168.04 26.1366
4168.15 25.3183
4168.25 24.4399
4168.36 23.5059
4168.46 22.5282
4168.67 20.4801
4168.88 18.4080
4169.09 16.3847
4169.20 15.4132
4169.30 14.4779
4169.42 13.4606
4169.54 12.5123
4169.60 12.0586
4169.66 11.6289
4169.72 11.2091
4169.78 10.8133
4169.84 10.4282
4169.90 10.0666
4169.96 9.71632
4170.02 9.38877
4170.08 9.07267
4170.14 8.77827
4170.20 8.49526
4170.26 8.23268
4170.32 7.98121
4170.38 7.74494
4170.44 7.52335
4170.49 7.31925
4170.55 7.12517
4170.61 6.94701
4170.67 6.77816
4170.73 6.62366
4170.79 6.47770
4170.85 6.34457
4170.91 6.21916
4170.97 6.10511
4171.09 5.90081
4171.21 5.72742
4171.29 5.62502
4171.37 5.53390
4171.45 5.45298
4171.53 5.38205
4171.61 5.31839
4171.69 5.26273
4171.85 5.16931
4172.02 5.09585
4172.18 5.03871
4172.34 4.99374
4172.50 4.95805
4172.66 4.92923
4172.82 4.90592
4173.14 4.87028
4173.47 4.84395
4173.79 4.82306
4174.11 4.80548
4174.43 4.79018
4175.08 4.76390
4175.72 4.74135
4176.37 4.72134
4177.38 4.69335
4178.38 4.66821
4179.39 4.64501
4180.40 4.62319
4181.41 4.60236
4182.42 4.58233
4184.44 4.54404
4186.46 4.50748
4188.48 4.47223
4190.49 4.43796
4192.51 4.40446
4195.20 4.36071
4197.90 4.31782
4203.28 4.23352
4208.66 4.15027
4214.04 4.06700
4219.43 3.98273
4224.81 3.89644
4230.19 3.80713
4235.57 3.71367
4240.51 3.62327
4245.44 3.52719
4250.37 3.42408
4252.84 3.36939
4255.31 3.31231
4258.45 3.23580
4261.59 3.15457
4263.16 3.11195
4264.73 3.06792
4266.30 3.02246
4267.87 2.97562
4268.93 2.94305
4270.00 2.90999
4271.06 2.87659
4272.13 2.84312
4273.19 2.81010
4273.73 2.79406
4274.26 2.77866
4274.79 2.76419
4275.32 2.75136
4275.86 2.74154
4276.12 2.73874
4276.39 2.73840
4276.60 2.74080
4276.81 2.74673
4277.02 2.75781
4277.23 2.77638
4277.44 2.80589
4277.65 2.85063
4277.75 2.88058
4277.86 2.91678
4277.96 2.96028
4278.07 3.01226
4278.18 3.07469
4278.28 3.14785
4278.39 3.23388
4278.49 3.33451
4278.60 3.45158
4278.70 3.58706
4278.81 3.74298
4278.91 3.92145
4279.02 4.12665
4279.12 4.35684
4279.23 4.61586
4279.33 4.90562
4279.44 5.22786
4279.54 5.58403
4279.65 5.97529
4279.75 6.40237
4279.83 6.74302
4279.91 7.09877
4279.98 7.47364
4280.06 7.86719
4280.14 8.27880
4280.21 8.70763
4280.29 9.15266
4280.37 9.61263
4280.52 10.5712
4280.68 11.5690
4280.98 13.6083
4281.13 14.5233
4281.27 15.3947
4281.41 16.2103
4281.55 16.9514
4281.69 17.6298
4281.77 17.9268
4281.84 18.1878
4281.92 18.4265
4281.99 18.6259
4282.10 18.8314
4282.18 18.9319
4282.26 18.9906
4282.32 19.0026
4282.40 18.9766
4282.47 18.9136
4282.54 18.8137
4282.66 18.5703
4282.73 18.3553
4282.81 18.1003
4282.96 17.5353
4283.10 16.8572
4283.24 16.0833
4283.38 15.2386
4283.53 14.3312
4283.67 13.3935
4283.98 11.2976
4284.14 10.2751
4284.29 9.30083
4284.37 8.83089
4284.45 8.37661
4284.53 7.93923
4284.60 7.51978
4284.68 7.11904
4284.76 6.73759
4284.84 6.37583
4284.91 6.03820
4285.02 5.61294
4285.12 5.22264
4285.23 4.86650
4285.33 4.54332
4285.43 4.25163
4285.54 3.98970
4285.64 3.75567
4285.75 3.54943
4285.85 3.36493
4285.95 3.20225
4286.06 3.05936
4286.16 2.93539
4286.26 2.82608
4286.37 2.73091
4286.47 2.64824
4286.58 2.57715
4286.68 2.51488
4286.78 2.46089
4286.89 2.41403
4286.99 2.37366
4287.20 2.30695
4287.41 2.25553
4287.61 2.21450
4287.82 2.18103
4288.03 2.15249
4288.24 2.12757
4288.55 2.09421
4288.86 2.06401
4289.48 2.00805
4290.10 1.95466
4290.73 1.90212
4291.45 1.84055
4292.18 1.77805
4292.91 1.71408
4293.63 1.64833
4294.36 1.58030
4295.09 1.50992
4295.81 1.43679
4296.54 1.36100
4297.11 1.29943
4297.68 1.23618
4298.25 1.17142
4298.82 1.10542
4299.39 1.03869
4299.97 0.972118
4300.54 0.907166
4300.82 0.876079
4301.11 0.846460
4301.50 0.809482
4301.89 0.778896
4302.27 0.758429
4302.47 0.753869
4302.66 0.754628
4302.86 0.762371
4303.05 0.779377
4303.25 0.808754
4303.44 0.854484
4303.64 0.922856
4303.73 0.967598
4303.83 1.02104
4303.93 1.08532
4304.03 1.16076
4304.12 1.24986
4304.22 1.35477
4304.30 1.45629
4304.38 1.57219
4304.46 1.70427
4304.54 1.85453
4304.63 2.02518
4304.71 2.21865
4304.79 2.43760
4304.87 2.68493
4304.93 2.88475
4304.99 3.09876
4305.04 3.32315
4305.10 3.56173
4305.15 3.81960
4305.21 4.09803
4305.28 4.49585
4305.35 4.92799
4305.42 5.40288
4305.49 5.92381
4305.56 6.50262
4305.63 7.12680
4305.71 7.80765
4305.78 8.54887
4305.84 9.28355
4305.91 10.0748
4305.97 10.9256
4306.04 11.8387
4306.10 12.8169
4306.17 13.8629
4306.23 14.9793
4306.30 16.1687
4306.36 17.4332
4306.43 18.7749
4306.49 20.1959
4306.56 21.6976
4306.62 23.2813
4306.69 24.9481
4306.75 26.6984
4306.82 28.5037
4306.89 30.6314
4306.96 32.8289
4307.03 35.1233
4307.10 37.5124
4307.17 40.0282
4307.24 42.5969
4307.39 47.9753
4307.50 52.6185
4307.62 57.4161
4307.85 67.2617
4308.00 73.3593
4308.14 79.3752
4308.28 85.1990
4308.42 90.6792
4308.57 95.7800
4308.71 100.322
4308.80 102.912
4308.89 105.223
4308.98 107.295
4309.08 109.010
4309.21 110.895
4309.35 111.978
4309.37 112.074
4309.44 112.254
4309.51 112.228
4309.64 111.575
4309.76 110.374
4309.88 108.626
4310.00 106.333
4310.11 103.577
4310.23 100.386
4310.35 96.8453
4310.45 93.2945
4310.56 89.5166
4310.77 81.5025
4311.01 72.2564
4311.24 63.0519
4311.40 56.9525
4311.48 53.9987
4311.56 51.1223
4311.64 48.3321
4311.72 45.6351
4311.80 43.0375
4311.88 40.5744
4311.94 38.8032
4312.00 37.0916
4312.06 35.4404
4312.12 33.8764
4312.18 32.3458
4312.23 30.9005
4312.29 29.4902
4312.35 28.1622
4312.41 26.8700
4312.47 25.6360
4312.53 24.4592
4312.59 23.3566
4312.65 22.2891
4312.70 21.2913
4312.76 20.3272
4312.82 19.4279
4312.89 18.4042
4312.96 17.4584
4313.03 16.5725
4313.10 15.7435
4313.17 14.9576
4313.24 14.2343
4313.31 13.5592
4313.37 12.9294
4313.44 12.3340
4313.51 11.7871
4313.58 11.2776
4313.65 10.8027
4313.72 10.3541
4313.79 9.94215
4313.86 9.55816
4313.93 9.20005
4314.05 8.64218
4314.16 8.14961
4314.28 7.70964
4314.40 7.31545
4314.52 6.95817
4314.63 6.63858
4314.75 6.34891
4314.87 6.08521
4314.98 5.84210
4315.10 5.62076
4315.22 5.41652
4315.34 5.22724
4315.45 5.05108
4315.57 4.88648
4315.80 4.58679
4315.97 4.38873
4316.14 4.20647
4316.32 4.03582
4316.49 3.87712
4316.66 3.72716
4316.83 3.58655
4317.17 3.32641
4317.51 3.09080
4317.85 2.87539
4318.19 2.67694
4318.53 2.49298
4318.77 2.37363
4319.00 2.26025
4319.24 2.15145
4319.47 2.04785
4319.70 1.94831
4319.94 1.85348
4320.17 1.76281
4320.41 1.67623
4320.64 1.59339
4320.88 1.51504
4321.11 1.44062
4321.34 1.37096
4321.58 1.30571
4321.81 1.24578
4322.05 1.19131
4322.28 1.14283
4322.55 1.09572
4322.81 1.05864
4323.08 1.03287
4323.35 1.02051
4323.61 1.02386
4323.75 1.03234
4323.88 1.04590
4324.01 1.06523
4324.15 1.09059
4324.28 1.12273
4324.41 1.16238
4324.61 1.23450
4324.80 1.32683
4324.85 1.35633
4324.97 1.43217
4325.10 1.51853
4325.18 1.58674
4325.27 1.66066
4325.35 1.74157
4325.44 1.83004
4325.52 1.92788
4325.61 2.03351
4325.69 2.14879
4325.78 2.27455
4325.91 2.48577
4326.03 2.72644
4326.10 2.85908
4326.16 3.00069
4326.23 3.15189
4326.29 3.31333
4326.35 3.48575
4326.42 3.66990
4326.48 3.86664
4326.55 4.07684
4326.61 4.30148
4326.67 4.54158
4326.74 4.79825
4326.80 5.06824
4326.86 5.33778
4326.92 5.62454
4326.98 5.92964
4327.04 6.24863
4327.09 6.59377
4327.15 6.95465
4327.21 7.34513
4327.27 7.75345
4327.33 8.19526
4327.39 8.65723
4327.45 9.15703
4327.50 9.67955
4327.56 10.2447
4327.62 10.8354
4327.68 11.4742
4327.74 12.1414
4327.80 12.8626
4327.86 13.6290
4327.91 14.4432
4327.97 15.2928
4328.03 16.2097
4328.09 17.1657
4328.15 18.1966
4328.21 19.2704
4328.27 20.4271
4328.32 21.6520
4328.38 22.9482
4328.44 24.2951
4328.50 25.7425
4328.56 27.2445
4328.62 28.8562
4328.68 30.5262
4328.76 33.1654
4328.85 35.9740
4328.93 38.9911
4329.02 42.2257
4329.10 45.7285
4329.19 49.4258
4329.27 53.3640
4329.36 57.5487
4329.42 60.6009
4329.48 63.7752
4329.59 70.4342
4329.71 77.5779
4329.83 85.2007
4329.94 93.3608
4330.06 101.898
4330.18 110.850
4330.30 120.176
4330.41 129.911
4330.53 139.831
4330.76 160.189
4331.00 180.690
4331.23 200.583
4331.36 211.075
4331.49 220.988
4331.62 230.186
4331.75 238.537
4331.90 246.756
4332.04 253.603
4332.19 258.956
4332.34 262.701
4332.44 264.414
4332.53 265.163
4332.61 265.321
4332.70 264.903
4332.79 263.918
4332.87 262.378
4332.96 260.300
4333.13 254.612
4333.24 249.798
4333.36 244.232
4333.47 237.991
4333.59 231.220
4333.71 223.419
4333.83 215.221
4334.07 197.857
4334.29 181.284
4334.51 164.796
4334.62 156.705
4334.73 148.781
4334.84 141.067
4334.95 133.600
4335.06 126.344
4335.17 119.452
4335.28 112.876
4335.39 106.626
4335.50 100.658
4335.61 95.0805
4335.72 89.8364
4335.83 84.9203
4335.90 82.1248
4335.96 79.4820
4336.03 76.9465
4336.09 74.5155
4336.16 72.1864
4336.22 69.9563
4336.29 67.8221
4336.35 65.7806
4336.42 63.8287
4336.48 61.9632
4336.55 60.1807
4336.61 58.4780
4336.68 56.8519
4336.74 55.2991
4336.81 53.8164
4336.87 52.4008
4336.98 50.1296
4337.09 48.0485
4337.20 46.1225
4337.31 44.3390
4337.42 42.6715
4337.53 41.1387
4337.64 39.7147
4337.75 38.3901
4337.86 37.1453
4337.97 35.9948
4338.08 34.9196
4338.19 33.9133
4338.30 32.9697
4338.41 32.0837
4338.52 31.2502
4338.63 30.4649
4338.85 29.0171
4339.07 27.7261
4339.30 26.5577
4339.52 25.5043
4339.74 24.5411
4339.96 23.6645
4340.18 22.8598
4340.40 22.1183
4340.59 21.5202
4340.78 20.9630
4340.97 20.4400
4341.16 19.9481
4341.54 19.0450
4341.92 18.2400
4342.30 17.5144
4342.68 16.8601
4343.06 16.2643
4343.44 15.7221
4343.88 15.1495
4344.32 14.6298
4344.76 14.1559
4345.20 13.7230
4345.64 13.3244
4346.09 12.9568
4346.53 12.6168
4346.97 12.3021
4347.57 11.9072
4348.17 11.5477
4348.77 11.2191
4349.37 10.9175
4349.97 10.6396
4350.57 10.3827
4351.17 10.1444
4351.77 9.92302
4352.66 9.62428
4353.54 9.35351
4354.42 9.10635
4355.30 8.88027
4356.18 8.67214
4357.06 8.48026
4357.94 8.30233
4358.83 8.13718
4359.79 7.96961
4360.75 7.81408
4362.67 7.53346
4364.59 7.28711
4366.52 7.06864
4368.28 6.88839
4370.04 6.72434
4371.81 6.57420
4373.57 6.43602
4375.33 6.30819
4377.10 6.18936
4380.62 5.97435
4384.79 5.75121
4388.95 5.55365
4393.12 5.37570
4397.29 5.21226
4401.13 5.07122
4404.98 4.93736
4408.83 4.80876
4412.67 4.68376
4416.04 4.57616
4419.40 4.46925
4422.77 4.36207
4426.13 4.25382
4429.50 4.14350
4432.86 4.03021
4436.23 3.91294
4439.60 3.79045
4443.12 3.65497
4446.65 3.51055
4450.17 3.35500
4451.94 3.27228
4453.70 3.18585
4455.30 3.10361
4456.90 3.01757
4458.51 2.92737
4460.11 2.83266
4461.71 2.73287
4463.31 2.62766
4464.92 2.51640
4466.52 2.39862
4468.28 2.26056
4470.04 2.11288
4470.93 2.03514
4471.81 1.95479
4472.69 1.87167
4473.57 1.78572
4474.45 1.69682
4475.33 1.60517
4476.21 1.51064
4477.10 1.41362
4477.98 1.31418
4478.86 1.21303
4479.74 1.11066
4480.62 1.00841
4481.30 0.930280
4481.98 0.854277
4482.67 0.781703
4483.35 0.714470
4483.69 0.683594
4484.03 0.655186
4484.37 0.629560
4484.71 0.607430
4485.05 0.589332
4485.39 0.576155
4485.73 0.568753
4486.07 0.568272
4486.43 0.576770
4486.61 0.585035
4486.79 0.596332
4486.97 0.611050
4487.15 0.629358
4487.33 0.651692
4487.51 0.678457
4487.59 0.691890
4487.85 0.742948
4488.11 0.806103
4488.37 0.883762
4488.50 0.928464
4488.63 0.977586
4488.86 1.07223
4489.08 1.18205
4489.30 1.31027
4489.41 1.38156
4489.52 1.45831
4489.63 1.54167
4489.74 1.63059
4489.85 1.72625
4489.96 1.82915
4490.07 1.93986
4490.18 2.05897
4490.29 2.18716
4490.40 2.32516
4490.49 2.44728
4490.58 2.57569
4490.67 2.71218
4490.76 2.85733
4490.85 3.01173
4490.94 3.17605
4491.03 3.35100
4491.12 3.53735
4491.21 3.73822
4491.30 3.95014
4491.39 4.17625
4491.48 4.41763
4491.57 4.67548
4491.66 4.95112
4491.75 5.24595
4491.84 5.56155
4491.95 5.98191
4492.06 6.43567
4492.17 6.93028
4492.28 7.47002
4492.34 7.75827
4492.39 8.05963
4492.45 8.37476
4492.50 8.70439
4492.56 9.04927
4492.61 9.41018
4492.67 9.78798
4492.72 10.1835
4492.78 10.6055
4492.83 11.0397
4492.89 11.4946
4492.94 11.9713
4493.00 12.4709
4493.05 12.9945
4493.11 13.5434
4493.16 14.1189
4493.22 14.7336
4493.27 15.3670
4493.33 16.0312
4493.38 16.7278
4493.44 17.4584
4493.49 18.2246
4493.55 19.0282
4493.60 19.8710
4493.66 20.7712
4493.71 21.6988
4493.77 22.6713
4493.82 23.6908
4493.88 24.7595
4493.93 25.8795
4493.99 27.0530
4494.04 28.2822
4494.10 29.5697
4494.15 30.9176
4494.21 32.3284
4494.26 33.8046
4494.32 35.3486
4494.37 36.9631
4494.43 38.6504
4494.48 40.4131
4494.54 42.2880
4494.59 44.2106
4494.70 48.3075
4494.81 52.7563
4494.92 57.5758
4495.03 62.7836
4495.14 68.3956
4495.25 74.4256
4495.36 80.8846
4495.48 87.8452
4495.59 95.1860
4495.70 102.967
4495.81 111.184
4495.92 119.907
4496.03 128.961
4496.14 138.401
4496.25 148.198
4496.41 163.105
4496.57 178.464
4496.73 194.200
4496.89 210.120
4497.16 236.685
4497.29 249.618
4497.43 261.988
4497.54 271.859
4497.65 281.208
4497.76 289.948
4497.87 297.928
4497.98 305.213
4498.10 311.658
4498.21 317.198
4498.32 321.742
4498.41 324.705
4498.50 326.980
4498.61 328.874
4498.72 329.739
4498.88 329.169
4499.04 326.480
4499.17 322.525
4499.21 321.280
4499.28 318.263
4499.37 314.201
4499.39 313.512
4499.43 311.261
4499.48 308.883
4499.56 304.067
4499.67 296.799
4499.80 287.537
4499.93 277.971
4500.06 267.905
4500.17 258.328
4500.28 248.554
4500.51 228.517
4500.82 200.869
4500.97 187.458
4501.13 174.486
4501.26 163.871
4501.39 153.789
4501.52 144.198
4501.65 135.128
4501.79 126.531
4501.85 122.441
4501.92 118.547
4501.98 114.731
4502.05 111.106
4502.11 107.559
4502.18 104.198
4502.25 100.915
4502.31 97.7604
4502.38 94.7324
4502.44 91.8705
4502.51 89.0836
4502.57 86.4131
4502.64 83.8554
4502.71 81.4431
4502.77 79.0984
4502.84 76.8553
4502.90 74.7099
4502.97 72.6890
4503.03 70.7264
4503.10 68.8502
4503.17 67.0567
4503.23 65.3675
4503.29 63.9466
4503.35 62.5797
4503.40 61.2647
4503.46 60.0211
4503.52 58.8024
4503.57 57.6294
4503.69 55.4309
4503.80 53.3721
4503.91 51.4755
4504.03 49.7098
4504.14 48.0636
4504.25 46.5134
4504.37 45.0768
4504.48 43.7196
4504.59 42.4575
4504.71 41.2612
4504.82 40.1451
4504.93 39.0927
4505.05 38.0988
4505.18 37.0055
4505.31 35.9866
4505.44 35.0205
4505.57 34.1167
4505.70 33.2568
4505.83 32.4497
4506.10 30.9595
4506.36 29.6097
4506.62 28.3859
4506.89 27.2713
4507.15 26.2557
4507.48 25.0768
4507.82 24.0172
4508.15 23.0572
4508.48 22.1835
4508.82 21.3828
4509.15 20.6508
4509.49 19.9771
4509.82 19.3552
4510.35 18.4672
4510.87 17.6770
4511.40 16.9668
4511.92 16.3277
4512.45 15.7474
4512.97 15.2204
4513.50 14.7388
4514.02 14.2971
4514.55 13.8898
4515.08 13.5144
4515.60 13.1662
4516.13 12.8435
4516.65 12.5425
4517.18 12.2621
4518.23 11.7537
4519.23 11.3244
4520.23 10.9408
4521.24 10.5958
4522.24 10.2838
4523.24 10.0003
4524.25 9.74147
4525.25 9.50418
4526.25 9.28597
4527.30 9.07490
4528.35 8.87990
4529.40 8.69912
4530.45 8.53114
4532.56 8.22746
4534.66 7.96033
4536.38 7.76405
4538.10 7.58495
4539.82 7.42026
4541.53 7.26791
4543.25 7.12633
4544.97 6.99432
4548.41 6.75422
4551.85 6.53983
4555.29 6.34548
4558.73 6.16667
4562.17 5.99984
4564.27 5.90249
4566.37 5.80797
4568.47 5.71570
4570.57 5.62521
4572.67 5.53603
4574.78 5.44786
4576.88 5.36036
4578.98 5.27333
4580.41 5.21424
4581.84 5.15546
4583.28 5.09722
4584.71 5.03998
4586.14 4.98453
4586.86 4.95794
4587.57 4.93257
4588.29 4.90881
4589.01 4.88743
4589.72 4.86949
4590.44 4.85703
4590.82 4.85408
4591.20 4.85550
4591.59 4.86422
4591.78 4.87291
4591.97 4.88584
4592.16 4.90449
4592.35 4.93080
4592.54 4.96737
4592.73 5.01751
4592.92 5.08542
4593.02 5.12784
4593.11 5.17624
4593.21 5.23245
4593.31 5.29617
4593.40 5.36969
4593.50 5.45246
4593.63 5.58596
4593.76 5.74234
4593.89 5.92698
4594.02 6.14011
4594.09 6.25972
4594.15 6.38801
4594.22 6.52534
4594.29 6.66975
4594.35 6.82600
4594.42 6.98963
4594.48 7.16595
4594.55 7.34984
4594.61 7.54714
4594.68 7.75526
4594.75 7.97430
4594.81 8.20074
4594.88 8.44156
4594.94 8.68939
4595.01 8.95174
4595.07 9.22048
4595.14 9.50363
4595.20 9.79680
4595.34 10.4068
4595.47 11.0507
4595.60 11.7235
4595.80 12.8086
4596.00 13.9216
4596.21 15.0326
4596.41 16.1110
4596.52 16.6616
4596.62 17.1866
4596.73 17.6928
4596.84 18.1688
4596.95 18.6223
4597.05 19.0448
4597.19 19.5275
4597.26 19.7986
4597.33 20.0195
4597.41 20.2660
4597.42 20.3043
4597.45 20.4056
4597.48 20.5059
4597.56 20.7383
4597.64 20.9843
4597.75 21.3475
4597.84 21.6297
4597.93 21.9257
4598.05 22.3545
4598.16 22.8289
4598.24 23.1611
4598.31 23.5173
4598.38 23.9055
4598.46 24.3290
4598.53 24.7977
4598.60 25.3018
4598.68 25.8503
4598.75 26.4455
4598.84 27.2280
4598.93 28.0741
4599.01 28.9283
4599.09 29.8471
4599.17 30.8305
4599.25 31.8641
4599.41 34.1385
4599.57 36.6163
4599.73 39.2701
4599.89 42.0458
4600.22 47.6861
4600.38 50.4071
4600.54 52.9190
4600.67 54.7752
4600.80 56.3889
4600.96 58.0103
4601.11 59.0674
4601.20 59.5030
4601.28 59.7655
4601.40 59.8931
4601.42 59.8852
4601.42 59.8817
4601.44 59.8682
4601.45 59.8498
4601.48 59.8005
4601.54 59.6472
4601.66 59.1068
4601.79 58.2102
4601.91 57.0049
4602.00 55.9412
4602.09 54.7312
4602.22 52.8512
4602.34 50.7486
4602.46 48.6667
4602.57 46.4574
4602.80 41.7936
4603.14 34.5256
4603.31 30.9708
4603.48 27.5848
4603.63 24.8000
4603.70 23.4739
4603.78 22.1958
4603.85 20.9678
4603.92 19.7915
4604.00 18.6681
4604.07 17.5983
4604.15 16.5826
4604.22 15.6208
4604.29 14.7126
4604.37 13.8573
4604.44 13.0540
4604.52 12.3013
4604.59 11.5978
4604.66 10.9419
4604.74 10.3318
4604.81 9.76566
4604.89 9.24138
4604.96 8.75692
4605.03 8.31018
4605.11 7.89902
4605.18 7.52132
4605.26 7.17497
4605.33 6.85789
4605.40 6.56806
4605.48 6.30351
4605.55 6.06235
4605.63 5.84275
4605.70 5.64300
4605.77 5.46144
4605.85 5.29653
4605.92 5.14680
4606.00 5.01089
4606.07 4.88752
4606.14 4.77551
4606.29 4.58128
4606.44 4.42046
4606.59 4.28655
4606.74 4.17415
4606.88 4.07889
4607.03 3.99769
4607.26 3.89183
4607.49 3.80368
4607.72 3.72781
4607.94 3.66077
4608.17 3.59946
4608.40 3.54247
4608.85 3.43735
4609.31 3.33915
4609.76 3.24521
4610.22 3.15347
4610.67 3.06266
4611.18 2.96266
4611.68 2.86176
4612.18 2.75923
4612.68 2.65473
4613.18 2.54740
4613.68 2.43715
4614.18 2.32384
4614.68 2.20774
4615.18 2.08871
4615.68 1.96772
4616.18 1.84618
4616.43 1.78580
4616.68 1.72656
4616.94 1.66858
4617.19 1.61313
4617.44 1.56081
4617.69 1.51347
4617.94 1.47267
4618.19 1.44142
4618.44 1.42326
4618.69 1.42345
4618.92 1.44593
4619.03 1.46759
4619.14 1.49783
4619.26 1.53813
4619.37 1.59023
4619.49 1.65617
4619.60 1.73755
4619.71 1.83860
4619.83 1.96193
4619.94 2.11131
4620.05 2.28941
4620.17 2.50439
4620.22 2.62695
4620.28 2.76059
4620.34 2.90617
4620.40 3.06460
4620.45 3.23685
4620.51 3.42051
4620.60 3.75607
4620.69 4.13358
4620.74 4.34331
4620.78 4.56166
4620.83 4.79907
4620.87 5.04596
4620.94 5.41736
4621.00 5.82078
4621.06 6.25847
4621.12 6.72497
4621.19 7.23777
4621.25 7.78306
4621.31 8.38105
4621.37 9.01542
4621.43 9.67520
4621.49 10.3826
4621.55 11.1403
4621.61 11.9368
4621.67 12.8018
4621.73 13.7250
4621.79 14.7088
4621.85 15.7382
4621.91 16.8505
4621.97 18.0316
4622.03 19.2840
4622.09 20.5875
4622.15 21.9888
4622.21 23.4686
4622.27 25.0293
4622.33 26.6448
4622.40 28.7871
4622.48 31.0615
4622.55 33.4707
4622.63 36.0167
4622.70 38.7011
4622.77 41.5245
4622.85 44.4869
4622.92 47.5874
4622.99 50.3345
4623.05 53.1328
4623.17 59.0515
4623.30 65.3203
4623.42 71.9065
4623.55 78.8248
4623.67 85.9142
4623.92 100.522
4624.06 108.605
4624.20 116.549
4624.32 123.687
4624.45 130.575
4624.57 137.125
4624.70 143.248
4624.84 149.621
4624.98 155.171
4625.08 158.654
4625.19 161.641
4625.29 164.107
4625.39 166.011
4625.43 166.524
4625.50 167.376
4625.61 168.212
4625.72 168.372
4625.83 167.872
4625.94 166.726
4626.04 165.231
4626.13 163.288
4626.23 160.921
4626.32 158.187
4626.42 155.059
4626.52 151.595
4626.71 143.801
4626.90 135.096
4627.09 125.828
4627.44 108.259
4627.61 99.5337
4627.79 91.1282
4627.88 86.6519
4627.98 82.3124
4628.08 78.1236
4628.17 74.1380
4628.27 70.2804
4628.36 66.5999
4628.46 63.1005
4628.55 59.8180
4628.67 56.1158
4628.73 54.3608
4628.78 52.6982
4628.84 51.0679
4628.89 49.5261
4628.95 48.0168
4629.01 46.5917
4629.06 45.1986
4629.12 43.8622
4629.18 42.5810
4629.23 41.3745
4629.29 40.1980
4629.35 39.0914
4629.46 37.0003
4629.56 35.3648
4629.65 33.8504
4629.75 32.4490
4629.84 31.1529
4629.94 29.9543
4630.04 28.8460
4630.13 27.8210
4630.23 26.8822
4630.32 26.0035
4630.42 25.1894
4630.52 24.4344
4630.61 23.7405
4630.71 23.0884
4630.80 22.4814
4630.90 21.9155
4630.99 21.3924
4631.19 20.4344
4631.38 19.5906
4631.57 18.8422
4631.76 18.1771
4631.95 17.5758
4632.14 17.0319
4632.34 16.5370
4632.53 16.0867
4632.86 15.3899
4633.19 14.7805
4633.52 14.2422
4633.85 13.7626
4634.18 13.3322
4634.51 12.9436
4634.84 12.5908
4635.18 12.2689
4635.56 11.9289
4635.94 11.6209
4636.33 11.3391
4636.71 11.0814
4637.09 10.8437
4637.48 10.6249
4638.24 10.2337
4638.80 9.98186
4639.36 9.75386
4639.92 9.54567
4640.47 9.35540
4641.03 9.18014
4641.59 9.01868
4642.70 8.72999
4643.47 8.55404
4644.24 8.39361
4645.00 8.24666
4645.77 8.11167
4647.30 7.87115
4648.84 7.66335
4649.88 7.53681
4650.93 7.42083
4653.02 7.21501
4655.11 7.03729
4657.20 6.88163
4658.73 6.77895
4660.27 6.68454
4663.33 6.51605
4666.40 6.36933
4669.47 6.23961
4673.37 6.09361
4675.32 6.02716
4677.27 5.96446
4680.34 5.87261
4681.87 5.82954
4683.41 5.78838
4684.94 5.74920
4686.47 5.71242
4687.24 5.69514
4688.01 5.67883
4688.78 5.66380
4689.54 5.65065
4689.96 5.64462
4690.38 5.63987
4690.80 5.63715
4691.21 5.63808
4691.42 5.64088
4691.63 5.64614
4691.84 5.65490
4692.05 5.66868
4692.26 5.68955
4692.47 5.72039
4692.68 5.76501
4692.78 5.79415
4692.89 5.82840
4693.04 5.89212
4693.20 5.97317
4693.36 6.07524
4693.51 6.20246
4693.59 6.27741
4693.67 6.35939
4693.75 6.45111
4693.83 6.55088
4693.91 6.66190
4693.99 6.78199
4694.06 6.91310
4694.14 7.05585
4694.22 7.21288
4694.30 7.38078
4694.38 7.56438
4694.46 7.75949
4694.53 7.97154
4694.61 8.19548
4694.69 8.43417
4694.77 8.68774
4694.85 8.95980
4694.93 9.24339
4695.00 9.54559
4695.08 9.85843
4695.16 10.1895
4695.24 10.5297
4695.32 10.8824
4695.40 11.2468
4695.52 11.8373
4695.64 12.4487
4695.88 13.7098
4696.13 14.9738
4696.25 15.5865
4696.37 16.1745
4696.49 16.6938
4696.60 17.1725
4696.71 17.6085
4696.82 17.9955
4696.94 18.3303
4697.05 18.6019
4697.19 18.8476
4697.29 18.9574
4697.36 19.0072
4697.44 19.0279
4697.45 19.0279
4697.45 19.0278
4697.46 19.0272
4697.47 19.0262
4697.49 19.0229
4697.52 19.0107
4697.60 18.9606
4697.68 18.8741
4697.81 18.6605
4697.91 18.4322
4698.01 18.1564
4698.12 17.8312
4698.22 17.4668
4698.32 17.0604
4698.42 16.6246
4698.53 16.1227
4698.64 15.5941
4698.86 14.4825
4699.29 12.2158
4699.42 11.5949
4699.54 11.0017
4699.66 10.4313
4699.79 9.89681
4699.91 9.39225
4699.97 9.15352
4700.03 8.92768
4700.09 8.70741
4700.16 8.49989
4700.22 8.29830
4700.28 8.10912
4700.34 7.92606
4700.40 7.75219
4700.53 7.43383
4700.65 7.14952
4700.77 6.89738
4700.90 6.67360
4701.02 6.47945
4701.14 6.31059
4701.26 6.16459
4701.38 6.04474
4701.50 5.94222
4701.61 5.85408
4701.73 5.77859
4701.85 5.71413
4701.96 5.65925
4702.08 5.61261
4702.19 5.57302
4702.31 5.53916
4702.43 5.51068
4702.54 5.48646
4702.66 5.46581
4702.89 5.43291
4703.12 5.40823
4703.36 5.38906
4703.59 5.37375
4703.82 5.36097
4704.05 5.34991
4704.52 5.33105
4704.98 5.31477
4705.44 5.29998
4705.91 5.28625
4706.84 5.26079
4707.77 5.23716
4708.69 5.21475
4710.20 5.17991
4711.71 5.14635
4713.22 5.11361
4714.73 5.08140
4717.75 5.01792
4720.77 4.95486
4723.79 4.89173
4726.80 4.82809
4732.84 4.69770
4737.95 4.58235
4743.06 4.46047
4748.16 4.32984
4753.27 4.18791
4758.15 4.03884
4763.02 3.87290
4767.90 3.68525
4770.34 3.58144
4772.77 3.46988
4775.33 3.34306
4777.88 3.20458
4780.43 3.05261
4782.99 2.88490
4785.54 2.69873
4786.82 2.59775
4788.10 2.49092
4789.37 2.37777
4790.65 2.25780
4791.93 2.13053
4793.20 1.99548
4794.48 1.85216
4795.76 1.70022
4797.04 1.53959
4798.31 1.37067
4799.07 1.26734
4799.82 1.16209
4800.58 1.05534
4801.33 0.948380
4802.09 0.842435
4802.84 0.739959
4803.22 0.690782
4803.59 0.643861
4803.97 0.599694
4804.35 0.559044
4804.68 0.526715
4805.02 0.498660
4805.35 0.475821
4805.68 0.459367
4806.02 0.450561
4806.35 0.451104
4806.68 0.463011
4806.85 0.473983
4807.02 0.488667
4807.21 0.511524
4807.41 0.540812
4807.50 0.556118
4807.69 0.594521
4807.84 0.631651
4807.99 0.674328
4808.14 0.723361
4808.29 0.779400
4808.47 0.853554
4808.64 0.938706
4808.82 1.03667
4808.99 1.14909
4809.17 1.27783
4809.34 1.42508
4809.51 1.59336
4809.60 1.68629
4809.69 1.78562
4809.85 1.98654
4809.93 2.09665
4810.01 2.21377
4810.09 2.33838
4810.17 2.47097
4810.25 2.61210
4810.33 2.76044
4810.41 2.92036
4810.49 3.09075
4810.57 3.27236
4810.65 3.46600
4810.73 3.67256
4810.81 3.89300
4810.89 4.12834
4810.97 4.37648
4811.05 4.64488
4811.13 4.93183
4811.21 5.23875
4811.28 5.56294
4811.36 5.91425
4811.44 6.29050
4811.52 6.69365
4811.60 7.12019
4811.68 7.58315
4811.76 8.07975
4811.84 8.61259
4811.92 9.17707
4812.00 9.79044
4812.08 10.4490
4812.16 11.1562
4812.24 11.9059
4812.32 12.7208
4812.40 13.5959
4812.48 14.5357
4812.56 15.5446
4812.64 16.6275
4812.72 17.7895
4812.80 19.0360
4812.88 20.3551
4812.96 21.7860
4813.04 23.3186
4813.12 24.9588
4813.20 26.6905
4813.28 28.5637
4813.36 30.5638
4813.44 32.6975
4813.52 34.9418
4813.60 37.3602
4813.68 39.9316
4813.76 42.6623
4813.84 45.5212
4813.92 48.5863
4814.00 51.8281
4814.08 55.2515
4814.16 58.8147
4814.24 62.6118
4814.32 66.6020
4814.40 70.7879
4814.48 75.1708
4814.56 79.7515
4814.64 84.5293
4814.72 89.5027
4814.80 94.6031
4814.96 105.491
4815.11 117.008
4815.27 129.225
4815.43 141.894
4815.75 168.392
4816.07 195.263
4816.24 209.298
4816.41 222.672
4816.58 235.284
4816.75 246.734
4816.94 257.579
4817.12 266.633
4817.21 270.438
4817.30 273.679
4817.39 276.409
4817.49 278.554
4817.62 280.685
4817.73 281.508
4817.84 281.516
4817.94 280.730
4818.05 279.166
4818.16 276.823
4818.27 273.777
4818.38 270.046
4818.49 265.675
4818.63 258.936
4818.77 251.272
4818.92 242.818
4819.06 233.717
4819.28 218.884
4819.50 203.369
4819.72 187.633
4819.94 172.151
4820.07 163.323
4820.20 154.793
4820.32 146.536
4820.45 138.589
4820.58 130.922
4820.70 123.676
4820.83 116.803
4820.96 110.310
4821.09 104.152
4821.21 98.4228
4821.34 93.0240
4821.47 88.0291
4821.60 83.3455
4821.72 79.0306
4821.85 75.0293
4821.98 71.3234
4822.09 68.3380
4822.20 65.5481
4822.31 62.9417
4822.42 60.5069
4822.53 58.2322
4822.64 56.1065
4822.75 54.1194
4822.86 52.2770
4822.97 50.5361
4823.08 48.9054
4823.19 47.3765
4823.30 45.9542
4823.52 43.3368
4823.73 41.0261
4823.86 39.7944
4823.99 38.6496
4824.24 36.5656
4824.50 34.7122
4824.75 33.0673
4825.01 31.5886
4825.26 30.2642
4825.52 29.0651
4825.77 27.9867
4825.90 27.4836
4826.03 27.0097
4826.15 26.5569
4826.28 26.1315
4826.41 25.7264
4826.54 25.3475
4826.66 24.9916
4826.79 24.6586
4826.92 24.3460
4827.04 24.0590
4827.17 23.7952
4827.30 23.5546
4827.43 23.3359
4827.55 23.1425
4827.68 22.9726
4827.81 22.8258
4827.90 22.7329
4827.99 22.6527
4828.09 22.5832
4828.18 22.5255
4828.27 22.4780
4828.36 22.4409
4828.55 22.3937
4828.73 22.3774
4829.10 22.4037
4829.29 22.4265
4829.47 22.4414
4829.60 22.4412
4829.73 22.4285
4829.85 22.4001
4829.98 22.3530
4830.10 22.2915
4830.21 22.2115
4830.34 22.0986
4830.41 22.0269
4830.48 21.9401
4830.49 21.9340
4830.51 21.9104
4830.53 21.8862
4830.56 21.8375
4830.63 21.7419
4830.76 21.5385
4830.88 21.3346
4830.99 21.1105
4831.12 20.8374
4831.25 20.5455
4831.38 20.2357
4831.51 19.9111
4831.62 19.6251
4831.73 19.3329
4831.95 18.7381
4832.17 18.1433
4832.39 17.5659
4832.50 17.2853
4832.61 17.0128
4832.72 16.7494
4832.83 16.4982
4832.94 16.2553
4833.05 16.0235
4833.16 15.8031
4833.27 15.5959
4833.41 15.3411
4833.55 15.1068
4833.70 14.8903
4833.84 14.6906
4833.98 14.5067
4834.12 14.3372
4834.26 14.1809
4834.41 14.0365
4834.55 13.9027
4834.69 13.7782
4834.83 13.6619
4834.97 13.5529
4835.12 13.4501
4835.26 13.3527
4835.54 13.1714
4835.83 13.0039
4836.11 12.8478
4836.39 12.7004
4836.68 12.5601
4837.25 12.2961
4837.82 12.0516
4838.38 11.8231
4838.95 11.6094
4840.09 11.2199
4840.97 10.9486
4841.85 10.7002
4842.72 10.4716
4843.60 10.2604
4845.36 9.88237
4847.11 9.55427
4849.39 9.18834
4851.66 8.87543
4853.93 8.60439
4856.21 8.36709
4859.72 8.05292
4863.23 7.78851
4866.75 7.56170
4870.26 7.36465
4874.81 7.14408
4879.35 6.95378
4883.90 6.78693
4888.45 6.63857
4891.75 6.54007
4895.06 6.44825
4899.61 6.33114
4904.15 6.22298
4908.70 6.12235
4910.97 6.07462
4913.25 6.02857
4915.00 5.99417
4916.76 5.96094
4918.52 5.92906
4920.27 5.89888
4922.03 5.87098
4922.91 5.85820
4923.79 5.84649
4924.67 5.83618
4925.54 5.82779
4926.42 5.82204
4927.30 5.82011
4928.13 5.82365
4928.54 5.82833
4928.95 5.83587
4929.42 5.84942
4929.88 5.87192
4930.12 5.88880
4930.35 5.91141
4930.58 5.94252
4930.81 5.98562
4931.05 6.04652
4931.16 6.08572
4931.28 6.13238
4931.39 6.18845
4931.51 6.25462
4931.63 6.33324
4931.74 6.42648
4931.86 6.53785
4931.98 6.66824
4932.09 6.82163
4932.21 7.00144
4932.32 7.21337
4932.44 7.45787
4932.56 7.74094
4932.67 8.06713
4932.78 8.42057
4932.89 8.82117
4933.00 9.27304
4933.06 9.51947
4933.11 9.78024
4933.17 10.0558
4933.22 10.3467
4933.28 10.6533
4933.33 10.9760
4933.39 11.3152
4933.44 11.6713
4933.50 12.0446
4933.55 12.4282
4933.61 12.8364
4933.66 13.2625
4933.72 13.7067
4933.77 14.1689
4933.83 14.6493
4933.88 15.1478
4933.99 16.1887
4934.10 17.3087
4934.21 18.4956
4934.32 19.7449
4934.43 21.0387
4934.53 22.3184
4934.64 23.6221
4934.84 26.3170
4935.05 29.0448
4935.26 31.7008
4935.37 33.0608
4935.48 34.3600
4935.59 35.5831
4935.70 36.7049
4935.84 38.0085
4935.98 39.1003
4936.12 39.9764
4936.25 40.5500
4936.32 40.7735
4936.39 40.9297
4936.50 41.0360
4936.52 41.0388
4936.62 40.9687
4936.70 40.8147
4936.77 40.5960
4936.88 40.1481
4937.03 39.2970
4937.15 38.4107
4937.27 37.3686
4937.37 36.3915
4937.47 35.3282
4937.58 34.1900
4937.68 32.9889
4937.85 30.7940
4938.03 28.5087
4938.38 23.9151
4938.56 21.5236
4938.66 20.3816
4938.75 19.2780
4938.85 18.2061
4938.94 17.1918
4939.04 16.2265
4939.13 15.3121
4939.22 14.4409
4939.32 13.6321
4939.41 12.8762
4939.51 12.1728
4939.60 11.5143
4939.70 10.9133
4939.79 10.3608
4939.88 9.85492
4939.98 9.36083
4940.09 8.91509
4940.19 8.51463
4940.29 8.15626
4940.39 7.83679
4940.49 7.55303
4940.59 7.30188
4940.69 7.08031
4940.79 6.88544
4940.89 6.71455
4940.99 6.56508
4941.10 6.43465
4941.20 6.32105
4941.30 6.22229
4941.40 6.13653
4941.50 6.06281
4941.60 5.99820
4941.70 5.94216
4941.90 5.85126
4942.10 5.78239
4942.31 5.72963
4942.51 5.68861
4942.71 5.65608
4942.91 5.62973
4943.11 5.60799
4943.49 5.57554
4943.87 5.55040
4944.24 5.53045
4944.62 5.51518
4945.00 5.50547
4945.19 5.50342
4945.38 5.50390
4945.56 5.50762
4945.75 5.51545
4945.94 5.52855
4946.13 5.54830
4946.34 5.58139
4946.56 5.62817
4946.78 5.69241
4946.88 5.73213
4946.99 5.77708
4947.10 5.82857
4947.21 5.88663
4947.31 5.95170
4947.42 6.02344
4947.53 6.10352
4947.64 6.19072
4947.74 6.28685
4947.85 6.39022
4947.96 6.50273
4948.07 6.62333
4948.18 6.75174
4948.28 6.88625
4948.39 7.02881
4948.50 7.17606
4948.71 7.48641
4949.14 8.13292
4949.36 8.44394
4949.47 8.59145
4949.57 8.72956
4949.70 8.87518
4949.82 9.00490
4949.94 9.11785
4950.06 9.21213
4950.17 9.28295
4950.29 9.33395
4950.40 9.36388
4950.48 9.37455
4950.53 9.37554
4950.53 9.37542
4950.55 9.37461
4950.57 9.37316
4950.61 9.36836
4950.69 9.35171
4950.82 9.30142
4950.96 9.22036
4951.10 9.11279
4951.20 9.02223
4951.29 8.92149
4951.39 8.80951
4951.49 8.68969
4951.58 8.56072
4951.68 8.42645
4951.87 8.14147
4951.97 7.99469
4952.16 7.69541
4952.35 7.39788
4952.55 7.10988
4952.74 6.83779
4952.84 6.70861
4952.93 6.58638
4953.03 6.46892
4953.13 6.35889
4953.22 6.25417
4953.32 6.15700
4953.42 6.06536
4953.51 5.98109
4953.61 5.90308
4953.70 5.83116
4953.80 5.76446
4953.90 5.70409
4954.09 5.59859
4954.28 5.51218
4954.48 5.44225
4954.67 5.38622
4954.86 5.34166
4955.06 5.30638
4955.25 5.27860
4955.47 5.25389
4955.68 5.23471
4955.90 5.21946
4956.12 5.20703
4956.33 5.19658
4956.55 5.18752
4956.98 5.17201
4957.42 5.15842
4957.85 5.14580
4958.72 5.12191
4959.59 5.09887
4960.46 5.07622
4962.19 5.03129
4963.93 4.98611
4965.66 4.94019
4969.14 4.84479
4970.68 4.80042
4974.92 4.67056
4979.17 4.52617
4983.41 4.36277
4985.53 4.27218
4987.66 4.17456
4989.97 4.05873
4992.29 3.93137
4994.60 3.79037
4996.91 3.63329
4998.46 3.51802
5000.00 3.39303
5001.88 3.22566
5003.76 3.03909
5004.70 2.93760
5005.64 2.83003
5006.58 2.71584
5007.52 2.59461
5008.67 2.43571
5009.82 2.26444
5010.97 2.07965
5011.54 1.98215
5012.11 1.88119
5012.69 1.77665
5013.26 1.66907
5013.84 1.55861
5014.41 1.44579
5014.98 1.33149
5015.56 1.21698
5016.13 1.10425
5016.71 0.996248
5017.10 0.927421
5017.49 0.864846
5017.88 0.811228
5018.08 0.788879
5018.27 0.770330
5018.47 0.756068
5018.67 0.747001
5018.86 0.744086
5019.06 0.748419
5019.25 0.761408
5019.45 0.784703
5019.64 0.820311
5019.84 0.870387
5019.98 0.918465
5020.13 0.977099
5020.27 1.04878
5020.41 1.13445
5020.51 1.19825
5020.60 1.27458
5020.70 1.36047
5020.85 1.51284
5020.93 1.59967
5021.00 1.69439
5021.08 1.79767
5021.15 1.91024
5021.23 2.03289
5021.30 2.16648
5021.37 2.30590
5021.45 2.45717
5021.52 2.62127
5021.59 2.79669
5021.66 2.98948
5021.73 3.19852
5021.80 3.42512
5021.88 3.66718
5021.95 3.93302
5022.02 4.22104
5022.09 4.53300
5022.16 4.86591
5022.23 5.23118
5022.31 5.62644
5022.38 6.05402
5022.45 6.50969
5022.52 6.96576
5022.58 7.44763
5022.65 7.96409
5022.71 8.51736
5022.78 9.11921
5022.84 9.75387
5022.91 10.4327
5022.97 11.1583
5023.04 11.9457
5023.10 12.7739
5023.17 13.6575
5023.23 14.5993
5023.30 15.6183
5023.36 16.6870
5023.43 17.8233
5023.49 19.0305
5023.57 20.4545
5023.64 21.9739
5023.71 23.5931
5023.78 25.3166
5023.85 27.1488
5023.93 29.0937
5024.00 31.1555
5024.07 33.3071
5024.14 35.6125
5024.21 38.0457
5024.28 40.6100
5024.36 43.2695
5024.43 46.1017
5024.50 49.0717
5024.57 52.1810
5024.64 55.3843
5024.71 58.7720
5024.79 62.2996
5024.86 65.9659
5024.93 69.7152
5025.07 77.7168
5025.22 86.1624
5025.36 95.1251
5025.50 104.422
5025.65 114.108
5025.79 123.963
5026.08 144.107
5026.22 154.090
5026.37 163.776
5026.51 173.102
5026.65 181.876
5026.79 190.090
5026.94 197.508
5027.09 204.590
5027.24 210.547
5027.40 215.273
5027.55 218.670
5027.65 220.203
5027.82 221.373
5027.99 220.919
5028.15 218.883
5028.32 215.367
5028.46 211.488
5028.59 206.774
5028.73 201.309
5028.86 195.188
5029.00 188.509
5029.13 181.427
5029.40 166.258
5029.72 147.572
5029.88 138.260
5030.03 129.190
5030.17 121.660
5030.30 114.438
5030.44 107.459
5030.57 100.858
5030.71 94.5575
5030.84 88.6670
5030.97 83.1451
5031.11 77.9928
5031.18 75.5182
5031.24 73.1709
5031.31 70.9126
5031.38 68.7416
5031.45 66.6259
5031.51 64.6256
5031.65 60.8681
5031.78 57.3947
5031.92 54.2376
5032.05 51.3295
5032.18 48.6930
5032.29 46.8058
5032.39 45.0475
5032.50 43.4093
5032.60 41.8827
5032.70 40.4595
5032.81 39.1320
5032.91 37.8930
5033.02 36.7463
5033.12 35.6633
5033.22 34.6497
5033.43 32.8171
5033.64 31.1916
5033.85 29.7562
5033.98 28.9047
5034.11 28.1178
5034.38 26.6916
5034.65 25.4391
5034.92 24.3341
5035.19 23.3445
5035.46 22.4560
5035.73 21.6534
5036.00 20.9271
5036.26 20.2619
5036.53 19.6524
5036.80 19.0918
5037.07 18.5762
5037.61 17.6520
5038.15 16.8523
5038.68 16.1509
5039.22 15.5331
5039.76 14.9827
5040.30 14.4910
5040.83 14.0476
5041.37 13.6471
5041.91 13.2824
5042.45 12.9501
5042.98 12.6450
5043.52 12.3643
5044.60 11.8662
5045.67 11.4371
5046.75 11.0638
5047.68 10.7782
5048.60 10.5218
5049.53 10.2900
5050.46 10.0794
5052.32 9.71119
5054.17 9.40071
5055.35 9.22853
5056.52 9.07210
5057.69 8.92953
5058.86 8.79928
5059.94 8.68965
5061.01 8.58855
5062.09 8.49539
5063.16 8.40976
5064.24 8.33146
5065.31 8.26056
5066.39 8.19747
5067.46 8.14315
5068.00 8.11981
5068.54 8.09951
5069.08 8.08278
5069.62 8.07043
5070.15 8.06361
5070.69 8.06422
5071.23 8.07573
5071.50 8.08756
5071.77 8.10526
5071.96 8.12329
5072.16 8.14697
5072.35 8.17841
5072.55 8.21984
5072.74 8.27518
5072.94 8.34858
5073.13 8.44705
5073.33 8.57777
5073.43 8.65901
5073.53 8.75270
5073.62 8.86060
5073.72 8.98335
5073.82 9.12565
5073.92 9.28872
5074.01 9.47519
5074.11 9.68562
5074.21 9.92742
5074.31 10.2019
5074.41 10.5125
5074.50 10.8591
5074.60 11.2529
5074.70 11.6896
5074.80 12.1824
5074.89 12.7252
5074.98 13.2944
5075.08 13.9198
5075.17 14.6048
5075.26 15.3439
5075.35 16.1562
5075.44 17.0265
5075.53 17.9761
5075.63 18.9859
5075.72 20.0795
5075.81 21.2466
5075.90 22.4871
5075.99 23.7855
5076.08 25.1688
5076.18 26.6043
5076.27 28.1204
5076.36 29.6796
5076.46 31.4192
5076.55 33.2138
5076.75 36.9121
5077.14 44.5161
5077.38 49.0741
5077.51 51.2076
5077.63 53.2037
5077.76 55.2167
5077.90 56.9878
5077.99 58.0384
5078.08 58.9419
5078.21 60.0028
5078.35 60.7455
5078.49 61.1426
5078.57 61.1985
5078.68 61.0560
5078.81 60.6206
5078.93 59.8499
5079.06 58.7742
5079.16 57.7541
5079.26 56.5767
5079.39 54.8272
5079.52 52.8784
5079.65 50.7329
5079.78 48.4582
5080.03 43.5942
5080.45 35.3857
5080.66 31.4383
5080.77 29.5618
5080.87 27.7571
5080.97 26.1123
5081.07 24.5604
5081.17 23.0742
5081.27 21.6863
5081.37 20.3701
5081.47 19.1527
5081.57 18.0201
5081.62 17.4799
5081.67 16.9710
5081.72 16.4723
5081.77 15.9942
5081.82 15.5361
5081.87 15.1064
5081.92 14.6871
5081.97 14.2867
5082.07 13.5479
5082.17 12.8710
5082.27 12.2655
5082.37 11.7201
5082.46 11.2305
5082.57 10.7634
5082.68 10.3538
5082.78 9.99232
5082.89 9.67421
5082.99 9.39258
5083.10 9.14855
5083.20 8.93542
5083.31 8.74961
5083.41 8.58642
5083.52 8.44594
5083.62 8.32384
5083.73 8.21772
5083.83 8.12462
5083.94 8.04441
5084.04 7.97446
5084.15 7.91334
5084.36 7.81225
5084.57 7.73385
5084.78 7.67130
5084.99 7.62078
5085.20 7.57863
5085.41 7.54299
5085.83 7.48477
5086.32 7.43088
5086.81 7.38653
5087.30 7.34857
5087.80 7.31523
5088.29 7.28542
5088.78 7.25838
5089.76 7.21058
5090.74 7.16896
5091.72 7.13179
5092.71 7.09798
5093.69 7.06679
5094.72 7.03634
5095.75 7.00774
5097.80 6.95499
5099.86 6.90696
5101.92 6.86268
5103.98 6.82146
5106.03 6.78284
5110.15 6.71212
5114.27 6.64854
5118.38 6.59084
5122.50 6.53807
5126.61 6.48952
5134.09 6.41036
5141.58 6.34106
5147.19 6.29447
5149.99 6.27279
5152.80 6.25220
5155.61 6.23272
5158.41 6.21454
5159.81 6.20610
5161.22 6.19822
5162.62 6.19108
5164.02 6.18504
5164.82 6.18234
5165.61 6.18045
5166.41 6.17976
5166.81 6.18011
5167.20 6.18117
5167.60 6.18335
5168.00 6.18745
5168.20 6.19068
5168.40 6.19510
5168.59 6.20117
5168.79 6.20949
5168.99 6.22100
5169.19 6.23685
5169.39 6.25859
5169.59 6.28808
5169.79 6.32814
5169.99 6.38185
5170.18 6.45305
5170.28 6.49636
5170.38 6.54574
5170.54 6.63874
5170.70 6.75171
5170.86 6.88763
5171.01 7.04959
5171.09 7.14127
5171.17 7.24059
5171.25 7.34788
5171.33 7.46348
5171.41 7.58769
5171.49 7.72077
5171.57 7.86296
5171.65 8.01246
5171.72 8.17324
5171.80 8.34352
5171.88 8.52332
5171.96 8.71257
5172.04 8.91116
5172.12 9.11886
5172.20 9.33539
5172.28 9.55748
5172.43 10.0306
5172.59 10.5307
5172.75 11.0514
5172.91 11.5815
5173.12 12.2978
5173.33 12.9927
5173.43 13.3252
5173.54 13.6432
5173.64 13.9434
5173.75 14.2224
5173.84 14.4517
5173.94 14.6573
5174.03 14.8418
5174.12 14.9993
5174.22 15.1319
5174.31 15.2354
5174.43 15.3254
5174.49 15.3545
5174.57 15.3711
5174.60 15.3718
5174.67 15.3612
5174.74 15.3344
5174.83 15.2700
5174.97 15.1238
5175.11 14.9152
5175.25 14.6497
5175.33 14.4663
5175.42 14.2683
5175.58 13.8282
5175.74 13.3393
5175.91 12.8143
5176.11 12.1371
5176.31 11.4479
5176.51 10.7646
5176.62 10.4338
5176.72 10.1120
5176.82 9.79758
5176.92 9.49829
5177.02 9.21216
5177.12 8.94011
5177.22 8.68284
5177.32 8.44082
5177.42 8.21430
5177.53 8.00334
5177.63 7.80597
5177.73 7.62578
5177.83 7.46035
5177.93 7.30915
5178.03 7.17158
5178.13 7.04694
5178.23 6.93450
5178.33 6.83347
5178.44 6.74222
5178.54 6.66172
5178.64 6.59023
5178.74 6.52696
5178.84 6.47117
5178.94 6.42213
5179.14 6.34161
5179.35 6.28042
5179.55 6.23434
5179.75 6.19984
5179.95 6.17409
5180.14 6.15584
5180.33 6.14195
5180.52 6.13116
5180.71 6.12275
5180.90 6.11601
5181.09 6.11054
5181.47 6.10208
5181.85 6.09565
5182.23 6.09040
5182.98 6.08186
5183.74 6.07482
5184.50 6.06871
5185.26 6.06323
5186.02 6.05820
5187.63 6.04850
5189.25 6.03977
5190.87 6.03170
5192.49 6.02419
5194.51 6.01546
5196.53 6.00739
5198.55 5.99996
5200.57 5.99325
5202.39 5.98798
5204.21 5.98367
5206.03 5.98057
5207.85 5.97910
5209.67 5.97995
5211.49 5.98423
5212.40 5.98825
5213.31 5.99407
5214.22 6.00227
5215.13 6.01369
5215.89 6.02662
5216.65 6.04379
5217.40 6.06699
5217.78 6.08170
5218.16 6.09916
5218.54 6.12017
5218.92 6.14589
5219.30 6.17828
5219.68 6.22064
5220.06 6.27905
5220.25 6.31757
5220.44 6.36465
5220.63 6.42366
5220.81 6.49780
5221.00 6.59290
5221.19 6.71451
5221.35 6.83747
5221.50 6.98859
5221.65 7.17428
5221.80 7.40040
5221.88 7.53259
5221.95 7.67867
5222.03 7.83993
5222.10 8.01530
5222.18 8.21089
5222.26 8.42601
5222.33 8.66226
5222.41 8.91775
5222.48 9.20102
5222.56 9.51062
5222.63 9.84839
5222.71 10.2162
5222.79 10.6160
5222.86 11.0497
5222.94 11.5191
5223.01 12.0193
5223.09 12.5655
5223.17 13.1530
5223.24 13.7835
5223.32 14.4494
5223.39 15.1699
5223.47 15.9378
5223.54 16.7542
5223.62 17.6082
5223.69 18.4492
5223.76 19.3201
5223.83 20.2460
5223.90 21.2006
5223.97 22.2110
5224.04 23.2478
5224.11 24.3401
5224.18 25.4555
5224.31 27.8132
5224.45 30.3054
5224.59 32.9115
5224.73 35.5867
5225.03 41.6353
5225.19 44.6453
5225.34 47.5550
5225.54 51.2235
5225.64 52.9233
5225.74 54.5111
5225.88 56.4841
5226.02 58.1765
5226.16 59.5541
5226.30 60.5888
5226.44 61.2589
5226.57 61.5473
5226.61 61.5632
5226.73 61.4143
5226.83 61.0942
5226.91 60.6649
5226.99 60.1537
5227.07 59.5333
5227.15 58.7367
5227.23 57.8209
5227.37 56.0760
5227.51 54.0779
5227.69 51.0445
5227.88 47.7008
5228.05 44.4446
5228.21 41.1124
5228.55 34.4318
5228.71 31.3601
5228.87 28.4278
5228.95 27.0165
5229.03 25.6694
5229.12 24.3556
5229.20 23.1100
5229.28 21.9032
5229.36 20.7663
5229.44 19.6717
5229.52 18.6468
5229.60 17.6660
5229.68 16.7530
5229.76 15.8946
5229.84 15.0898
5229.93 14.2558
5230.02 13.4927
5230.10 12.7884
5230.19 12.1403
5230.28 11.5457
5230.37 11.0018
5230.46 10.5056
5230.54 10.0541
5230.63 9.64444
5230.72 9.27359
5230.81 8.93869
5230.90 8.63694
5230.98 8.36565
5231.07 8.12222
5231.16 7.90420
5231.25 7.70928
5231.34 7.53340
5231.42 7.37847
5231.51 7.24051
5231.60 7.11777
5231.69 7.00865
5231.78 6.91169
5231.95 6.74900
5232.13 6.62045
5232.30 6.51855
5232.48 6.43731
5232.66 6.37200
5232.87 6.30856
5233.09 6.25864
5233.30 6.21817
5233.51 6.18498
5233.94 6.13303
5234.37 6.09377
5234.80 6.06260
5235.23 6.03701
5235.66 6.01553
5236.09 5.99724
5236.95 5.96753
5237.80 5.94444
5238.66 5.92591
5239.52 5.91065
5240.68 5.89370
5241.85 5.87988
5243.01 5.86829
5244.17 5.85830
5245.34 5.84951
5246.50 5.84166
5248.83 5.82805
5251.16 5.81644
5253.49 5.80621
5255.81 5.79700
5258.14 5.78860
5262.06 5.77583
5264.02 5.77002
5265.99 5.76466
5267.95 5.75978
5269.91 5.75547
5271.87 5.75192
5273.83 5.74944
5274.81 5.74879
5275.79 5.74869
5276.77 5.74935
5277.75 5.75102
5278.73 5.75414
5279.71 5.75939
5280.44 5.76545
5281.18 5.77429
5281.91 5.78769
5282.28 5.79731
5282.65 5.81020
5283.02 5.82862
5283.20 5.84104
5283.38 5.85648
5283.57 5.87616
5283.75 5.90142
5283.94 5.93414
5284.12 5.97649
5284.30 6.03210
5284.49 6.10476
5284.67 6.19948
5284.85 6.32165
5284.95 6.39585
5285.04 6.47995
5285.13 6.57509
5285.22 6.68247
5285.31 6.80337
5285.41 6.93916
5285.50 7.09127
5285.59 7.25923
5285.71 7.51660
5285.83 7.80973
5285.96 8.14722
5286.08 8.52732
5286.14 8.73895
5286.20 8.95989
5286.26 9.19387
5286.32 9.44127
5286.39 9.70684
5286.45 9.98237
5286.51 10.2723
5286.57 10.5769
5286.63 10.9018
5286.69 11.2365
5286.75 11.5865
5286.81 11.9517
5286.88 12.3384
5286.94 12.7342
5287.06 13.5705
5287.18 14.4724
5287.30 15.4219
5287.43 16.4298
5287.55 17.4737
5287.76 19.3974
5287.98 21.3745
5288.19 23.3616
5288.41 25.2700
5288.52 26.2409
5288.64 27.1584
5288.75 28.0110
5288.87 28.7876
5289.00 29.5611
5289.13 30.2108
5289.21 30.5592
5289.30 30.8483
5289.40 31.1124
5289.48 31.2647
5289.58 31.3613
5289.63 31.3757
5289.64 31.3757
5289.65 31.3750
5289.66 31.3732
5289.68 31.3662
5289.72 31.3396
5289.80 31.2508
5289.87 31.1202
5289.99 30.8095
5290.13 30.2714
5290.26 29.6033
5290.40 28.8056
5290.52 27.9748
5290.64 27.0656
5290.77 26.0768
5290.89 25.0381
5291.12 22.9546
5291.35 20.8080
5291.58 18.6847
5291.70 17.6553
5291.82 16.6578
5291.95 15.5940
5292.07 14.5851
5292.20 13.6367
5292.27 13.1831
5292.33 12.7528
5292.40 12.3326
5292.46 11.9356
5292.53 11.5495
5292.59 11.1861
5292.66 10.8341
5292.72 10.5040
5292.78 10.1902
5292.85 9.89240
5292.91 9.60594
5292.98 9.33932
5293.04 9.08378
5293.11 8.84674
5293.17 8.62033
5293.23 8.41102
5293.30 8.21174
5293.36 8.02811
5293.43 7.85383
5293.49 7.69374
5293.62 7.40352
5293.75 7.15309
5293.88 6.93973
5294.01 6.75604
5294.14 6.59997
5294.27 6.46796
5294.39 6.35673
5294.52 6.26334
5294.65 6.18515
5294.78 6.11982
5294.91 6.06531
5295.04 6.01986
5295.17 5.98193
5295.30 5.95024
5295.43 5.92370
5295.68 5.88254
5295.94 5.85291
5296.15 5.83479
5296.35 5.82018
5296.66 5.80283
5296.97 5.78929
5297.59 5.76890
5298.21 5.75380
5298.83 5.74194
5299.34 5.73373
5299.86 5.72668
5300.89 5.71511
5301.92 5.70593
5302.95 5.69837
5304.60 5.68849
5305.64 5.68327
5306.67 5.67857
5308.73 5.67036
5310.79 5.66323
5312.85 5.65687
5316.16 5.64772
5319.46 5.63944
5322.76 5.63182
5326.06 5.62478
5327.45 5.62200
5328.84 5.61939
5330.23 5.61698
5331.62 5.61485
5333.02 5.61320
5333.71 5.61266
5334.41 5.61244
5335.11 5.61276
5335.45 5.61329
5335.80 5.61425
5336.15 5.61598
5336.32 5.61729
5336.50 5.61905
5336.67 5.62139
5336.85 5.62450
5337.02 5.62865
5337.19 5.63416
5337.40 5.64306
5337.61 5.65529
5337.81 5.67200
5338.02 5.69457
5338.23 5.72486
5338.43 5.76454
5338.64 5.81597
5338.84 5.88160
5339.05 5.96443
5339.26 6.06620
5339.36 6.12504
5339.46 6.18953
5339.57 6.25989
5339.67 6.33627
5339.77 6.41962
5339.88 6.50839
5339.98 6.60333
5340.08 6.70434
5340.18 6.81124
5340.29 6.92375
5340.49 7.16402
5340.66 7.36495
5340.82 7.57220
5341.14 7.99580
5341.30 8.20424
5341.46 8.40460
5341.62 8.59230
5341.78 8.76280
5341.90 8.87253
5342.01 8.96957
5342.13 9.05258
5342.25 9.12035
5342.34 9.16462
5342.44 9.19710
5342.54 9.21831
5342.63 9.22539
5342.65 9.22561
5342.65 9.22559
5342.68 9.22506
5342.70 9.22383
5342.75 9.21929
5342.85 9.19984
5342.95 9.16748
5343.05 9.12256
5343.17 9.05080
5343.29 8.96196
5343.42 8.85744
5343.54 8.73889
5343.68 8.58246
5343.83 8.41206
5343.98 8.23107
5344.12 8.04292
5344.41 7.65834
5344.56 7.46799
5344.71 7.28250
5344.92 7.02165
5345.03 6.89886
5345.14 6.78294
5345.25 6.67214
5345.35 6.56878
5345.46 6.47113
5345.57 6.38106
5345.68 6.29689
5345.78 6.21940
5345.89 6.14843
5346.00 6.08433
5346.11 6.02564
5346.21 5.97315
5346.43 5.88336
5346.64 5.81184
5346.86 5.75635
5347.07 5.71373
5347.18 5.69637
5347.29 5.68145
5347.40 5.66843
5347.51 5.65720
5347.61 5.64754
5347.72 5.63932
5347.94 5.62615
5348.15 5.61646
5348.34 5.60996
5348.54 5.60500
5348.73 5.60115
5348.92 5.59813
5349.11 5.59568
5349.30 5.59369
5349.69 5.59057
5350.07 5.58816
5350.46 5.58617
5351.23 5.58290
5351.99 5.58017
5352.76 5.57780
5353.53 5.57565
5354.30 5.57367
5355.84 5.57006
5357.37 5.56675
5358.91 5.56364
5360.45 5.56066
5362.41 5.55701
5366.10 5.55046
5369.79 5.54417
5373.48 5.53809
5377.17 5.53219
5384.55 5.52071
5391.93 5.50967
5406.69 5.48872
5421.44 5.46910
5443.09 5.44249
5464.73 5.41828
5475.55 5.40707
5486.37 5.39652
5497.19 5.38669
5508.01 5.37769
5515.88 5.37179
5526.71 5.36485
5532.12 5.36204
5537.53 5.35983
5542.94 5.35838
5548.35 5.35794
5553.76 5.35889
5559.17 5.36180
5564.09 5.36707
5566.55 5.37110
5569.01 5.37642
5571.47 5.38347
5573.93 5.39290
5576.39 5.40573
5577.62 5.41394
5578.85 5.42382
5579.95 5.43457
5581.06 5.44762
5582.17 5.46374
5583.27 5.48404
5584.38 5.51042
5584.93 5.52682
5585.49 5.54609
5586.04 5.56923
5586.59 5.59759
5587.15 5.63380
5587.42 5.65638
5587.70 5.68325
5587.93 5.71037
5588.16 5.74332
5588.39 5.78434
5588.62 5.83630
5588.85 5.90408
5589.08 5.99310
5589.20 6.04864
5589.32 6.11237
5589.43 6.18615
5589.55 6.27162
5589.66 6.37153
5589.78 6.48625
5589.89 6.61885
5590.01 6.77186
5590.12 6.94970
5590.24 7.15232
5590.35 7.38437
5590.47 7.64929
5590.58 7.95346
5590.70 8.29541
5590.81 8.68143
5590.93 9.11537
5591.04 9.60549
5591.16 10.1471
5591.27 10.7475
5591.33 11.0737
5591.39 11.4100
5591.48 11.9930
5591.57 12.6126
5591.67 13.2755
5591.76 13.9825
5591.85 14.7420
5591.94 15.5376
5592.04 16.3766
5592.13 17.2579
5592.22 18.1903
5592.31 19.1516
5592.40 20.1490
5592.50 21.1793
5592.68 23.3357
5592.87 25.5613
5593.20 29.7202
5593.37 31.7373
5593.54 33.6568
5593.64 34.7276
5593.74 35.7383
5593.84 36.6796
5593.94 37.5427
5594.07 38.4846
5594.19 39.2815
5594.27 39.7409
5594.36 40.1178
5594.46 40.4626
5594.54 40.6626
5594.64 40.7902
5594.73 40.8073
5594.83 40.7080
5594.91 40.5415
5594.98 40.3254
5595.12 39.7797
5595.26 38.9605
5595.41 37.9202
5595.55 36.6947
5595.67 35.5632
5595.79 34.3344
5595.91 33.0242
5596.03 31.6492
5596.24 29.0907
5596.45 26.4834
5596.66 23.8881
5596.87 21.4037
5597.05 19.4944
5597.13 18.5881
5597.22 17.7177
5597.30 16.8855
5597.39 16.0932
5597.48 15.3425
5597.56 14.6424
5597.65 13.9771
5597.73 13.3558
5597.82 12.7784
5597.91 12.2449
5597.99 11.7550
5598.08 11.3081
5598.16 10.9033
5598.25 10.5438
5598.35 10.1502
5598.46 9.81530
5598.57 9.53652
5598.67 9.31297
5598.78 9.13753
5598.88 9.00955
5598.99 8.92594
5599.09 8.88376
5599.19 8.87835
5599.29 8.90368
5599.39 8.95689
5599.49 9.03532
5599.59 9.13744
5599.69 9.25850
5599.79 9.39675
5599.89 9.54952
5600.09 9.88972
5600.29 10.2545
5600.48 10.6247
5600.68 10.9804
5600.81 11.1908
5600.93 11.3820
5601.06 11.5531
5601.18 11.6979
5601.30 11.8098
5601.42 11.8937
5601.56 11.9560
5601.63 11.9716
5601.71 11.9761
5601.73 11.9752
5601.77 11.9709
5601.81 11.9632
5601.88 11.9398
5601.99 11.8814
5602.09 11.8091
5602.18 11.7174
5602.29 11.5971
5602.39 11.4577
5602.50 11.2995
5602.60 11.1243
5602.71 10.9204
5602.82 10.6993
5602.94 10.4675
5603.16 9.97360
5603.38 9.46106
5603.60 8.94430
5603.83 8.44465
5603.94 8.20265
5604.05 7.97142
5604.16 7.74993
5604.27 7.53913
5604.38 7.33802
5604.49 7.15070
5604.60 6.97565
5604.72 6.81302
5604.88 6.60035
5605.04 6.41279
5605.20 6.24923
5605.36 6.10816
5605.52 5.98781
5605.68 5.88623
5605.84 5.80141
5605.99 5.73173
5606.15 5.67438
5606.31 5.62802
5606.47 5.59098
5606.63 5.56175
5606.79 5.53898
5606.95 5.52153
5607.27 5.49880
5607.59 5.48728
5607.91 5.48292
5608.23 5.48303
5608.55 5.48595
5609.19 5.49677
5609.83 5.51165
5610.67 5.53553
5611.50 5.56410
5612.33 5.59775
5613.17 5.63724
5614.00 5.68367
5614.84 5.73853
5615.67 5.80383
5616.50 5.88225
5617.03 5.94039
5617.56 6.00632
5618.09 6.08178
5618.62 6.16835
5619.15 6.26876
5619.67 6.38572
5620.20 6.52344
5620.73 6.68735
5621.04 6.79713
5621.34 6.92002
5621.65 7.05832
5621.95 7.21441
5622.26 7.39303
5622.57 7.59859
5622.87 7.83765
5623.18 8.11827
5623.43 8.38962
5623.68 8.70631
5623.93 9.08388
5624.05 9.29947
5624.18 9.53692
5624.30 9.80161
5624.43 10.0931
5624.55 10.4176
5624.68 10.7802
5624.80 11.1866
5624.93 11.6434
5625.05 12.1580
5625.18 12.7392
5625.26 13.1344
5625.33 13.5553
5625.41 14.0156
5625.49 14.5060
5625.56 15.0426
5625.64 15.6146
5625.72 16.2404
5625.79 16.9073
5625.87 17.6368
5625.94 18.4138
5626.02 19.2629
5626.10 20.1665
5626.17 21.1529
5626.25 22.2010
5626.33 23.3280
5626.40 24.5388
5626.48 25.8559
5626.56 27.2503
5626.63 28.7639
5626.71 30.3625
5626.79 32.0933
5626.86 33.9164
5626.94 35.8849
5627.01 37.9522
5627.09 40.1775
5627.17 42.5072
5627.24 45.0065
5627.32 47.6140
5627.40 50.4016
5627.47 53.2991
5627.55 56.3439
5627.63 59.5372
5627.71 63.2399
5627.79 67.0769
5627.88 71.1389
5627.96 75.3263
5628.04 79.7355
5628.13 84.2558
5628.29 93.7530
5628.45 102.989
5628.60 112.604
5628.90 132.564
5629.18 150.828
5629.32 159.719
5629.46 168.290
5629.61 177.204
5629.77 185.417
5629.92 192.768
5630.07 199.075
5630.22 204.291
5630.38 208.261
5630.47 209.979
5630.56 211.224
5630.65 211.986
5630.74 212.259
5630.83 212.042
5630.92 211.336
5631.01 210.147
5631.10 208.483
5631.24 205.042
5631.37 200.577
5631.51 195.377
5631.64 189.380
5631.80 181.400
5631.95 172.662
5632.09 164.702
5632.22 156.389
5632.48 139.128
5632.75 121.693
5632.88 113.137
5633.02 104.792
5633.21 93.1324
5633.31 87.5751
5633.40 82.2756
5633.50 77.1364
5633.60 72.2730
5633.69 67.5915
5633.79 63.1928
5633.86 60.2625
5633.92 57.4884
5633.99 54.7861
5634.06 52.2354
5634.12 49.7581
5634.19 47.4265
5634.25 45.2011
5634.32 43.0799
5634.39 41.0307
5634.45 39.1122
5634.52 37.2633
5634.59 35.5365
5634.65 33.8763
5634.72 32.3291
5634.79 30.8662
5634.85 29.4845
5634.92 28.1614
5634.98 26.9331
5635.05 25.7589
5635.12 24.6708
5635.18 23.6322
5635.25 22.6710
5635.32 21.7548
5635.38 20.9079
5635.45 20.1016
5635.52 19.3569
5635.58 18.6484
5635.65 17.9947
5635.72 17.3730
5635.78 16.7996
5635.91 15.7592
5636.04 14.8787
5636.17 14.1018
5636.30 13.4157
5636.42 12.8089
5636.55 12.2712
5636.68 11.7937
5636.80 11.3685
5636.93 10.9915
5637.06 10.6508
5637.18 10.3445
5637.31 10.0680
5637.44 9.81930
5637.69 9.38311
5637.94 9.01830
5638.21 8.69285
5638.48 8.41409
5638.74 8.17244
5639.01 7.96153
5639.27 7.77443
5639.54 7.60789
5639.80 7.45871
5640.07 7.32483
5640.55 7.11226
5641.04 6.93261
5641.52 6.77909
5642.00 6.64665
5642.48 6.53144
5642.97 6.43048
5643.45 6.34146
5643.93 6.26249
5644.56 6.17241
5645.19 6.09420
5645.82 6.02581
5646.45 5.96561
5647.07 5.91232
5647.70 5.86488
5648.96 5.78425
5650.02 5.72782
5651.08 5.67983
5652.15 5.63864
5653.21 5.60300
5654.27 5.57187
5655.33 5.54451
5657.46 5.49879
5659.78 5.45924
5662.10 5.42739
5664.42 5.40124
5666.74 5.37956
5668.86 5.36305
5669.92 5.35603
5670.99 5.35005
5672.05 5.34556
5672.58 5.34424
5673.11 5.34403
5673.64 5.34602
5673.91 5.34856
5674.17 5.35289
5674.44 5.36004
5674.71 5.37146
5674.97 5.38954
5675.10 5.40207
5675.24 5.41749
5675.36 5.43478
5675.48 5.45567
5675.60 5.48079
5675.72 5.51090
5675.84 5.54682
5675.96 5.58948
5676.08 5.63992
5676.20 5.69875
5676.32 5.76816
5676.45 5.84905
5676.57 5.94281
5676.69 6.04997
5676.81 6.17385
5676.93 6.31516
5677.05 6.47546
5677.17 6.65469
5677.27 6.81527
5677.36 6.98875
5677.46 7.17938
5677.56 7.38373
5677.66 7.63523
5677.77 7.90787
5677.88 8.20188
5677.99 8.51425
5678.10 8.85047
5678.21 9.20715
5678.32 9.58337
5678.43 9.97415
5678.53 10.3851
5678.64 10.8108
5678.86 11.6921
5679.30 13.5087
5679.46 14.1926
5679.63 14.8409
5679.80 15.4379
5679.97 15.9683
5680.13 16.3890
5680.29 16.7300
5680.38 16.8879
5680.47 17.0136
5680.58 17.1280
5680.65 17.1712
5680.73 17.2001
5680.75 17.2025
5680.76 17.2031
5680.78 17.2035
5680.80 17.2022
5680.84 17.1941
5680.90 17.1693
5681.02 17.0864
5681.10 16.9968
5681.17 16.8842
5681.31 16.6327
5681.45 16.3157
5681.60 15.9068
5681.75 15.4374
5681.90 14.9172
5682.05 14.3607
5682.22 13.6860
5682.39 12.9886
5682.72 11.5889
5682.89 10.9089
5683.06 10.2579
5683.15 9.94607
5683.23 9.64450
5683.32 9.35393
5683.40 9.07814
5683.54 8.66565
5683.67 8.28378
5683.80 7.93304
5683.93 7.61566
5684.07 7.32622
5684.20 7.06808
5684.33 6.83597
5684.46 6.63175
5684.60 6.45052
5684.73 6.29198
5684.86 6.15410
5685.00 6.03572
5685.13 5.93308
5685.26 5.84585
5685.39 5.77095
5685.53 5.70787
5685.66 5.65411
5685.79 5.60883
5685.92 5.57077
5686.06 5.53907
5686.19 5.51227
5686.32 5.48996
5686.45 5.47108
5686.59 5.45531
5686.85 5.43052
5687.12 5.41256
5687.38 5.39911
5687.65 5.38870
5687.99 5.37826
5688.33 5.36997
5689.01 5.35712
5689.68 5.34723
5690.36 5.33917
5691.38 5.32934
5692.40 5.32136
5693.42 5.31465
5694.44 5.30889
5695.80 5.30228
5697.15 5.29659
5699.19 5.28926
5701.23 5.28294
5705.30 5.27240
5708.70 5.26507
5712.10 5.25865
5718.89 5.24770
5724.32 5.24019
5729.75 5.23344
5740.62 5.22160
5750.13 5.21253
5759.63 5.20428
5769.14 5.19666
5778.65 5.18953
5789.52 5.18185
5800.38 5.17460
5805.31 5.17146
5810.23 5.16844
5815.15 5.16554
5820.08 5.16281
5825.00 5.16031
5827.46 5.15921
5829.92 5.15825
5832.39 5.15747
5834.85 5.15696
5837.31 5.15682
5839.77 5.15728
5841.09 5.15791
5842.40 5.15895
5843.72 5.16058
5845.04 5.16308
5845.69 5.16484
5846.35 5.16711
5847.01 5.17019
5847.67 5.17484
5848.00 5.17833
5848.33 5.18326
5848.65 5.19059
5848.82 5.19563
5848.98 5.20188
5849.15 5.20977
5849.31 5.21960
5849.48 5.23203
5849.64 5.24750
5849.81 5.26693
5849.97 5.29094
5850.13 5.32059
5850.30 5.35698
5850.48 5.40641
5850.66 5.46691
5850.84 5.54102
5851.02 5.62982
5851.20 5.73617
5851.38 5.86064
5851.56 6.00524
5851.74 6.17107
5851.92 6.35979
5852.10 6.56925
5852.28 6.80089
5852.46 7.05036
5852.64 7.31769
5852.82 7.59616
5853.18 8.17121
5853.42 8.53956
5853.54 8.71653
5853.65 8.88470
5853.77 9.04501
5853.88 9.19288
5854.00 9.32901
5854.12 9.44941
5854.20 9.52752
5854.29 9.59648
5854.37 9.65580
5854.46 9.70506
5854.54 9.74192
5854.62 9.76933
5854.72 9.79079
5854.80 9.79564
5854.81 9.79564
5854.82 9.79551
5854.83 9.79523
5854.85 9.79421
5854.89 9.79021
5854.99 9.76772
5855.15 9.70377
5855.24 9.65427
5855.32 9.59551
5855.40 9.52738
5855.49 9.45036
5855.66 9.27064
5855.83 9.06327
5856.00 8.81684
5856.18 8.55087
5856.54 7.98815
5856.72 7.70464
5856.90 7.42758
5857.08 7.16192
5857.26 6.91166
5857.43 6.69228
5857.59 6.49231
5857.76 6.31045
5857.93 6.14928
5858.10 6.00682
5858.27 5.88421
5858.44 5.77914
5858.61 5.69180
5858.72 5.64082
5858.84 5.59703
5858.95 5.56005
5859.07 5.52953
5859.19 5.50516
5859.30 5.48671
5859.53 5.46691
5859.76 5.46950
5860.00 5.49561
5860.11 5.51845
5860.23 5.54855
5860.34 5.58665
5860.46 5.63322
5860.57 5.69014
5860.69 5.75831
5860.81 5.83919
5860.92 5.93440
5861.04 6.04580
5861.15 6.17539
5861.27 6.32540
5861.39 6.49659
5861.50 6.69447
5861.62 6.92031
5861.73 7.17688
5861.85 7.46435
5861.96 7.79056
5862.08 8.15595
5862.20 8.56324
5862.31 9.01087
5862.41 9.44182
5862.51 9.90470
5862.61 10.4047
5862.71 10.9425
5862.81 11.5187
5862.91 12.1335
5863.01 12.7866
5863.11 13.4773
5863.21 14.2045
5863.31 14.9667
5863.41 15.7617
5863.51 16.5869
5863.71 18.3148
5863.91 20.1187
5864.31 23.7979
5864.51 25.5653
5864.71 27.2157
5864.82 28.0240
5864.92 28.7693
5865.03 29.4520
5865.13 30.0651
5865.25 30.6541
5865.37 31.1393
5865.50 31.5804
5865.62 31.8301
5865.71 31.9518
5865.81 31.9932
5865.91 31.9532
5866.00 31.8428
5866.09 31.6628
5866.20 31.3371
5866.29 31.0055
5866.38 30.6109
5866.47 30.1779
5866.55 29.6932
5866.72 28.5899
5866.87 27.5039
5867.02 26.3269
5867.17 25.0733
5867.31 23.7652
5867.62 20.9149
5867.78 19.4987
5867.93 18.1132
5868.09 16.7761
5868.24 15.5020
5868.32 14.8884
5868.40 14.3025
5868.48 13.7299
5868.55 13.1861
5868.65 12.5193
5868.75 11.8958
5868.85 11.3091
5868.95 10.7593
5869.04 10.2461
5869.14 9.76897
5869.24 9.32702
5869.34 8.91919
5869.44 8.54422
5869.53 8.20069
5869.63 7.88705
5869.73 7.60169
5869.83 7.34290
5869.93 7.10898
5870.02 6.89820
5870.12 6.70884
5870.22 6.53760
5870.32 6.38630
5870.42 6.25153
5870.52 6.13180
5870.61 6.02570
5870.71 5.93189
5870.81 5.84912
5870.91 5.77624
5871.10 5.65598
5871.30 5.56362
5871.50 5.49298
5871.69 5.43906
5871.89 5.39772
5872.08 5.36628
5872.28 5.34212
5872.48 5.32344
5872.87 5.29754
5873.26 5.28157
5873.78 5.26972
5874.37 5.26533
5874.96 5.26958
5875.25 5.27565
5875.55 5.28538
5875.84 5.30026
5876.14 5.32273
5876.43 5.35689
5876.73 5.40874
5876.87 5.44414
5877.02 5.48789
5877.17 5.54189
5877.31 5.60844
5877.46 5.69025
5877.61 5.79053
5877.75 5.91296
5877.90 6.06180
5878.05 6.24186
5878.20 6.45852
5878.34 6.71773
5878.42 6.86632
5878.49 7.02590
5878.62 7.34737
5878.75 7.71825
5878.88 8.14374
5878.95 8.37674
5879.01 8.62508
5879.08 8.89359
5879.14 9.17473
5879.21 9.47775
5879.27 9.79404
5879.34 10.1339
5879.41 10.4874
5879.47 10.8601
5879.54 11.2524
5879.60 11.6710
5879.67 12.1037
5879.73 12.5639
5879.80 13.0378
5879.86 13.5401
5879.93 14.0555
5879.99 14.5913
5880.06 15.1473
5880.19 16.3280
5880.32 17.5856
5880.45 18.9142
5880.58 20.2954
5880.81 22.8504
5881.04 25.5031
5881.27 28.1716
5881.50 30.7611
5881.61 31.9996
5881.73 33.1692
5881.84 34.2773
5881.96 35.2924
5882.10 36.4595
5882.25 37.4460
5882.34 37.9521
5882.43 38.3747
5882.54 38.7978
5882.63 39.0350
5882.74 39.2067
5882.81 39.2455
5882.93 39.1922
5883.01 39.0617
5883.09 38.8692
5883.23 38.3835
5883.38 37.5905
5883.54 36.5668
5883.70 35.3365
5883.83 34.1905
5883.96 32.9509
5884.08 31.6162
5884.21 30.2253
5884.47 27.2940
5884.73 24.3210
5884.98 21.4206
5885.11 20.0253
5885.24 18.6949
5885.37 17.4171
5885.50 16.2092
5885.63 15.0760
5885.69 14.5425
5885.76 14.0286
5885.82 13.5266
5885.89 13.0523
5885.95 12.5975
5886.01 12.1624
5886.08 11.7403
5886.14 11.3440
5886.21 10.9667
5886.27 10.6078
5886.34 10.2620
5886.40 9.93930
5886.46 9.62925
5886.53 9.34085
5886.59 9.06455
5886.66 8.80828
5886.79 8.34043
5886.91 7.92524
5887.04 7.56436
5887.17 7.24730
5887.30 6.97434
5887.39 6.80482
5887.48 6.65372
5887.57 6.51624
5887.66 6.39413
5887.75 6.28340
5887.84 6.18533
5888.01 6.01909
5888.19 5.88573
5888.37 5.78016
5888.55 5.69565
5888.73 5.62863
5888.91 5.57463
5889.09 5.53112
5889.27 5.49573
5889.44 5.46679
5889.80 5.42220
5890.16 5.38957
5890.52 5.36435
5890.87 5.34409
5891.59 5.31279
5892.30 5.28927
5893.01 5.27077
5893.93 5.25206
5894.84 5.23732
5895.76 5.22541
5896.67 5.21558
5897.59 5.20734
5898.96 5.19715
5900.33 5.18888
5901.70 5.18200
5903.07 5.17619
5905.02 5.16933
5906.96 5.16366
5908.90 5.15887
5910.85 5.15475
5914.73 5.14796
5918.62 5.14242
5922.50 5.13776
5926.39 5.13373
5930.28 5.13015
5934.16 5.12692
5942.39 5.12088
5950.62 5.11557
5958.85 5.11076
5967.08 5.10630
5975.31 5.10211
5983.54 5.09813
5991.77 5.09432
5992.80 5.09390
5993.31 5.09381
5993.57 5.09386
5993.83 5.09404
5994.09 5.09442
5994.22 5.09473
5994.34 5.09514
5994.47 5.09568
5994.60 5.09638
5994.73 5.09729
5994.86 5.09844
5994.99 5.09990
5995.11 5.10172
5995.24 5.10400
5995.37 5.10679
5995.50 5.11025
5995.63 5.11444
5995.76 5.11955
5995.89 5.12567
5996.01 5.13305
5996.14 5.14184
5996.27 5.15226
5996.40 5.16442
5996.53 5.17877
5996.66 5.19534
5996.79 5.21465
5996.91 5.23670
5997.04 5.26212
5997.17 5.29081
5997.43 5.36002
5997.69 5.44658
5997.94 5.55242
5998.20 5.67953
5998.46 5.82763
5998.71 5.99697
5998.97 6.18631
5999.23 6.39335
5999.49 6.61474
6000.00 7.08299
6000.00 9.07612
7000.00 8.74805
7500.00 8.61432
8000.00 8.49197
8239.07 8.44173
8485.28 8.39180
9000.00 8.29284
9000.00 8.29284
9000.00 8.29284
9500.00 8.20303
10000.0 8.11875
10625.0 8.03215
11250.0 7.95227
11875.0 7.87825
12500.0 7.80935
12808.7 7.78037
13125.0 7.75172
13433.9 7.72471
13750.0 7.69799
14361.4 7.64878
15000.0 7.60054
16250.0 7.52207
17000.0 7.47873
17500.0 7.45428
18750.0 7.39724
20000.0 7.34530
21250.0 7.30571
22500.0 7.26939
23750.0 7.23591
25000.0 7.20490
26250.0 7.18234
27500.0 7.16152
28750.0 7.14223
30000.0 7.12429
32500.0 7.09959
35000.0 7.07824
37500.0 7.06482
40000.0 7.05349
42500.0 7.04795
45000.0 7.04413
47500.0 7.04171
50000.0 7.04042
52500.0 7.04294
55000.0 7.04589
57500.0 7.04918
60000.0 7.05275
62500.0 7.05843
65000.0 7.06434
67500.0 7.07045
70000.0 7.07670
75000.0 7.09130
80000.0 7.10550
85000.0 7.12123
90000.0 7.13650
95000.0 7.15132
99999.9 7.16570
100000 7.14157
110668 7.20532
119410 7.25351
133834 7.32639
150000 7.40000
173205 7.47462
200000 7.55000
236435 7.57060
247632 7.57631
247767 7.57638
250000 7.57748
265955 7.58519
279296 7.59124
300000 7.60000
301268 7.59896
310825 7.59127
319126 7.58480
345010 7.56575
373883 7.54629
387298 7.53782
399602 7.53017
400000 7.52993
420389 7.49617
436941 7.47009
463706 7.43017
485297 7.39982
500000 7.38000
517565 7.35510
526966 7.34219
545105 7.31797
563244 7.29466
589217 7.26277
600000 7.24999
600798 7.24851
622965 7.20820
625639 7.20343
638726 7.18054
638917 7.18021
640743 7.17703
642568 7.17387
646220 7.16760
653522 7.15528
663736 7.13822
664844 7.13638
673520 7.12207
682196 7.10814
687084 7.10035
700000 7.08000
706366 7.06976
714830 7.05629
731581 7.02994
748331 7.00460
760858 6.98602
780429 6.95740
800000 6.93000
815735 6.90472
831471 6.88019
847206 6.85636
862941 6.83321
874381 6.81650
874637 6.81613
891494 6.79199
900000 6.78000
924308 6.74391
948615 6.70922
972923 6.67582
997230 6.64365
1.00000E+06 6.64000
1.00851E+06 6.62475
1.01701E+06 6.60970
1.02315E+06 6.59892
1.02928E+06 6.58824
1.03596E+06 6.57657
1.04264E+06 6.56501
1.04932E+06 6.55356
1.05600E+06 6.54223
1.06268E+06 6.53100
1.06936E+06 6.51988
1.07604E+06 6.50887
1.08272E+06 6.49796
1.08940E+06 6.48715
1.09608E+06 6.47645
1.10276E+06 6.46584
1.10944E+06 6.45533
1.11612E+06 6.44491
1.12280E+06 6.43459
1.12948E+06 6.42437
1.13616E+06 6.41424
1.14028E+06 6.40795
1.14424E+06 6.40194
1.15373E+06 6.38760
1.16321E+06 6.37345
1.17270E+06 6.35947
1.18218E+06 6.34567
1.19109E+06 6.33275
1.20000E+06 6.31999
1.20082E+06 6.31905
1.20527E+06 6.31396
1.20547E+06 6.31374
1.21274E+06 6.30546
1.22001E+06 6.29725
1.22356E+06 6.29328
1.22961E+06 6.28650
1.23402E+06 6.28160
1.23881E+06 6.27631
1.25000E+06 6.26402
1.26104E+06 6.25195
1.27209E+06 6.24003
1.28313E+06 6.22827
1.29417E+06 6.21665
1.29466E+06 6.21613
1.30571E+06 6.20459
1.31676E+06 6.19320
1.32342E+06 6.18639
1.33276E+06 6.17690
1.34210E+06 6.16750
1.34979E+06 6.15981
1.35747E+06 6.15218
1.36516E+06 6.14462
1.37284E+06 6.13712
1.37598E+06 6.13406
1.38235E+06 6.12787
1.38872E+06 6.12172
1.39509E+06 6.11561
1.40147E+06 6.10954
1.40784E+06 6.10351
1.41421E+06 6.09752
1.42058E+06 6.09157
1.42695E+06 6.08567
1.43578E+06 6.07751
1.44460E+06 6.06942
1.45381E+06 6.06102
1.46302E+06 6.05271
1.47222E+06 6.04447
1.48143E+06 6.03631
1.48672E+06 6.03164
1.48924E+06 6.02942
1.50000E+06 6.02000
1.50803E+06 6.00912
1.51165E+06 6.00424
1.51527E+06 5.99938
1.52250E+06 5.98971
1.53102E+06 5.97837
1.53953E+06 5.96714
1.54805E+06 5.95600
1.55656E+06 5.94497
1.56407E+06 5.93523
1.57159E+06 5.92556
1.57910E+06 5.91597
1.58662E+06 5.90645
1.59413E+06 5.89701
1.60164E+06 5.88765
1.60916E+06 5.87835
1.61667E+06 5.86913
1.62336E+06 5.86091
1.63004E+06 5.85274
1.63673E+06 5.84464
1.64341E+06 5.83658
1.64342E+06 5.83658
1.65086E+06 5.82763
1.65831E+06 5.81875
1.66873E+06 5.80637
1.67916E+06 5.79413
1.68958E+06 5.78201
1.70000E+06 5.77001
1.70824E+06 5.75957
1.71648E+06 5.74922
1.72471E+06 5.73895
1.73295E+06 5.72876
1.73709E+06 5.72365
1.74714E+06 5.71133
1.74790E+06 5.71040
1.75000E+06 5.70783
1.76133E+06 5.69407
1.77266E+06 5.68048
1.78245E+06 5.66879
1.79223E+06 5.65724
1.79967E+06 5.64849
1.80620E+06 5.64082
1.81274E+06 5.63321
1.81927E+06 5.62566
1.82580E+06 5.61816
1.83339E+06 5.60936
1.84099E+06 5.60064
1.84858E+06 5.59200
1.85618E+06 5.58343
1.86377E+06 5.57493
1.87136E+06 5.56650
1.87896E+06 5.55815
1.88655E+06 5.54986
1.89768E+06 5.53759
1.90882E+06 5.52548
1.91995E+06 5.51350
1.93108E+06 5.50168
1.93734E+06 5.49500
1.94360E+06 5.48836
1.94986E+06 5.48177
1.95612E+06 5.47523
1.96428E+06 5.46667
1.97245E+06 5.45819
1.98061E+06 5.44979
1.98877E+06 5.44145
2.00000E+06 5.43000
2.01093E+06 5.41496
2.02186E+06 5.40009
2.02259E+06 5.39909
2.03331E+06 5.38457
2.04402E+06 5.37019
2.05474E+06 5.35598
2.06545E+06 5.34192
2.07356E+06 5.33127
2.08167E+06 5.32070
2.08977E+06 5.31023
2.09788E+06 5.29984
2.11121E+06 5.28280
2.12454E+06 5.26599
2.12455E+06 5.26598
2.12991E+06 5.25924
2.14400E+06 5.24165
2.15364E+06 5.22967
2.16328E+06 5.21780
2.17291E+06 5.20604
2.18255E+06 5.19439
2.18292E+06 5.19395
2.19291E+06 5.18187
2.20291E+06 5.16991
2.20545E+06 5.16688
2.21290E+06 5.15806
2.22289E+06 5.14632
2.23163E+06 5.13606
2.24037E+06 5.12589
2.25030E+06 5.11437
2.26023E+06 5.10297
2.26871E+06 5.09325
2.27719E+06 5.08361
2.28566E+06 5.07405
2.29414E+06 5.06456
2.30234E+06 5.05537
2.31055E+06 5.04625
2.31875E+06 5.03720
2.32695E+06 5.02821
2.32695E+06 5.02821
2.33342E+06 5.02112
2.33988E+06 5.01407
2.35280E+06 5.00010
2.35683E+06 4.99575
2.36087E+06 4.99141
2.36087E+06 4.99140
2.36874E+06 4.98297
2.37661E+06 4.97459
2.38237E+06 4.96849
2.38761E+06 4.96294
2.39308E+06 4.95718
2.39793E+06 4.95202
2.40277E+06 4.94688
2.41246E+06 4.93669
2.42215E+06 4.92659
2.43184E+06 4.91660
2.44153E+06 4.90670
2.45122E+06 4.89690
2.46091E+06 4.88720
2.47060E+06 4.87760
2.47866E+06 4.87056
2.48671E+06 4.86357
2.49464E+06 4.85670
2.50256E+06 4.84988
2.50927E+06 4.84412
2.50927E+06 4.84411
2.51235E+06 4.84148
2.51543E+06 4.83885
2.51543E+06 4.83885
2.52337E+06 4.83209
2.52694E+06 4.82906
2.52694E+06 4.82906
2.53648E+06 4.82097
2.54602E+06 4.81295
2.54602E+06 4.81295
2.55366E+06 4.80655
2.56129E+06 4.80020
2.56506E+06 4.79706
2.57489E+06 4.78889
2.58471E+06 4.78081
2.58888E+06 4.77740
2.59812E+06 4.76978
2.60735E+06 4.76225
2.61659E+06 4.75479
2.62582E+06 4.74740
2.63501E+06 4.74001
2.64419E+06 4.73270
2.64707E+06 4.73041
2.65874E+06 4.72107
2.67041E+06 4.71186
2.68208E+06 4.70276
2.69375E+06 4.69377
2.70001E+06 4.68893
2.70677E+06 4.68372
2.71949E+06 4.67394
2.73220E+06 4.66429
2.74055E+06 4.65791
2.74891E+06 4.65160
2.75726E+06 4.64535
2.76561E+06 4.63915
2.77405E+06 4.63282
2.78249E+06 4.62655
2.79092E+06 4.62034
2.79936E+06 4.61419
2.81197E+06 4.60497
2.82296E+06 4.59697
2.83395E+06 4.58906
2.84650E+06 4.57996
2.85904E+06 4.57098
2.87159E+06 4.56213
2.88413E+06 4.55340
2.89432E+06 4.54628
2.90441E+06 4.53926
2.91799E+06 4.52984
2.93157E+06 4.52057
2.94252E+06 4.51307
2.95346E+06 4.50566
2.96510E+06 4.49773
2.97673E+06 4.48990
2.98837E+06 4.48217
3.00000E+06 4.47454
3.00170E+06 4.47357
3.00311E+06 4.47278
3.02209E+06 4.46231
3.03536E+06 4.45498
3.04864E+06 4.44774
3.06191E+06 4.44057
3.07518E+06 4.43350
3.08598E+06 4.42772
3.10475E+06 4.41774
3.10984E+06 4.41504
3.12471E+06 4.40719
3.13958E+06 4.39944
3.15346E+06 4.39221
3.16733E+06 4.38506
3.18348E+06 4.37675
3.19963E+06 4.36855
3.20406E+06 4.36630
3.21555E+06 4.36046
3.22703E+06 4.35468
3.23852E+06 4.34896
3.25000E+06 4.34330
3.25374E+06 4.34144
3.27404E+06 4.33128
3.29435E+06 4.32131
3.31465E+06 4.31151
3.33495E+06 4.30189
3.34603E+06 4.29655
3.35711E+06 4.29127
3.36819E+06 4.28604
3.37927E+06 4.28086
3.40048E+06 4.27077
3.42169E+06 4.26087
3.44289E+06 4.25116
3.46410E+06 4.24163
3.48205E+06 4.23346
3.50000E+06 4.22542
3.50814E+06 4.22178
3.52478E+06 4.21439
3.54262E+06 4.20624
3.56045E+06 4.19823
3.57829E+06 4.19034
3.59613E+06 4.18258
3.61396E+06 4.17494
3.63180E+06 4.16742
3.64963E+06 4.16002
3.66747E+06 4.15274
3.68141E+06 4.14691
3.70192E+06 4.13831
3.72242E+06 4.12987
3.73986E+06 4.12262
3.75730E+06 4.11548
3.77473E+06 4.10845
3.79217E+06 4.10153
3.80574E+06 4.09595
3.81931E+06 4.09044
3.83288E+06 4.08499
3.84645E+06 4.07961
3.86002E+06 4.07430
3.87359E+06 4.06905
3.88716E+06 4.06387
3.90073E+06 4.05876
3.91511E+06 4.05321
3.92949E+06 4.04774
3.94712E+06 4.04091
3.96475E+06 4.03420
3.98237E+06 4.02760
4.00000E+06 4.02110
4.01414E+06 4.01930
4.02829E+06 4.01751
4.04243E+06 4.01574
4.05657E+06 4.01399
4.07071E+06 4.01225
4.08486E+06 4.01052
4.09900E+06 4.00881
4.11314E+06 4.00711
4.11323E+06 4.00710
4.12805E+06 4.00528
4.14286E+06 4.00347
4.15750E+06 4.00168
4.17215E+06 3.99991
4.18679E+06 3.99814
4.20144E+06 3.99640
4.21608E+06 3.99467
4.23072E+06 3.99296
4.24537E+06 3.99126
4.26001E+06 3.98958
4.27094E+06 3.98829
4.28187E+06 3.98701
4.29280E+06 3.98573
4.30373E+06 3.98447
4.32454E+06 3.98204
4.34534E+06 3.97965
4.36615E+06 3.97729
4.38695E+06 3.97496
4.40108E+06 3.97332
4.41521E+06 3.97171
4.42934E+06 3.97010
4.44348E+06 3.96852
4.45761E+06 3.96694
4.47174E+06 3.96538
4.48587E+06 3.96384
4.50000E+06 3.96231
4.51639E+06 3.96052
4.53278E+06 3.95875
4.54500E+06 3.95740
4.55722E+06 3.95605
4.56944E+06 3.95471
4.58166E+06 3.95339
4.59387E+06 3.95208
4.60609E+06 3.95078
4.61831E+06 3.94949
4.63053E+06 3.94821
4.64496E+06 3.94666
4.65939E+06 3.94513
4.67382E+06 3.94361
4.68825E+06 3.94210
4.70914E+06 3.93984
4.73004E+06 3.93762
4.75093E+06 3.93542
4.77182E+06 3.93326
4.79271E+06 3.93112
4.81361E+06 3.92901
4.83450E+06 3.92692
4.85539E+06 3.92487
4.86393E+06 3.92402
4.88094E+06 3.92227
4.89795E+06 3.92053
4.91496E+06 3.91881
4.93197E+06 3.91712
4.94897E+06 3.91544
4.96598E+06 3.91378
4.98299E+06 3.91213
5.00000E+06 3.91051
5.02188E+06 3.91217
5.04376E+06 3.91382
5.06564E+06 3.91548
5.08752E+06 3.91713
5.10139E+06 3.91817
5.11526E+06 3.91921
5.13385E+06 3.92059
5.15245E+06 3.92196
5.17104E+06 3.92334
5.18964E+06 3.92471
5.20823E+06 3.92608
5.22682E+06 3.92745
5.24542E+06 3.92882
5.26401E+06 3.93019
5.26991E+06 3.93061
5.28135E+06 3.93144
5.29278E+06 3.93226
5.30422E+06 3.93309
5.31565E+06 3.93391
5.32709E+06 3.93474
5.33852E+06 3.93556
5.34996E+06 3.93638
5.36139E+06 3.93720
5.37662E+06 3.93830
5.39184E+06 3.93939
5.40451E+06 3.94028
5.41718E+06 3.94118
5.42984E+06 3.94207
5.44251E+06 3.94297
5.45987E+06 3.94419
5.47723E+06 3.94541
5.49238E+06 3.94648
5.50754E+06 3.94754
5.52269E+06 3.94861
5.53784E+06 3.94967
5.55916E+06 3.95114
5.58048E+06 3.95261
5.60180E+06 3.95407
5.62312E+06 3.95554
5.64048E+06 3.95673
5.65784E+06 3.95792
5.67519E+06 3.95911
5.69255E+06 3.96029
5.70604E+06 3.96120
5.71954E+06 3.96211
5.73303E+06 3.96302
5.74653E+06 3.96393
5.76002E+06 3.96484
5.77351E+06 3.96575
5.78701E+06 3.96666
5.80050E+06 3.96756
5.82163E+06 3.96896
5.84276E+06 3.97036
5.86389E+06 3.97175
5.88502E+06 3.97315
5.89695E+06 3.97393
5.90889E+06 3.97472
5.92082E+06 3.97550
5.93275E+06 3.97629
5.94956E+06 3.97738
5.96638E+06 3.97848
5.98319E+06 3.97957
6.00000E+06 3.98066
6.00365E+06 3.98121
6.00730E+06 3.98175
6.01094E+06 3.98230
6.01459E+06 3.98285
6.01824E+06 3.98339
6.02189E+06 3.98394
6.02554E+06 3.98448
6.02918E+06 3.98503
6.03283E+06 3.98558
6.03648E+06 3.98612
6.04013E+06 3.98667
6.04377E+06 3.98721
6.04742E+06 3.98776
6.05107E+06 3.98831
6.05472E+06 3.98885
6.05837E+06 3.98940
6.06201E+06 3.98994
6.06566E+06 3.99049
6.06931E+06 3.99103
6.07296E+06 3.99158
6.07661E+06 3.99212
6.08025E+06 3.99267
6.08390E+06 3.99322
6.08755E+06 3.99376
6.09120E+06 3.99431
6.09484E+06 3.99485
6.09849E+06 3.99540
6.10214E+06 3.99594
6.10579E+06 3.99649
6.10944E+06 3.99703
6.11308E+06 3.99758
6.11673E+06 3.99812
6.12095E+06 3.99875
6.12517E+06 3.99937
6.12939E+06 3.99999
6.13361E+06 4.00061
6.13783E+06 4.00123
6.14205E+06 4.00185
6.14626E+06 4.00248
6.15048E+06 4.00310
6.15470E+06 4.00372
6.15892E+06 4.00434
6.16314E+06 4.00496
6.16736E+06 4.00558
6.17158E+06 4.00620
6.17580E+06 4.00682
6.18002E+06 4.00745
6.18424E+06 4.00807
6.18846E+06 4.00869
6.19267E+06 4.00931
6.19689E+06 4.00993
6.20111E+06 4.01055
6.20533E+06 4.01117
6.20955E+06 4.01179
6.21377E+06 4.01241
6.21799E+06 4.01303
6.22221E+06 4.01365
6.22643E+06 4.01427
6.23065E+06 4.01489
6.23486E+06 4.01551
6.23908E+06 4.01613
6.24330E+06 4.01675
6.24752E+06 4.01737
6.25174E+06 4.01799
6.25550E+06 4.01854
6.25927E+06 4.01909
6.26303E+06 4.01964
6.26679E+06 4.02019
6.27080E+06 4.02077
6.27482E+06 4.02135
6.27883E+06 4.02194
6.28284E+06 4.02252
6.28686E+06 4.02310
6.29087E+06 4.02368
6.29488E+06 4.02426
6.29890E+06 4.02484
6.30291E+06 4.02542
6.30692E+06 4.02600
6.31094E+06 4.02658
6.31495E+06 4.02716
6.31896E+06 4.02775
6.32297E+06 4.02833
6.32699E+06 4.02891
6.33100E+06 4.02949
6.33501E+06 4.03007
6.33903E+06 4.03065
6.34304E+06 4.03123
6.34705E+06 4.03181
6.35107E+06 4.03239
6.35508E+06 4.03297
6.35909E+06 4.03355
6.36311E+06 4.03413
6.36712E+06 4.03471
6.37113E+06 4.03529
6.37515E+06 4.03587
6.37916E+06 4.03645
6.38317E+06 4.03703
6.38718E+06 4.03761
6.39120E+06 4.03819
6.39521E+06 4.03877
6.40056E+06 4.03953
6.40590E+06 4.04030
6.41125E+06 4.04106
6.41659E+06 4.04182
6.42194E+06 4.04259
6.42728E+06 4.04335
6.43263E+06 4.04411
6.43798E+06 4.04487
6.44332E+06 4.04564
6.44867E+06 4.04640
6.45401E+06 4.04716
6.45936E+06 4.04793
6.46470E+06 4.04869
6.47005E+06 4.04945
6.47540E+06 4.05021
6.48074E+06 4.05097
6.48453E+06 4.05151
6.48831E+06 4.05205
6.49210E+06 4.05258
6.49589E+06 4.05312
6.49968E+06 4.05365
6.50346E+06 4.05419
6.50725E+06 4.05473
6.51104E+06 4.05526
6.51482E+06 4.05580
6.51861E+06 4.05634
6.52240E+06 4.05687
6.52618E+06 4.05741
6.52997E+06 4.05794
6.53376E+06 4.05848
6.53754E+06 4.05901
6.54133E+06 4.05955
6.54544E+06 4.06012
6.54954E+06 4.06070
6.55364E+06 4.06128
6.55775E+06 4.06185
6.56185E+06 4.06243
6.56596E+06 4.06301
6.57006E+06 4.06358
6.57417E+06 4.06416
6.57827E+06 4.06473
6.58237E+06 4.06531
6.58648E+06 4.06588
6.59058E+06 4.06646
6.59469E+06 4.06703
6.59879E+06 4.06761
6.60290E+06 4.06819
6.60700E+06 4.06876
6.61115E+06 4.06934
6.61530E+06 4.06992
6.61879E+06 4.07041
6.62229E+06 4.07089
6.62578E+06 4.07138
6.62927E+06 4.07187
6.63277E+06 4.07236
6.63626E+06 4.07284
6.63975E+06 4.07333
6.64325E+06 4.07382
6.64674E+06 4.07430
6.65023E+06 4.07479
6.65373E+06 4.07528
6.65722E+06 4.07576
6.66071E+06 4.07625
6.66420E+06 4.07674
6.66770E+06 4.07723
6.67119E+06 4.07771
6.67727E+06 4.07856
6.68335E+06 4.07940
6.68942E+06 4.08024
6.69550E+06 4.08109
6.70048E+06 4.08177
6.70547E+06 4.08246
6.71045E+06 4.08315
6.71544E+06 4.08384
6.72042E+06 4.08453
6.72540E+06 4.08522
6.73039E+06 4.08591
6.73537E+06 4.08659
6.73958E+06 4.08717
6.74379E+06 4.08775
6.74800E+06 4.08833
6.75220E+06 4.08891
6.75641E+06 4.08949
6.76062E+06 4.09006
6.76483E+06 4.09064
6.76904E+06 4.09122
6.77324E+06 4.09180
6.77745E+06 4.09238
6.78166E+06 4.09296
6.78587E+06 4.09353
6.79008E+06 4.09411
6.79428E+06 4.09469
6.79849E+06 4.09527
6.80270E+06 4.09584
6.80776E+06 4.09653
6.81283E+06 4.09722
6.81789E+06 4.09791
6.82295E+06 4.09860
6.82801E+06 4.09929
6.83308E+06 4.09998
6.83814E+06 4.10067
6.84320E+06 4.10136
6.84885E+06 4.10213
6.85450E+06 4.10289
6.86015E+06 4.10366
6.86580E+06 4.10443
6.87145E+06 4.10519
6.87710E+06 4.10596
6.88276E+06 4.10672
6.88841E+06 4.10749
6.89406E+06 4.10825
6.89971E+06 4.10902
6.90536E+06 4.10979
6.91101E+06 4.11055
6.91666E+06 4.11132
6.92231E+06 4.11208
6.92796E+06 4.11284
6.93361E+06 4.11361
6.93776E+06 4.11417
6.94191E+06 4.11473
6.94606E+06 4.11528
6.95021E+06 4.11584
6.95436E+06 4.11640
6.95851E+06 4.11695
6.96266E+06 4.11751
6.96681E+06 4.11807
6.97096E+06 4.11863
6.97510E+06 4.11918
6.97925E+06 4.11974
6.98340E+06 4.12030
6.98755E+06 4.12086
6.99170E+06 4.12141
6.99585E+06 4.12197
7.00000E+06 4.12253
7.00558E+06 4.12344
7.01115E+06 4.12436
7.01673E+06 4.12528
7.02230E+06 4.12620
7.02788E+06 4.12711
7.03345E+06 4.12803
7.03903E+06 4.12895
7.04460E+06 4.12987
7.05375E+06 4.13136
7.06291E+06 4.13286
7.07206E+06 4.13436
7.08121E+06 4.13586
7.09036E+06 4.13735
7.09952E+06 4.13885
7.10867E+06 4.14035
7.11782E+06 4.14185
7.12531E+06 4.14306
7.13280E+06 4.14427
7.14028E+06 4.14548
7.14777E+06 4.14670
7.15526E+06 4.14791
7.16275E+06 4.14912
7.17023E+06 4.15033
7.17772E+06 4.15155
7.18521E+06 4.15276
7.19270E+06 4.15397
7.20018E+06 4.15519
7.20767E+06 4.15640
7.21516E+06 4.15761
7.22265E+06 4.15883
7.23013E+06 4.16004
7.23762E+06 4.16125
7.24543E+06 4.16251
7.25323E+06 4.16377
7.26104E+06 4.16502
7.26884E+06 4.16628
7.27495E+06 4.16726
7.28106E+06 4.16823
7.28717E+06 4.16921
7.29327E+06 4.17018
7.29938E+06 4.17116
7.30549E+06 4.17214
7.31160E+06 4.17311
7.31771E+06 4.17409
7.32381E+06 4.17506
7.32992E+06 4.17604
7.33603E+06 4.17702
7.34214E+06 4.17799
7.34825E+06 4.17897
7.35435E+06 4.17995
7.36046E+06 4.18092
7.36657E+06 4.18190
7.37435E+06 4.18313
7.38213E+06 4.18437
7.38991E+06 4.18560
7.39769E+06 4.18684
7.40154E+06 4.18745
7.41060E+06 4.18888
7.41965E+06 4.19032
7.42981E+06 4.19192
7.43708E+06 4.19307
7.43996E+06 4.19352
7.45012E+06 4.19513
7.46027E+06 4.19673
7.47383E+06 4.19887
7.48005E+06 4.19985
7.48331E+06 4.20035
7.49054E+06 4.20149
7.49776E+06 4.20263
7.50929E+06 4.20443
7.52082E+06 4.20624
7.53235E+06 4.20805
7.54388E+06 4.20986
7.55349E+06 4.21135
7.56310E+06 4.21284
7.57271E+06 4.21433
7.58233E+06 4.21582
7.59194E+06 4.21731
7.60155E+06 4.21880
7.61116E+06 4.22030
7.62077E+06 4.22179
7.63038E+06 4.22328
7.63999E+06 4.22477
7.64960E+06 4.22626
7.65922E+06 4.22775
7.66883E+06 4.22924
7.67844E+06 4.23074
7.68805E+06 4.23223
7.69766E+06 4.23372
7.70758E+06 4.23524
7.71750E+06 4.23677
7.72742E+06 4.23830
7.73734E+06 4.23982
7.74484E+06 4.24097
7.75234E+06 4.24213
7.75994E+06 4.24329
7.76754E+06 4.24445
7.77673E+06 4.24585
7.78592E+06 4.24726
7.79511E+06 4.24867
7.80430E+06 4.25007
7.81242E+06 4.25130
7.82054E+06 4.25254
7.82866E+06 4.25377
7.83678E+06 4.25500
7.84490E+06 4.25623
7.85302E+06 4.25746
7.86115E+06 4.25869
7.86927E+06 4.25992
7.87739E+06 4.26115
7.88551E+06 4.26239
7.89363E+06 4.26362
7.90175E+06 4.26485
7.90987E+06 4.26608
7.91799E+06 4.26731
7.92611E+06 4.26854
7.93423E+06 4.26978
7.94245E+06 4.27101
7.95067E+06 4.27225
7.95889E+06 4.27348
7.96712E+06 4.27472
7.97534E+06 4.27595
7.98356E+06 4.27719
7.99178E+06 4.27842
8.00000E+06 4.27966
8.00421E+06 4.28028
8.00841E+06 4.28090
8.01262E+06 4.28153
8.01682E+06 4.28215
8.02103E+06 4.28277
8.02523E+06 4.28339
8.02944E+06 4.28402
8.03364E+06 4.28464
8.03895E+06 4.28542
8.04427E+06 4.28620
8.04958E+06 4.28698
8.05489E+06 4.28776
8.06021E+06 4.28855
8.06552E+06 4.28933
8.07083E+06 4.29011
8.07615E+06 4.29089
8.08146E+06 4.29167
8.08677E+06 4.29245
8.09209E+06 4.29323
8.09740E+06 4.29402
8.10271E+06 4.29480
8.10802E+06 4.29558
8.11334E+06 4.29636
8.11865E+06 4.29714
8.12478E+06 4.29804
8.13091E+06 4.29893
8.13704E+06 4.29982
8.14317E+06 4.30072
8.14930E+06 4.30161
8.15543E+06 4.30250
8.16157E+06 4.30340
8.16770E+06 4.30429
8.17383E+06 4.30519
8.17996E+06 4.30608
8.18609E+06 4.30697
8.19222E+06 4.30787
8.19835E+06 4.30876
8.20448E+06 4.30966
8.21061E+06 4.31055
8.21674E+06 4.31144
8.22232E+06 4.31225
8.22791E+06 4.31306
8.23349E+06 4.31387
8.23907E+06 4.31468
8.24690E+06 4.31581
8.25474E+06 4.31695
8.26257E+06 4.31809
8.27040E+06 4.31922
8.27848E+06 4.32038
8.28655E+06 4.32154
8.29462E+06 4.32270
8.30270E+06 4.32386
8.31077E+06 4.32502
8.31885E+06 4.32618
8.32692E+06 4.32734
8.33500E+06 4.32850
8.34307E+06 4.32966
8.35114E+06 4.33082
8.35922E+06 4.33198
8.36729E+06 4.33314
8.37537E+06 4.33430
8.38344E+06 4.33547
8.39152E+06 4.33663
8.39959E+06 4.33779
8.40495E+06 4.33855
8.41030E+06 4.33931
8.41566E+06 4.34007
8.42101E+06 4.34083
8.42637E+06 4.34160
8.43172E+06 4.34236
8.43708E+06 4.34312
8.44244E+06 4.34388
8.44779E+06 4.34465
8.45315E+06 4.34541
8.45850E+06 4.34617
8.46386E+06 4.34693
8.46921E+06 4.34770
8.47457E+06 4.34846
8.47993E+06 4.34922
8.48528E+06 4.34998
8.49285E+06 4.35105
8.50042E+06 4.35213
8.50799E+06 4.35320
8.51556E+06 4.35427
8.52312E+06 4.35535
8.53069E+06 4.35642
8.53826E+06 4.35749
8.54583E+06 4.35857
8.55025E+06 4.35919
8.55467E+06 4.35981
8.55908E+06 4.36043
8.56350E+06 4.36105
8.56792E+06 4.36168
8.57234E+06 4.36230
8.57675E+06 4.36292
8.58117E+06 4.36354
8.58574E+06 4.36419
8.59032E+06 4.36483
8.59489E+06 4.36547
8.59946E+06 4.36612
8.60608E+06 4.36704
8.61270E+06 4.36797
8.61931E+06 4.36890
8.62593E+06 4.36982
8.63255E+06 4.37075
8.63917E+06 4.37167
8.64578E+06 4.37260
8.65240E+06 4.37353
8.65902E+06 4.37445
8.66564E+06 4.37538
8.67225E+06 4.37631
8.67887E+06 4.37723
8.68549E+06 4.37816
8.69211E+06 4.37908
8.69872E+06 4.38001
8.70534E+06 4.38094
8.71372E+06 4.38210
8.72210E+06 4.38327
8.73047E+06 4.38443
8.73885E+06 4.38560
8.74355E+06 4.38625
8.74824E+06 4.38690
8.75294E+06 4.38755
8.75764E+06 4.38820
8.76233E+06 4.38886
8.76703E+06 4.38951
8.77172E+06 4.39016
8.77642E+06 4.39081
8.78111E+06 4.39146
8.78580E+06 4.39210
8.79049E+06 4.39275
8.79518E+06 4.39340
8.79986E+06 4.39405
8.80455E+06 4.39469
8.80924E+06 4.39534
8.81393E+06 4.39599
8.81862E+06 4.39664
8.82331E+06 4.39728
8.82800E+06 4.39793
8.83269E+06 4.39858
8.83737E+06 4.39923
8.84206E+06 4.39987
8.84675E+06 4.40052
8.85144E+06 4.40117
8.85954E+06 4.40228
8.86763E+06 4.40339
8.87214E+06 4.40401
8.87665E+06 4.40463
8.88116E+06 4.40525
8.88568E+06 4.40587
8.89019E+06 4.40649
8.89470E+06 4.40711
8.89921E+06 4.40773
8.90372E+06 4.40835
8.90823E+06 4.40897
8.91274E+06 4.40959
8.91725E+06 4.41021
8.92177E+06 4.41083
8.92628E+06 4.41145
8.93079E+06 4.41207
8.93530E+06 4.41269
8.93981E+06 4.41331
8.94733E+06 4.41433
8.95486E+06 4.41535
8.96238E+06 4.41638
8.96991E+06 4.41740
8.97743E+06 4.41843
8.98495E+06 4.41945
8.99248E+06 4.42047
9.00000E+06 4.42150
9.00251E+06 4.42179
9.01215E+06 4.42287
9.02179E+06 4.42395
9.02724E+06 4.42456
9.03269E+06 4.42517
9.03813E+06 4.42578
9.04358E+06 4.42639
9.04903E+06 4.42700
9.05448E+06 4.42760
9.05992E+06 4.42821
9.06537E+06 4.42882
9.07082E+06 4.42942
9.07627E+06 4.43003
9.08171E+06 4.43064
9.08716E+06 4.43124
9.09675E+06 4.43231
9.10634E+06 4.43338
9.11592E+06 4.43445
9.12551E+06 4.43552
9.13132E+06 4.43616
9.13714E+06 4.43681
9.14295E+06 4.43746
9.14876E+06 4.43811
9.15457E+06 4.43875
9.16039E+06 4.43940
9.16620E+06 4.44005
9.17201E+06 4.44070
9.17433E+06 4.44095
9.18076E+06 4.44165
9.18819E+06 4.44247
9.19562E+06 4.44329
9.20305E+06 4.44412
9.21049E+06 4.44494
9.21792E+06 4.44576
9.22535E+06 4.44658
9.23278E+06 4.44740
9.24021E+06 4.44822
9.24549E+06 4.44880
9.25077E+06 4.44938
9.25604E+06 4.44996
9.26132E+06 4.45054
9.26660E+06 4.45112
9.27188E+06 4.45170
9.27715E+06 4.45228
9.28243E+06 4.45286
9.29132E+06 4.45384
9.30021E+06 4.45481
9.30910E+06 4.45579
9.31799E+06 4.45677
9.31850E+06 4.45683
9.32365E+06 4.45739
9.32881E+06 4.45795
9.33396E+06 4.45851
9.33911E+06 4.45907
9.34819E+06 4.46006
9.35727E+06 4.46105
9.36635E+06 4.46204
9.37543E+06 4.46303
9.38451E+06 4.46401
9.39359E+06 4.46500
9.40267E+06 4.46599
9.41175E+06 4.46698
9.42083E+06 4.46796
9.42991E+06 4.46895
9.43899E+06 4.46994
9.44807E+06 4.47093
9.45715E+06 4.47191
9.46623E+06 4.47290
9.47531E+06 4.47389
9.48439E+06 4.47488
9.48474E+06 4.47491
9.48683E+06 4.47513
9.49241E+06 4.47573
9.49799E+06 4.47633
9.50357E+06 4.47693
9.50915E+06 4.47753
9.51473E+06 4.47813
9.52031E+06 4.47873
9.52590E+06 4.47933
9.53148E+06 4.47992
9.53706E+06 4.48052
9.54264E+06 4.48112
9.54822E+06 4.48172
9.55380E+06 4.48232
9.55938E+06 4.48292
9.56496E+06 4.48352
9.57054E+06 4.48412
9.57612E+06 4.48472
9.58170E+06 4.48532
9.58728E+06 4.48592
9.59286E+06 4.48652
9.59844E+06 4.48712
9.60402E+06 4.48772
9.60960E+06 4.48832
9.61519E+06 4.48892
9.62077E+06 4.48952
9.62635E+06 4.49012
9.63193E+06 4.49072
9.63751E+06 4.49132
9.64309E+06 4.49192
9.64867E+06 4.49252
9.65425E+06 4.49312
9.65983E+06 4.49372
9.66541E+06 4.49432
9.67096E+06 4.49491
9.67650E+06 4.49550
9.68205E+06 4.49609
9.68759E+06 4.49667
9.69314E+06 4.49726
9.69868E+06 4.49785
9.70423E+06 4.49844
9.70977E+06 4.49903
9.71545E+06 4.49963
9.72113E+06 4.50023
9.72681E+06 4.50083
9.73249E+06 4.50143
9.74004E+06 4.50223
9.74889E+06 4.50317
9.75773E+06 4.50411
9.76658E+06 4.50505
9.77543E+06 4.50598
9.78427E+06 4.50692
9.79312E+06 4.50786
9.80196E+06 4.50880
9.81081E+06 4.50974
9.82036E+06 4.51075
9.82991E+06 4.51176
9.83946E+06 4.51277
9.84901E+06 4.51378
9.85855E+06 4.51479
9.86810E+06 4.51581
9.87765E+06 4.51682
9.88720E+06 4.51783
9.89685E+06 4.51884
9.90649E+06 4.51986
9.91614E+06 4.52087
9.92579E+06 4.52188
9.93543E+06 4.52290
9.94508E+06 4.52391
9.95472E+06 4.52493
9.96437E+06 4.52595
9.97010E+06 4.52655
9.97582E+06 4.52715
9.98187E+06 4.52779
9.98791E+06 4.52843
9.99396E+06 4.52907
1.00000E+07 4.52971
1.00108E+07 4.53009
1.00216E+07 4.53047
1.00324E+07 4.53086
1.00433E+07 4.53124
1.00541E+07 4.53163
1.00649E+07 4.53202
1.00757E+07 4.53242
1.00865E+07 4.53281
1.01032E+07 4.53342
1.01199E+07 4.53403
1.01351E+07 4.53456
1.01502E+07 4.53509
1.01654E+07 4.53563
1.01805E+07 4.53617
1.01957E+07 4.53672
1.02108E+07 4.53727
1.02260E+07 4.53782
1.02411E+07 4.53838
1.02526E+07 4.53880
1.02641E+07 4.53922
1.02756E+07 4.53964
1.02871E+07 4.54007
1.02986E+07 4.54049
1.03101E+07 4.54092
1.03216E+07 4.54135
1.03331E+07 4.54179
1.03487E+07 4.54235
1.03642E+07 4.54292
1.03650E+07 4.54294
1.03830E+07 4.54359
1.04009E+07 4.54424
1.04189E+07 4.54491
1.04368E+07 4.54558
1.04496E+07 4.54606
1.04625E+07 4.54654
1.04753E+07 4.54702
1.04881E+07 4.54751
1.05055E+07 4.54818
1.05228E+07 4.54885
1.05402E+07 4.54953
1.05576E+07 4.55022
1.05789E+07 4.55104
1.06003E+07 4.55187
1.06216E+07 4.55271
1.06429E+07 4.55357
1.06586E+07 4.55421
1.06743E+07 4.55485
1.06900E+07 4.55550
1.07057E+07 4.55616
1.07135E+07 4.55650
1.07254E+07 4.55699
1.07373E+07 4.55748
1.07492E+07 4.55799
1.07611E+07 4.55849
1.07729E+07 4.55901
1.07848E+07 4.55953
1.07967E+07 4.56006
1.08086E+07 4.56060
1.08205E+07 4.56115
1.08324E+07 4.56170
1.08443E+07 4.56227
1.08562E+07 4.56284
1.08680E+07 4.56342
1.08799E+07 4.56401
1.08918E+07 4.56462
1.09037E+07 4.56523
1.09214E+07 4.56613
1.09392E+07 4.56706
1.09569E+07 4.56801
1.09746E+07 4.56899
1.09810E+07 4.56924
1.09873E+07 4.56948
1.09937E+07 4.56973
1.10000E+07 4.56998
1.10099E+07 4.56999
1.10199E+07 4.57000
1.10298E+07 4.57002
1.10397E+07 4.57004
1.10496E+07 4.57007
1.10596E+07 4.57010
1.10695E+07 4.57014
1.10794E+07 4.57018
1.10893E+07 4.57023
1.10993E+07 4.57029
1.11092E+07 4.57035
1.11191E+07 4.57041
1.11290E+07 4.57048
1.11390E+07 4.57056
1.11489E+07 4.57065
1.11583E+07 4.57073
1.11588E+07 4.57074
1.11686E+07 4.57082
1.11784E+07 4.57092
1.11881E+07 4.57102
1.11979E+07 4.57113
1.12089E+07 4.57126
1.12199E+07 4.57139
1.12309E+07 4.57154
1.12419E+07 4.57169
1.12496E+07 4.57179
1.12574E+07 4.57189
1.12651E+07 4.57200
1.12728E+07 4.57211
1.12805E+07 4.57222
1.12883E+07 4.57234
1.12960E+07 4.57246
1.13037E+07 4.57259
1.13114E+07 4.57272
1.13192E+07 4.57285
1.13269E+07 4.57300
1.13346E+07 4.57314
1.13423E+07 4.57329
1.13501E+07 4.57344
1.13578E+07 4.57360
1.13655E+07 4.57376
1.13732E+07 4.57393
1.13810E+07 4.57410
1.13887E+07 4.57427
1.13964E+07 4.57445
1.14041E+07 4.57464
1.14119E+07 4.57483
1.14196E+07 4.57503
1.14273E+07 4.57522
1.14350E+07 4.57543
1.14428E+07 4.57564
1.14505E+07 4.57585
1.14582E+07 4.57608
1.14659E+07 4.57630
1.14737E+07 4.57653
1.14814E+07 4.57677
1.14891E+07 4.57701
1.14969E+07 4.57725
1.15000E+07 4.57734
1.15058E+07 4.57752
1.15115E+07 4.57770
1.15230E+07 4.57808
1.15345E+07 4.57846
1.15460E+07 4.57886
1.15575E+07 4.57927
1.15690E+07 4.57970
1.15805E+07 4.58013
1.15920E+07 4.58059
1.16023E+07 4.58100
1.16125E+07 4.58142
1.16228E+07 4.58186
1.16331E+07 4.58231
1.16433E+07 4.58277
1.16536E+07 4.58324
1.16638E+07 4.58372
1.16741E+07 4.58421
1.16836E+07 4.58467
1.16931E+07 4.58514
1.17026E+07 4.58562
1.17121E+07 4.58611
1.17215E+07 4.58661
1.17310E+07 4.58712
1.17405E+07 4.58764
1.17500E+07 4.58818
1.17588E+07 4.58868
1.17676E+07 4.58920
1.17763E+07 4.58972
1.17851E+07 4.59026
1.17939E+07 4.59080
1.18027E+07 4.59136
1.18114E+07 4.59193
1.18202E+07 4.59251
1.18290E+07 4.59310
1.18378E+07 4.59370
1.18465E+07 4.59432
1.18553E+07 4.59495
1.18641E+07 4.59559
1.18729E+07 4.59624
1.18816E+07 4.59690
1.18904E+07 4.59758
1.18973E+07 4.59811
1.19041E+07 4.59865
1.19110E+07 4.59919
1.19178E+07 4.59975
1.19247E+07 4.60031
1.19315E+07 4.60088
1.19384E+07 4.60146
1.19452E+07 4.60205
1.19521E+07 4.60264
1.19589E+07 4.60325
1.19658E+07 4.60386
1.19726E+07 4.60448
1.19795E+07 4.60512
1.19863E+07 4.60576
1.19932E+07 4.60641
1.20000E+07 4.60707
1.20109E+07 4.60574
1.20217E+07 4.60442
1.20326E+07 4.60312
1.20435E+07 4.60183
1.20543E+07 4.60055
1.20652E+07 4.59928
1.20760E+07 4.59803
1.20869E+07 4.59679
1.20978E+07 4.59556
1.21086E+07 4.59435
1.21195E+07 4.59315
1.21304E+07 4.59196
1.21412E+07 4.59079
1.21521E+07 4.58962
1.21629E+07 4.58848
1.21738E+07 4.58734
1.21830E+07 4.58637
1.21922E+07 4.58541
1.22015E+07 4.58446
1.22107E+07 4.58351
1.22199E+07 4.58258
1.22291E+07 4.58166
1.22383E+07 4.58074
1.22476E+07 4.57984
1.22568E+07 4.57895
1.22660E+07 4.57807
1.22752E+07 4.57719
1.22844E+07 4.57633
1.22937E+07 4.57548
1.23029E+07 4.57464
1.23121E+07 4.57381
1.23213E+07 4.57298
1.23316E+07 4.57206
1.23419E+07 4.57115
1.23521E+07 4.57026
1.23624E+07 4.56937
1.23727E+07 4.56850
1.23830E+07 4.56765
1.23932E+07 4.56680
1.24035E+07 4.56597
1.24140E+07 4.56513
1.24245E+07 4.56430
1.24350E+07 4.56348
1.24456E+07 4.56268
1.24561E+07 4.56189
1.24666E+07 4.56112
1.24771E+07 4.56036
1.24876E+07 4.55962
1.24900E+07 4.55945
1.25000E+07 4.55876
1.25105E+07 4.55802
1.25210E+07 4.55730
1.25315E+07 4.55660
1.25421E+07 4.55591
1.25526E+07 4.55524
1.25631E+07 4.55458
1.25736E+07 4.55394
1.25841E+07 4.55331
1.25946E+07 4.55270
1.26051E+07 4.55210
1.26156E+07 4.55152
1.26262E+07 4.55096
1.26367E+07 4.55041
1.26472E+07 4.54987
1.26577E+07 4.54936
1.26682E+07 4.54886
1.26832E+07 4.54814
1.26982E+07 4.54746
1.27151E+07 4.54672
1.27319E+07 4.54602
1.27488E+07 4.54537
1.27656E+07 4.54476
1.27825E+07 4.54420
1.27993E+07 4.54368
1.28162E+07 4.54320
1.28330E+07 4.54277
1.28434E+07 4.54250
1.28539E+07 4.54225
1.28643E+07 4.54202
1.28748E+07 4.54181
1.28852E+07 4.54161
1.28956E+07 4.54144
1.29061E+07 4.54128
1.29165E+07 4.54114
1.29269E+07 4.54102
1.29374E+07 4.54092
1.29478E+07 4.54083
1.29583E+07 4.54077
1.29687E+07 4.54072
1.29791E+07 4.54070
1.29896E+07 4.54069
1.30000E+07 4.54070
1.30049E+07 4.54017
1.30198E+07 4.53856
1.30347E+07 4.53698
1.30496E+07 4.53541
1.30645E+07 4.53387
1.30793E+07 4.53234
1.30942E+07 4.53084
1.31091E+07 4.52935
1.31240E+07 4.52789
1.31389E+07 4.52644
1.31538E+07 4.52502
1.31687E+07 4.52362
1.31836E+07 4.52224
1.31984E+07 4.52088
1.32133E+07 4.51954
1.32282E+07 4.51822
1.32431E+07 4.51693
1.32586E+07 4.51559
1.32741E+07 4.51426
1.32895E+07 4.51297
1.33050E+07 4.51169
1.33205E+07 4.51044
1.33360E+07 4.50922
1.33514E+07 4.50801
1.33669E+07 4.50684
1.33824E+07 4.50568
1.33979E+07 4.50455
1.34133E+07 4.50345
1.34288E+07 4.50237
1.34443E+07 4.50131
1.34598E+07 4.50029
1.34752E+07 4.49928
1.34907E+07 4.49830
1.34933E+07 4.49813
1.34986E+07 4.49780
1.35000E+07 4.49771
1.35219E+07 4.49636
1.35439E+07 4.49507
1.35658E+07 4.49382
1.35878E+07 4.49263
1.36097E+07 4.49149
1.36316E+07 4.49041
1.36536E+07 4.48937
1.36755E+07 4.48840
1.36954E+07 4.48754
1.37152E+07 4.48672
1.37372E+07 4.48587
1.37592E+07 4.48507
1.37811E+07 4.48434
1.38031E+07 4.48366
1.38251E+07 4.48303
1.38471E+07 4.48247
1.38690E+07 4.48197
1.38910E+07 4.48153
1.39046E+07 4.48127
1.39183E+07 4.48103
1.39319E+07 4.48082
1.39455E+07 4.48063
1.39591E+07 4.48047
1.39728E+07 4.48033
1.39864E+07 4.48021
1.40000E+07 4.48012
1.40080E+07 4.47889
1.40375E+07 4.47438
1.40669E+07 4.46995
1.40964E+07 4.46560
1.41258E+07 4.46132
1.41553E+07 4.45713
1.41847E+07 4.45302
1.42142E+07 4.44900
1.42436E+07 4.44505
1.42757E+07 4.44073
1.43077E+07 4.43650
1.43398E+07 4.43238
1.43718E+07 4.42835
1.44039E+07 4.42443
1.44359E+07 4.42060
1.44680E+07 4.41688
1.45000E+07 4.41326
1.45292E+07 4.40911
1.45585E+07 4.40503
1.45877E+07 4.40099
1.46169E+07 4.39702
1.46477E+07 4.39284
1.46785E+07 4.38872
1.47092E+07 4.38467
1.47400E+07 4.38069
1.47708E+07 4.37677
1.48016E+07 4.37292
1.48323E+07 4.36914
1.48631E+07 4.36542
1.48922E+07 4.36195
1.49213E+07 4.35854
1.49503E+07 4.35520
1.49794E+07 4.35191
1.49795E+07 4.35190
1.50000E+07 4.34962
1.50230E+07 4.34564
1.50460E+07 4.34169
1.50690E+07 4.33778
1.50920E+07 4.33391
1.51149E+07 4.33008
1.51379E+07 4.32629
1.51609E+07 4.32253
1.51839E+07 4.31882
1.52224E+07 4.31197
1.52609E+07 4.30521
1.52994E+07 4.29852
1.53379E+07 4.29192
1.53764E+07 4.28540
1.54149E+07 4.27896
1.54534E+07 4.27260
1.54919E+07 4.26633
1.55254E+07 4.26082
1.55512E+07 4.25661
1.55771E+07 4.25243
1.56029E+07 4.24830
1.56287E+07 4.24420
1.56545E+07 4.24013
1.56804E+07 4.23611
1.57062E+07 4.23212
1.57320E+07 4.22817
1.57595E+07 4.22397
1.57869E+07 4.21981
1.58144E+07 4.21570
1.58419E+07 4.21163
1.58693E+07 4.20760
1.58968E+07 4.20362
1.59242E+07 4.19968
1.59517E+07 4.19578
1.59759E+07 4.19237
1.60000E+07 4.18899
1.60114E+07 4.18664
1.60228E+07 4.18430
1.60341E+07 4.18196
1.60455E+07 4.17963
1.60569E+07 4.17730
1.60683E+07 4.17499
1.60796E+07 4.17267
1.60910E+07 4.17037
1.61058E+07 4.16736
1.61206E+07 4.16436
1.61353E+07 4.16137
1.61501E+07 4.15840
1.61649E+07 4.15543
1.61797E+07 4.15248
1.61944E+07 4.14954
1.62092E+07 4.14661
1.62240E+07 4.14368
1.62388E+07 4.14077
1.62535E+07 4.13787
1.62683E+07 4.13499
1.62831E+07 4.13211
1.62979E+07 4.12924
1.63126E+07 4.12638
1.63274E+07 4.12354
1.63400E+07 4.12109
1.63526E+07 4.11865
1.63652E+07 4.11623
1.63778E+07 4.11381
1.63903E+07 4.11139
1.64029E+07 4.10899
1.64155E+07 4.10659
1.64281E+07 4.10420
1.64407E+07 4.10182
1.64533E+07 4.09944
1.64659E+07 4.09708
1.64785E+07 4.09472
1.64910E+07 4.09237
1.65036E+07 4.09002
1.65162E+07 4.08769
1.65288E+07 4.08536
1.65383E+07 4.08359
1.65479E+07 4.08183
1.65574E+07 4.08007
1.65669E+07 4.07831
1.65764E+07 4.07656
1.65860E+07 4.07481
1.65955E+07 4.07307
1.66050E+07 4.07133
1.66160E+07 4.06933
1.66269E+07 4.06733
1.66379E+07 4.06534
1.66489E+07 4.06336
1.66598E+07 4.06138
1.66708E+07 4.05940
1.66817E+07 4.05743
1.66927E+07 4.05547
1.67079E+07 4.05274
1.67232E+07 4.05003
1.67384E+07 4.04732
1.67536E+07 4.04463
1.67618E+07 4.04318
1.67729E+07 4.04123
1.67878E+07 4.03859
1.68028E+07 4.03597
1.68177E+07 4.03336
1.68327E+07 4.03076
1.68476E+07 4.02817
1.68625E+07 4.02560
1.68775E+07 4.02303
1.68924E+07 4.02047
1.69088E+07 4.01766
1.69252E+07 4.01487
1.69416E+07 4.01209
1.69580E+07 4.00932
1.69685E+07 4.00755
1.69790E+07 4.00578
1.69895E+07 4.00403
1.70000E+07 4.00227
1.70098E+07 4.00051
1.70196E+07 3.99875
1.70351E+07 3.99597
1.70506E+07 3.99320
1.70654E+07 3.99057
1.70801E+07 3.98794
1.70949E+07 3.98531
1.71096E+07 3.98270
1.71244E+07 3.98009
1.71391E+07 3.97750
1.71539E+07 3.97491
1.71687E+07 3.97233
1.71834E+07 3.96975
1.71982E+07 3.96718
1.72129E+07 3.96462
1.72277E+07 3.96207
1.72424E+07 3.95953
1.72572E+07 3.95700
1.72720E+07 3.95447
1.72867E+07 3.95195
1.73019E+07 3.94934
1.73172E+07 3.94674
1.73324E+07 3.94415
1.73476E+07 3.94157
1.73628E+07 3.93899
1.73781E+07 3.93643
1.73933E+07 3.93387
1.74085E+07 3.93132
1.74179E+07 3.92974
1.74274E+07 3.92817
1.74368E+07 3.92660
1.74462E+07 3.92503
1.74635E+07 3.92203
1.74808E+07 3.91905
1.74981E+07 3.91607
1.75154E+07 3.91310
1.75327E+07 3.91015
1.75500E+07 3.90720
1.75674E+07 3.90426
1.75847E+07 3.90133
1.76020E+07 3.89841
1.76193E+07 3.89550
1.76366E+07 3.89260
1.76539E+07 3.88971
1.76712E+07 3.88683
1.76885E+07 3.88396
1.77058E+07 3.88110
1.77231E+07 3.87824
1.77404E+07 3.87540
1.77577E+07 3.87256
1.77750E+07 3.86974
1.77923E+07 3.86692
1.78096E+07 3.86411
1.78269E+07 3.86132
1.78443E+07 3.85853
1.78616E+07 3.85575
1.78789E+07 3.85298
1.78962E+07 3.85022
1.79135E+07 3.84747
1.79308E+07 3.84473
1.79481E+07 3.84199
1.79654E+07 3.83927
1.79827E+07 3.83655
1.80000E+07 3.83385
1.80139E+07 3.83132
1.80277E+07 3.82879
1.80415E+07 3.82628
1.80554E+07 3.82377
1.80692E+07 3.82126
1.80831E+07 3.81876
1.80969E+07 3.81627
1.81108E+07 3.81379
1.81246E+07 3.81131
1.81384E+07 3.80884
1.81523E+07 3.80638
1.81661E+07 3.80392
1.81800E+07 3.80147
1.81938E+07 3.79902
1.82077E+07 3.79659
1.82215E+07 3.79416
1.82354E+07 3.79173
1.82492E+07 3.78931
1.82630E+07 3.78690
1.82769E+07 3.78450
1.82907E+07 3.78210
1.83046E+07 3.77971
1.83184E+07 3.77732
1.83323E+07 3.77495
1.83461E+07 3.77257
1.83599E+07 3.77021
1.83738E+07 3.76785
1.83876E+07 3.76550
1.84015E+07 3.76315
1.84153E+07 3.76081
1.84292E+07 3.75848
1.84430E+07 3.75616
1.84604E+07 3.75316
1.84778E+07 3.75018
1.84952E+07 3.74721
1.85126E+07 3.74425
1.85300E+07 3.74130
1.85474E+07 3.73836
1.85649E+07 3.73543
1.85823E+07 3.73251
1.85997E+07 3.72960
1.86171E+07 3.72670
1.86345E+07 3.72381
1.86519E+07 3.72094
1.86693E+07 3.71807
1.86867E+07 3.71521
1.87041E+07 3.71237
1.87215E+07 3.70953
1.87389E+07 3.70670
1.87563E+07 3.70389
1.87737E+07 3.70108
1.87911E+07 3.69828
1.88085E+07 3.69550
1.88259E+07 3.69272
1.88434E+07 3.68996
1.88608E+07 3.68720
1.88782E+07 3.68446
1.88956E+07 3.68172
1.89130E+07 3.67899
1.89304E+07 3.67628
1.89478E+07 3.67357
1.89652E+07 3.67088
1.89826E+07 3.66819
1.90000E+07 3.66552
1.90193E+07 3.66234
1.90387E+07 3.65918
1.90580E+07 3.65603
1.90773E+07 3.65289
1.90966E+07 3.64976
1.91159E+07 3.64665
1.91353E+07 3.64354
1.91546E+07 3.64044
1.91739E+07 3.63736
1.91932E+07 3.63428
1.92126E+07 3.63122
1.92319E+07 3.62817
1.92512E+07 3.62513
1.92705E+07 3.62209
1.92898E+07 3.61907
1.93092E+07 3.61606
1.93285E+07 3.61306
1.93478E+07 3.61007
1.93671E+07 3.60709
1.93864E+07 3.60413
1.94058E+07 3.60117
1.94251E+07 3.59822
1.94444E+07 3.59528
1.94637E+07 3.59236
1.94831E+07 3.58944
1.95024E+07 3.58653
1.95217E+07 3.58364
1.95410E+07 3.58076
1.95603E+07 3.57788
1.95797E+07 3.57502
1.95990E+07 3.57216
1.96183E+07 3.56932
1.96422E+07 3.56567
1.96660E+07 3.56203
1.96899E+07 3.55840
1.97137E+07 3.55480
1.97376E+07 3.55120
1.97614E+07 3.54762
1.97853E+07 3.54406
1.98092E+07 3.54051
1.98330E+07 3.53698
1.98569E+07 3.53346
1.98807E+07 3.52995
1.99046E+07 3.52647
1.99284E+07 3.52299
1.99523E+07 3.51953
1.99762E+07 3.51609
2.00000E+07 3.51266
