Cd-108(n,tot) ENDFB-8.0
Energy(eV) XS(b)
1.00000E-05 64.3803
1.03125E-05 63.4051
1.06250E-05 62.4734
1.09375E-05 61.5820
1.12500E-05 60.7281
1.15625E-05 59.9091
1.18750E-05 59.1228
1.21875E-05 58.3671
1.25000E-05 57.6399
1.28125E-05 56.9396
1.31250E-05 56.2645
1.34375E-05 55.6132
1.37500E-05 54.9843
1.43750E-05 53.7889
1.50000E-05 52.6692
1.56250E-05 51.6176
1.62500E-05 50.6275
1.68750E-05 49.6932
1.75000E-05 48.8097
1.81250E-05 47.9724
1.87500E-05 47.1775
1.93750E-05 46.4216
2.00000E-05 45.7016
2.09375E-05 44.6829
2.18750E-05 43.7308
2.28125E-05 42.8383
2.37500E-05 41.9995
2.46875E-05 41.2092
2.56250E-05 40.4630
2.65625E-05 39.7568
2.75000E-05 39.0874
2.84375E-05 38.4515
2.93750E-05 37.8465
3.03125E-05 37.2701
3.12500E-05 36.7199
3.21875E-05 36.1942
3.31250E-05 35.6911
3.40625E-05 35.2091
3.50000E-05 34.7467
3.59375E-05 34.3028
3.68750E-05 33.8760
3.78125E-05 33.4653
3.87500E-05 33.0697
3.96875E-05 32.6884
4.06250E-05 32.3205
4.25000E-05 31.6219
4.43750E-05 30.9685
4.62500E-05 30.3557
4.81250E-05 29.7794
5.00000E-05 29.2362
5.15625E-05 28.8067
5.31250E-05 28.3964
5.46875E-05 28.0041
5.62500E-05 27.6285
5.78125E-05 27.2683
5.93750E-05 26.9227
6.09375E-05 26.5907
6.25000E-05 26.2713
6.40625E-05 25.9639
6.56250E-05 25.6677
6.71875E-05 25.3820
6.87500E-05 25.1063
7.18750E-05 24.5825
7.50000E-05 24.0923
7.81250E-05 23.6324
8.12500E-05 23.1996
8.43750E-05 22.7916
8.75000E-05 22.4060
9.06250E-05 22.0410
9.37500E-05 21.6947
9.68750E-05 21.3656
0.000100000 21.0524
0.000103125 20.7538
0.000106250 20.4688
0.000109375 20.1964
0.000112500 19.9356
0.000115625 19.6858
0.000118750 19.4461
0.000121875 19.2159
0.000125000 18.9947
0.000128125 18.7817
0.000131250 18.5766
0.000134375 18.3789
0.000137500 18.1882
0.000143750 17.8261
0.000150000 17.4874
0.000156250 17.1699
0.000162500 16.8714
0.000168750 16.5901
0.000175000 16.3245
0.000181250 16.0733
0.000187500 15.8351
0.000193750 15.6089
0.000200000 15.3937
0.000209375 15.0898
0.000218750 14.8064
0.000228125 14.5413
0.000237500 14.2926
0.000246875 14.0588
0.000256250 13.8384
0.000265625 13.6302
0.000275000 13.4332
0.000284375 13.2465
0.000293750 13.0691
0.000303125 12.9004
0.000312500 12.7396
0.000321875 12.5862
0.000331250 12.4397
0.000340625 12.2996
0.000350000 12.1653
0.000359375 12.0366
0.000368750 11.9131
0.000378125 11.7943
0.000387500 11.6802
0.000396875 11.5703
0.000406250 11.4644
0.000425000 11.2637
0.000443750 11.0764
0.000462500 10.9013
0.000481250 10.7369
0.000500000 10.5824
0.000515625 10.4604
0.000531250 10.3441
0.000546875 10.2331
0.000562500 10.1270
0.000578125 10.0254
0.000593750 9.92804
0.000609375 9.83466
0.000625000 9.74498
0.000640625 9.65876
0.000656250 9.57581
0.000671875 9.49590
0.000687500 9.41888
0.000718750 9.27282
0.000750000 9.13643
0.000781250 9.00872
0.000812500 8.88882
0.000843750 8.77596
0.000875000 8.66950
0.000906250 8.56887
0.000937500 8.47355
0.000968750 8.38311
0.00100000 8.29713
0.00103125 8.21529
0.00106250 8.13724
0.00109375 8.06273
0.00112500 7.99148
0.00115625 7.92327
0.00118750 7.85789
0.00121875 7.79516
0.00125000 7.73490
0.00128125 7.67696
0.00131250 7.62118
0.00134375 7.56745
0.00137500 7.51564
0.00143750 7.41735
0.00150000 7.32552
0.00156250 7.23948
0.00162500 7.15865
0.00168750 7.08254
0.00175000 7.01069
0.00181250 6.94274
0.00187500 6.87834
0.00193750 6.81720
0.00200000 6.75906
0.00209375 6.67695
0.00218750 6.60036
0.00228125 6.52870
0.00237500 6.46148
0.00246875 6.39824
0.00256250 6.33863
0.00265625 6.28230
0.00275000 6.22897
0.00284375 6.17838
0.00293750 6.13031
0.00303125 6.08455
0.00312500 6.04093
0.00321875 5.99929
0.00331250 5.95948
0.00340625 5.92137
0.00350000 5.88485
0.00359375 5.84980
0.00368750 5.81614
0.00378125 5.78377
0.00387500 5.75262
0.00396875 5.72260
0.00406250 5.69366
0.00425000 5.63875
0.00443750 5.58745
0.00462500 5.53938
0.00481250 5.49421
0.00500000 5.45168
0.00515625 5.41806
0.00531250 5.38596
0.00546875 5.35529
0.00562500 5.32593
0.00578125 5.29780
0.00593750 5.27081
0.00609375 5.24489
0.00625000 5.21997
0.00640625 5.19598
0.00656250 5.17288
0.00671875 5.15060
0.00687500 5.12910
0.00718750 5.08827
0.00750000 5.05006
0.00781250 5.01422
0.00812500 4.98050
0.00843750 4.94871
0.00875000 4.91867
0.00906250 4.89022
0.00937500 4.86323
0.00968750 4.83758
0.0100000 4.81317
0.0103125 4.78989
0.0106250 4.76766
0.0109375 4.74641
0.0112500 4.72607
0.0115625 4.70657
0.0118750 4.68785
0.0121875 4.66987
0.0125000 4.65259
0.0128125 4.63594
0.0131250 4.61991
0.0134375 4.60444
0.0137500 4.58952
0.0143750 4.56116
0.0150000 4.53461
0.0156250 4.50969
0.0162500 4.48625
0.0168750 4.46413
0.0175000 4.44322
0.0181250 4.42342
0.0187500 4.40463
0.0193750 4.38676
0.0200000 4.36975
0.0206625 4.35258
0.0213250 4.33622
0.0219875 4.32061
0.0226500 4.30571
0.0233125 4.29145
0.0239750 4.27779
0.0246375 4.26469
0.0253000 4.25211
0.0264578 4.23129
0.0276156 4.21181
0.0287734 4.19353
0.0299313 4.17633
0.0310891 4.16010
0.0322469 4.14477
0.0334047 4.13025
0.0345625 4.11647
0.0355274 4.10551
0.0364922 4.09498
0.0374570 4.08487
0.0384219 4.07514
0.0393867 4.06578
0.0403516 4.05675
0.0413164 4.04805
0.0422813 4.03964
0.0442109 4.02367
0.0461406 4.00872
0.0480703 3.99468
0.0500000 3.98146
0.0515625 3.97131
0.0531250 3.96162
0.0546875 3.95235
0.0562500 3.94346
0.0578125 3.93494
0.0593750 3.92676
0.0609375 3.91890
0.0625000 3.91134
0.0640625 3.90406
0.0656250 3.89704
0.0671875 3.89027
0.0687500 3.88374
0.0718750 3.87131
0.0750000 3.85966
0.0781250 3.84872
0.0812500 3.83842
0.0843750 3.82869
0.0875000 3.81949
0.0906250 3.81076
0.0937500 3.80248
0.0968750 3.79461
0.100000 3.78710
0.103125 3.77994
0.106250 3.77310
0.109375 3.76655
0.112500 3.76027
0.115625 3.75425
0.118750 3.74847
0.121875 3.74292
0.125000 3.73757
0.128125 3.73242
0.131250 3.72746
0.134375 3.72267
0.137500 3.71805
0.143750 3.70925
0.150000 3.70100
0.156250 3.69325
0.162500 3.68594
0.168750 3.67904
0.175000 3.67251
0.181250 3.66632
0.187500 3.66043
0.193750 3.65484
0.200000 3.64950
0.204688 3.64566
0.209375 3.64196
0.218750 3.63489
0.228125 3.62826
0.237500 3.62202
0.246875 3.61613
0.256250 3.61056
0.265625 3.60529
0.275000 3.60028
0.284375 3.59552
0.293750 3.59099
0.303125 3.58666
0.312500 3.58253
0.321875 3.57857
0.331250 3.57478
0.340625 3.57115
0.350000 3.56766
0.359375 3.56430
0.368750 3.56107
0.378125 3.55796
0.387500 3.55496
0.396875 3.55206
0.406250 3.54927
0.425000 3.54395
0.443750 3.53896
0.462500 3.53426
0.500000 3.52566
0.531250 3.51917
0.562500 3.51321
0.593750 3.50770
0.625000 3.50259
0.687500 3.49340
0.750000 3.48533
0.812500 3.47816
0.875000 3.47175
0.937500 3.46595
1.00000 3.46065
1.06250 3.45579
1.12500 3.45132
1.18750 3.44718
1.25000 3.44333
1.37500 3.43636
1.50000 3.43021
1.62500 3.42471
1.75000 3.41976
1.87500 3.41526
2.00000 3.41113
2.18750 3.40553
2.37500 3.40053
2.56250 3.39600
2.75000 3.39189
2.93750 3.38811
3.12500 3.38462
3.31250 3.38138
3.50000 3.37836
3.68750 3.37552
3.87500 3.37286
4.06250 3.37034
4.25000 3.36796
4.62500 3.36354
5.00000 3.35951
5.31250 3.35641
5.62500 3.35350
5.93750 3.35075
6.25000 3.34816
6.56250 3.34570
6.87500 3.34335
7.18750 3.34111
7.50000 3.33897
8.12500 3.33492
8.75000 3.33115
9.37500 3.32762
10.0000 3.32427
10.6250 3.32109
11.2500 3.31806
11.8750 3.31514
12.5000 3.31233
13.1250 3.30962
13.7500 3.30698
14.3750 3.30442
15.0000 3.30192
16.2500 3.29708
17.5000 3.29242
18.7500 3.28791
20.0000 3.28351
20.9375 3.28028
21.8750 3.27709
23.7500 3.27082
25.6250 3.26467
27.5000 3.25860
29.3750 3.25260
31.2500 3.24664
33.1250 3.24073
35.0000 3.23485
36.8750 3.22903
38.2813 3.22470
39.6875 3.22044
40.3906 3.21834
41.0938 3.21627
41.7969 3.21423
42.5000 3.21224
43.1152 3.21056
43.7305 3.20892
44.3457 3.20737
44.9609 3.20591
45.5762 3.20459
45.8838 3.20398
46.1914 3.20343
46.4990 3.20294
46.8067 3.20251
47.1143 3.20216
47.4219 3.20192
47.7149 3.20179
48.0078 3.20179
48.3008 3.20194
48.5938 3.20228
48.7403 3.20253
48.8867 3.20285
49.0332 3.20324
49.1797 3.20370
49.3262 3.20426
49.4727 3.20491
49.6192 3.20567
49.7656 3.20656
49.8828 3.20739
50.0000 3.20832
50.1618 3.20980
50.3236 3.21154
50.4854 3.21359
50.5664 3.21476
50.6473 3.21602
50.7282 3.21739
50.8091 3.21889
50.8900 3.22051
50.9709 3.22229
51.0518 3.22422
51.1327 3.22633
51.2136 3.22865
51.2945 3.23118
51.3835 3.23427
51.4725 3.23769
51.5615 3.24151
51.6505 3.24578
51.7395 3.25057
51.8285 3.25596
51.9175 3.26204
51.9620 3.26538
52.0065 3.26893
52.0834 3.27565
52.1602 3.28320
52.1986 3.28732
52.2371 3.29171
52.2755 3.29638
52.3139 3.30135
52.3524 3.30665
52.3908 3.31232
52.4292 3.31838
52.4677 3.32487
52.5061 3.33184
52.5445 3.33932
52.5829 3.34738
52.6214 3.35608
52.6659 3.36703
52.7104 3.37905
52.7549 3.39228
52.7994 3.40687
52.8439 3.42305
52.8884 3.44102
52.9329 3.46109
52.9551 3.47201
52.9774 3.48358
52.9996 3.49586
53.0219 3.50891
53.0441 3.52280
53.0664 3.53760
53.0886 3.55339
53.1109 3.57027
53.1331 3.58834
53.1554 3.60772
53.1776 3.62854
53.1999 3.65096
53.2221 3.67515
53.2444 3.70132
53.2666 3.72969
53.2889 3.76053
53.3111 3.79417
53.3333 3.83096
53.3556 3.87138
53.3778 3.91595
53.4001 3.96532
53.4223 4.02029
53.4335 4.05019
53.4446 4.08186
53.4557 4.11551
53.4668 4.15128
53.4780 4.18943
53.4891 4.23013
53.5002 4.27373
53.5113 4.32044
53.5225 4.37070
53.5336 4.42480
53.5447 4.48330
53.5558 4.54658
53.5670 4.61533
53.5781 4.69008
53.5892 4.77170
53.6003 4.86086
53.6115 4.95867
53.6226 5.06600
53.6337 5.18423
53.6448 5.31446
53.6560 5.45841
53.6671 5.61743
53.6782 5.79346
53.6893 5.98848
53.6974 6.14371
53.7055 6.31083
53.7136 6.49098
53.7217 6.68516
53.7298 6.89441
53.7379 7.11983
53.7460 7.36256
53.7541 7.62379
53.7622 7.90474
53.7702 8.20666
53.7783 8.53085
53.7864 8.87859
53.7945 9.25120
53.8026 9.64997
53.8107 10.0762
53.8188 10.5312
53.8299 11.2063
53.8410 11.9405
53.8522 12.7377
53.8633 13.5989
53.8744 14.5276
53.8855 15.5235
53.8967 16.5890
53.9078 17.7222
53.9189 18.9243
53.9300 20.1913
53.9412 21.5226
53.9523 22.9121
53.9634 24.3571
53.9745 25.8490
53.9968 28.9470
54.0413 35.3307
54.0635 38.4242
54.0858 41.3084
54.0969 42.6390
54.1080 43.8751
54.1192 45.0061
54.1303 46.0178
54.1423 46.9670
54.1543 47.7518
54.1664 48.3624
54.1784 48.7909
54.1892 49.0154
54.2000 49.0861
54.2072 49.0471
54.2189 48.8379
54.2306 48.4503
54.2423 47.8896
54.2540 47.1629
54.2642 46.4026
54.2744 45.5308
54.2897 44.0225
54.3051 42.3099
54.3170 40.8680
54.3288 39.3423
54.3525 36.1016
54.4140 27.3629
54.4293 25.2649
54.4447 23.2516
54.4600 21.3374
54.4754 19.5378
54.4887 18.0804
54.5019 16.7192
54.5152 15.4546
54.5218 14.8587
54.5284 14.2868
54.5351 13.7388
54.5417 13.2143
54.5483 12.7130
54.5550 12.2345
54.5616 11.7782
54.5682 11.3437
54.5748 10.9303
54.5815 10.5374
54.5892 10.1072
54.5968 9.70266
54.6045 9.32270
54.6122 8.96670
54.6199 8.63264
54.6275 8.31987
54.6352 8.02732
54.6429 7.75424
54.6506 7.49884
54.6583 7.26046
54.6659 7.03808
54.6736 6.83098
54.6813 6.63767
54.6890 6.45752
54.6966 6.28967
54.7043 6.13347
54.7141 5.94965
54.7239 5.78177
54.7336 5.62822
54.7434 5.48769
54.7532 5.35884
54.7630 5.24084
54.7727 5.13252
54.7825 5.03296
54.7923 4.94123
54.8020 4.85676
54.8118 4.77877
54.8216 4.70662
54.8314 4.63977
54.8411 4.57770
54.8509 4.51997
54.8607 4.46617
54.8760 4.38869
54.8914 4.31885
54.9067 4.25555
54.9221 4.19799
54.9374 4.14538
54.9528 4.09717
54.9682 4.05278
54.9835 4.01183
54.9989 3.97388
55.0142 3.93866
55.0296 3.90586
55.0449 3.87527
55.0603 3.84664
55.0756 3.81984
55.0910 3.79466
55.1063 3.77100
55.1217 3.74870
55.1371 3.72767
55.1678 3.68903
55.1985 3.65438
55.2292 3.62316
55.2599 3.59493
55.2906 3.56929
55.3213 3.54593
55.3520 3.52458
55.3814 3.50586
55.4107 3.48859
55.4400 3.47261
55.4693 3.45780
55.4986 3.44403
55.5279 3.43123
55.5572 3.41928
55.5866 3.40812
55.6159 3.39768
55.6452 3.38789
55.6745 3.37870
55.7038 3.37006
55.7331 3.36193
55.7624 3.35427
55.8211 3.34020
55.8518 3.33343
55.8825 3.32704
55.9439 3.31528
56.0053 3.30471
56.0668 3.29517
56.1282 3.28653
56.1896 3.27868
56.2510 3.27153
56.3124 3.26498
56.3683 3.25950
56.4241 3.25442
56.4800 3.24970
56.5358 3.24531
56.5916 3.24120
56.6475 3.23737
56.7033 3.23377
56.7592 3.23040
56.8150 3.22723
56.8708 3.22425
56.9267 3.22144
56.9825 3.21878
57.0942 3.21389
57.2059 3.20950
57.2784 3.20687
57.3510 3.20441
57.4236 3.20209
57.4962 3.19991
57.6414 3.19591
57.7866 3.19232
57.9317 3.18909
58.0769 3.18616
58.2221 3.18348
58.3673 3.18102
58.4901 3.17908
58.6130 3.17727
58.7358 3.17556
58.8587 3.17396
58.9815 3.17244
59.1043 3.17100
59.3500 3.16832
59.5957 3.16588
59.8414 3.16363
60.0871 3.16155
60.3328 3.15961
60.6231 3.15746
60.9135 3.15543
61.2039 3.15352
61.4942 3.15170
61.7846 3.14996
62.0749 3.14829
62.3653 3.14668
62.6556 3.14511
63.2364 3.14211
63.8171 3.13924
64.3978 3.13647
64.9785 3.13376
65.8719 3.12972
66.7653 3.12577
67.6587 3.12188
68.5521 3.11804
69.6242 3.11346
70.6963 3.10889
71.7684 3.10433
72.8405 3.09976
74.9846 3.09056
77.1288 3.08128
79.9877 3.06867
82.8466 3.05576
85.7055 3.04253
88.5644 3.02894
91.4233 3.01496
94.2822 3.00056
97.1411 2.98572
100.000 2.97041
103.125 2.95311
106.250 2.93517
109.375 2.91656
112.500 2.89722
115.625 2.87712
118.750 2.85620
121.875 2.83440
125.000 2.81166
128.125 2.78791
131.250 2.76308
134.375 2.73708
137.500 2.70983
140.625 2.68123
143.750 2.65116
146.875 2.61949
150.000 2.58610
152.930 2.55308
155.859 2.51824
158.789 2.48141
161.719 2.44245
163.184 2.42229
164.649 2.40136
166.113 2.37979
167.578 2.35755
169.043 2.33460
170.508 2.31090
171.973 2.28642
173.438 2.26112
175.000 2.23317
177.149 2.19298
179.297 2.15072
181.445 2.10616
182.520 2.08293
183.594 2.05902
184.668 2.03452
185.742 2.00928
186.817 1.98323
187.891 1.95651
188.965 1.92900
190.039 1.90055
191.113 1.87131
192.188 1.84122
193.164 1.81292
194.141 1.78392
195.117 1.75412
196.094 1.72350
197.070 1.69191
198.047 1.65942
199.024 1.62600
200.000 1.59162
201.107 1.55147
202.215 1.51009
203.322 1.46748
204.429 1.42365
204.983 1.40130
205.537 1.37867
206.090 1.35579
206.644 1.33269
207.198 1.30932
207.751 1.28576
208.305 1.26202
208.858 1.23817
209.575 1.20718
210.291 1.17619
211.008 1.14536
211.724 1.11489
212.441 1.08504
213.157 1.05613
213.874 1.02859
214.590 1.00292
215.209 0.982766
215.828 0.965034
216.447 0.950385
217.065 0.939638
217.375 0.936037
217.684 0.933815
217.994 0.933136
218.303 0.934168
218.612 0.937067
218.922 0.942084
219.231 0.949607
219.541 0.959950
219.752 0.968793
219.964 0.979197
220.176 0.991305
220.387 1.00528
220.599 1.02129
220.811 1.03951
220.917 1.04951
221.023 1.06012
221.128 1.07139
221.234 1.08333
221.373 1.10004
221.511 1.11803
221.649 1.13736
221.788 1.15814
221.926 1.18043
222.065 1.20434
222.134 1.21694
222.203 1.22997
222.272 1.24346
222.341 1.25742
222.403 1.27014
222.464 1.28326
222.525 1.29677
222.586 1.31067
222.610 1.31634
222.649 1.32549
222.688 1.33480
222.726 1.34429
222.765 1.35394
222.834 1.37168
222.903 1.39003
222.972 1.40900
223.042 1.42861
223.111 1.44887
223.180 1.46982
223.249 1.49146
223.318 1.51383
223.408 1.54391
223.498 1.57530
223.587 1.60805
223.677 1.64218
223.766 1.67783
223.856 1.71499
223.945 1.75380
224.035 1.79426
224.125 1.83652
224.214 1.88058
224.304 1.92660
224.393 1.97459
224.483 2.02473
224.572 2.07702
224.662 2.13167
224.751 2.18866
224.841 2.24825
224.931 2.31049
225.020 2.37550
225.110 2.44335
225.199 2.51433
225.289 2.58843
225.378 2.66598
225.468 2.74697
225.557 2.83177
225.647 2.92047
225.737 3.01329
225.826 3.11033
225.916 3.21203
226.005 3.31840
226.095 3.42996
226.184 3.54671
226.274 3.66923
226.364 3.79769
226.453 3.93243
226.543 4.07365
226.632 4.22205
226.722 4.37771
226.811 4.54141
226.901 4.71326
226.990 4.89414
227.080 5.08420
227.170 5.28445
227.259 5.49505
227.349 5.71717
227.438 5.95103
227.528 6.19793
227.617 6.45818
227.707 6.73328
227.796 7.02393
227.886 7.33122
227.976 7.65595
228.065 8.00010
228.155 8.36472
228.244 8.75131
228.334 9.16105
228.423 9.59664
228.513 10.0591
228.603 10.5516
228.692 11.0754
228.782 11.6343
228.871 12.2298
228.961 12.8666
229.050 13.5467
229.140 14.2754
229.229 15.0563
229.319 15.8943
229.409 16.7936
229.498 17.7623
229.588 18.8048
229.677 19.9310
229.767 21.1469
229.856 22.4647
229.946 23.8939
230.036 25.4470
230.125 27.1360
230.215 28.9808
230.304 30.9958
230.394 33.2068
230.439 34.3925
230.483 35.6334
230.528 36.9388
230.573 38.3100
230.618 39.7514
230.662 41.2641
230.707 42.8602
230.752 44.5418
230.797 46.3151
230.841 48.1824
230.886 50.1593
230.931 52.2496
230.976 54.4620
231.021 56.8005
231.065 59.2862
231.110 61.9254
231.155 64.7310
231.200 67.7101
231.234 70.1565
231.269 72.7208
231.304 75.4186
231.338 78.2593
231.373 81.2531
231.407 84.4112
231.442 87.7458
231.477 91.2706
231.511 95.0001
231.546 98.9508
231.580 103.141
231.615 107.589
231.650 112.319
231.684 117.355
231.719 122.723
231.753 128.455
231.798 136.472
231.843 145.242
231.888 154.864
231.933 165.454
231.977 177.150
232.022 190.116
232.045 197.134
232.067 204.545
232.089 212.379
232.112 220.631
232.134 229.412
232.156 238.723
232.179 248.609
232.201 259.117
232.224 270.299
232.246 282.210
232.268 294.912
232.291 308.410
232.313 322.897
232.336 338.395
232.358 354.989
232.380 372.772
232.403 391.846
232.425 412.317
232.448 434.304
232.470 457.820
232.489 479.701
232.509 502.877
232.528 527.684
232.547 553.963
232.567 582.092
232.586 611.886
232.605 643.595
232.625 677.330
232.644 713.397
232.663 751.540
232.683 792.270
232.702 835.285
232.721 881.143
232.741 929.484
232.760 980.644
232.779 1034.72
232.802 1101.27
232.824 1172.00
232.846 1247.03
232.869 1326.45
232.891 1410.30
232.914 1498.61
232.936 1591.36
232.958 1688.07
232.981 1789.49
233.003 1895.05
233.048 2117.73
233.093 2353.81
233.137 2599.52
233.227 3105.11
233.272 3353.68
233.317 3590.72
233.368 3840.82
233.394 3954.40
233.419 4058.19
233.445 4151.91
233.470 4233.84
233.496 4303.47
233.522 4360.03
233.561 4419.94
233.600 4446.26
233.616 4447.21
233.641 4437.05
233.667 4412.55
233.692 4374.02
233.718 4321.92
233.743 4256.89
233.769 4179.67
233.794 4091.14
233.820 3992.29
233.845 3885.49
233.870 3770.73
233.921 3521.87
233.971 3254.92
234.021 2978.84
234.073 2693.19
234.125 2414.46
234.177 2148.98
234.203 2022.73
234.229 1901.42
234.255 1785.37
234.281 1674.83
234.307 1569.95
234.333 1470.81
234.359 1377.40
234.385 1289.68
234.411 1207.52
234.437 1130.79
234.455 1081.29
234.473 1034.42
234.491 989.598
234.508 947.237
234.526 906.781
234.544 868.603
234.562 832.385
234.579 798.045
234.597 765.318
234.615 734.489
234.632 705.287
234.650 677.630
234.668 651.296
234.686 626.503
234.703 603.025
234.721 580.789
234.747 550.121
234.773 521.898
234.799 495.803
234.825 471.655
234.851 449.287
234.877 428.544
234.903 409.285
234.929 391.380
234.955 374.712
234.981 359.174
235.007 344.667
235.033 331.104
235.059 318.405
235.085 306.496
235.111 295.314
235.137 284.798
235.163 274.858
235.189 265.522
235.215 256.707
235.241 248.372
235.293 233.006
235.345 219.173
235.397 206.667
235.449 195.315
235.501 184.972
235.553 175.517
235.598 167.971
235.643 160.969
235.688 154.444
235.733 148.351
235.778 142.651
235.823 137.310
235.868 132.296
235.913 127.583
235.958 123.136
236.002 118.954
236.047 115.005
236.092 111.272
236.137 107.740
236.182 104.393
236.272 98.2044
236.324 94.8931
236.376 91.7730
236.428 88.8237
236.480 86.0324
236.532 83.3878
236.584 80.8793
236.688 76.2336
236.792 72.0249
236.896 68.2054
237.000 64.7239
237.104 61.5402
237.227 58.1131
237.350 55.0098
237.473 52.1874
237.596 49.6119
237.719 47.2525
237.842 45.0881
237.965 43.0951
238.087 41.2550
238.192 39.8041
238.296 38.4442
238.400 37.1664
238.504 35.9640
238.608 34.8310
238.712 33.7620
238.816 32.7521
238.920 31.7969
239.024 30.8914
239.128 30.0338
239.232 29.2199
239.336 28.4465
239.544 27.0107
239.752 25.7069
239.960 24.5182
240.168 23.4318
240.376 22.4348
240.584 21.5181
240.792 20.6721
241.000 19.8901
241.208 19.1653
241.416 18.4921
241.605 17.9205
241.794 17.3842
241.983 16.8798
242.172 16.4043
242.362 15.9552
242.551 15.5310
242.740 15.1297
242.929 14.7497
243.118 14.3891
243.307 14.0469
243.496 13.7217
243.685 13.4123
243.875 13.1175
244.064 12.8365
244.442 12.3120
244.650 12.0430
244.858 11.7867
245.274 11.3087
245.690 10.8721
246.106 10.4719
246.522 10.1037
246.938 9.76391
247.354 9.44943
247.770 9.15762
248.073 8.95820
248.376 8.76869
248.678 8.58838
248.981 8.41665
249.283 8.25303
249.586 8.09709
250.191 7.80506
250.796 7.53637
251.402 7.28882
252.007 7.05995
252.612 6.84766
253.028 6.71030
253.444 6.57936
253.860 6.45436
254.276 6.33489
254.692 6.22051
255.108 6.11091
255.940 5.90464
256.773 5.71377
257.605 5.53638
258.437 5.37080
259.269 5.21561
259.799 5.12168
260.328 5.03121
261.387 4.85953
262.446 4.69880
263.505 4.54751
264.564 4.40488
265.623 4.26859
266.683 4.13832
267.742 4.01329
268.649 3.90974
269.557 3.80901
270.465 3.71067
271.373 3.61446
272.810 3.46574
273.529 3.39271
274.247 3.32040
274.966 3.24864
275.685 3.17740
276.403 3.10648
277.122 3.03586
277.841 2.96537
278.559 2.89496
279.278 2.82452
279.997 2.75399
280.715 2.68328
281.434 2.61237
282.153 2.54111
282.871 2.46950
283.703 2.38604
284.536 2.30200
285.368 2.21732
286.200 2.13204
287.032 2.04617
287.864 1.95984
288.696 1.87321
289.528 1.78653
290.323 1.70407
291.117 1.62236
291.514 1.58197
291.911 1.54201
292.309 1.50260
292.706 1.46387
293.103 1.42595
293.500 1.38905
293.897 1.35334
294.294 1.31908
294.691 1.28653
295.089 1.25599
295.486 1.22774
295.883 1.20227
296.204 1.18413
296.526 1.16854
296.847 1.15580
297.169 1.14630
297.490 1.14048
297.812 1.13884
297.973 1.13980
298.133 1.14206
298.294 1.14570
298.455 1.15082
298.653 1.15935
298.753 1.16459
298.852 1.17050
298.951 1.17713
299.051 1.18450
299.150 1.19265
299.249 1.20160
299.349 1.21140
299.448 1.22207
299.547 1.23366
299.646 1.24620
299.746 1.25974
299.845 1.27433
299.944 1.29000
300.044 1.30680
300.157 1.32748
300.214 1.33845
300.271 1.34981
300.327 1.36163
300.384 1.37386
300.441 1.38656
300.497 1.39972
300.550 1.41223
300.602 1.42513
300.672 1.44341
300.743 1.46249
300.798 1.47770
300.852 1.49341
300.907 1.50964
300.961 1.52637
301.015 1.54368
301.070 1.56151
301.178 1.59893
301.282 1.63702
301.386 1.67739
301.490 1.72019
301.594 1.76555
301.698 1.81360
301.802 1.86447
301.906 1.91832
302.010 1.97531
302.114 2.03565
302.218 2.09943
302.270 2.13267
302.322 2.16686
302.374 2.20202
302.426 2.23817
302.478 2.27534
302.530 2.31356
302.582 2.35286
302.634 2.39326
302.686 2.43480
302.738 2.47751
302.790 2.52141
302.842 2.56656
302.895 2.61306
302.947 2.66079
302.999 2.70985
303.051 2.76030
303.103 2.81217
303.155 2.86550
303.259 2.97672
303.363 3.09443
303.467 3.21880
303.571 3.35033
303.675 3.48947
303.779 3.63683
303.883 3.79264
303.987 3.95757
304.091 4.13221
304.195 4.31719
304.299 4.51319
304.403 4.72093
304.507 4.94120
304.611 5.17508
304.715 5.42306
304.819 5.68634
304.923 5.96600
305.027 6.26352
305.131 6.57961
305.235 6.91592
305.339 7.27397
305.443 7.65580
305.547 8.06247
305.651 8.49632
305.755 8.95951
305.859 9.45442
305.963 9.98365
306.067 10.5501
306.171 11.1569
306.275 11.8082
306.379 12.5067
306.483 13.2573
306.587 14.0647
306.691 14.9343
306.795 15.8720
306.899 16.8845
307.003 17.9793
307.107 19.1659
307.211 20.4516
307.315 21.8481
307.419 23.3676
307.523 25.0240
307.627 26.8329
307.731 28.8126
307.783 29.8728
307.835 30.9837
307.887 32.1508
307.939 33.3727
307.991 34.6555
308.043 36.0029
308.095 37.4192
308.147 38.9088
308.199 40.4767
308.251 42.1282
308.303 43.8726
308.355 45.7094
308.407 47.6488
308.459 49.6982
308.511 51.8657
308.563 54.1602
308.615 56.5916
308.667 59.1706
308.712 61.5305
308.757 64.0124
308.802 66.6305
308.847 69.3945
308.892 72.3221
308.937 75.4120
308.982 78.6834
309.027 82.1507
309.072 85.8380
309.117 89.7461
309.162 93.9021
309.207 98.3272
309.251 103.045
309.296 108.081
309.341 113.466
309.386 119.230
309.438 126.430
309.490 134.254
309.542 142.776
309.594 152.082
309.646 162.270
309.698 173.457
309.750 185.777
309.802 199.387
309.828 206.762
309.854 214.504
309.880 222.669
309.906 231.287
309.932 240.394
309.958 250.023
309.984 260.216
310.010 271.015
310.036 282.466
310.062 294.621
310.088 307.532
310.114 321.261
310.140 335.870
310.166 351.429
310.192 368.012
310.218 385.699
310.244 404.651
310.270 424.815
310.296 446.360
310.322 469.389
310.348 494.013
310.374 520.348
310.400 548.518
310.426 578.651
310.452 610.878
310.478 645.339
310.504 682.174
310.530 721.526
310.556 763.542
310.582 808.366
310.608 856.140
310.634 907.006
310.663 966.256
310.691 1029.51
310.720 1096.93
310.748 1168.37
310.776 1244.43
310.805 1324.66
310.833 1409.65
310.861 1498.80
310.887 1584.93
310.913 1674.39
310.965 1863.72
311.017 2065.73
311.069 2278.27
311.173 2722.71
311.225 2946.69
311.277 3165.14
311.346 3436.03
311.380 3560.75
311.414 3676.44
311.448 3781.95
311.482 3875.30
311.516 3955.58
311.550 4021.74
311.577 4063.09
311.604 4094.89
311.630 4116.89
311.657 4128.90
311.678 4131.28
311.713 4121.35
311.748 4094.65
311.783 4051.48
311.817 3992.81
311.852 3919.19
311.887 3832.17
311.922 3732.83
311.956 3622.56
311.990 3507.50
312.023 3385.47
312.090 3125.10
312.223 2576.64
312.291 2300.29
312.325 2167.00
312.360 2038.37
312.394 1914.23
312.428 1795.44
312.462 1682.35
312.496 1575.49
312.530 1474.35
312.565 1379.29
312.599 1290.26
312.633 1207.38
312.667 1129.98
312.701 1058.11
312.736 991.516
312.770 930.086
312.796 885.590
312.823 843.932
312.849 804.800
312.875 768.054
312.902 733.560
312.928 701.182
312.955 670.792
312.981 642.264
313.007 615.479
313.034 590.321
313.060 566.682
313.087 544.459
313.113 523.555
313.139 503.878
313.166 485.345
313.192 467.874
313.226 446.701
313.261 427.039
313.295 408.753
313.329 391.721
313.363 375.833
313.397 360.989
313.432 347.099
313.466 334.120
313.500 321.902
313.534 310.418
313.568 299.610
313.602 289.452
313.637 279.837
313.671 270.751
313.705 262.155
313.739 254.036
313.807 238.981
313.876 225.405
313.944 213.076
314.012 201.872
314.081 191.626
314.149 182.253
314.218 173.628
314.286 165.694
314.354 158.354
314.423 151.567
314.491 145.259
314.559 139.401
314.628 133.933
314.696 128.835
314.764 124.060
314.833 119.591
314.901 115.392
314.969 111.450
315.038 107.733
315.106 104.235
315.174 100.929
315.243 97.8086
315.311 94.8517
315.379 92.0546
315.448 89.3980
315.516 86.8794
315.653 82.2052
315.790 77.9670
315.926 74.1101
316.063 70.5884
316.200 67.3626
316.336 64.3993
316.473 61.6696
316.566 59.9279
316.660 58.2780
316.753 56.7119
316.846 55.2237
317.032 52.4601
317.219 49.9499
317.405 47.6610
317.592 45.5666
317.778 43.6441
317.964 41.8743
318.101 40.6630
318.238 39.5204
318.375 38.4402
318.511 37.4178
318.648 36.4490
318.785 35.5299
318.921 34.6570
319.058 33.8270
319.195 33.0370
319.331 32.2844
319.605 30.8817
319.878 29.6015
320.152 28.4293
320.425 27.3524
320.698 26.3604
320.972 25.4439
321.245 24.5951
321.519 23.8071
321.792 23.0740
322.065 22.3909
322.339 21.7531
322.612 21.1557
322.886 20.5950
323.159 20.0677
323.433 19.5712
323.706 19.1032
323.979 18.6613
324.253 18.2436
324.526 17.8482
324.800 17.4735
325.073 17.1178
325.346 16.7799
325.620 16.4584
325.893 16.1523
326.167 15.8606
326.440 15.5822
326.713 15.3162
327.260 14.8188
327.807 14.3626
328.354 13.9429
328.901 13.5556
329.447 13.1973
329.994 12.8649
330.541 12.5560
331.088 12.2683
331.485 12.0713
331.883 11.8839
332.281 11.7055
332.678 11.5360
333.076 11.3747
333.474 11.2216
333.872 11.0768
334.070 11.0077
334.269 10.9409
334.456 10.8806
334.642 10.8229
334.828 10.7680
335.015 10.7166
335.108 10.6925
335.201 10.6695
335.294 10.6481
335.388 10.6283
335.481 10.6107
335.574 10.5957
335.621 10.5896
335.667 10.5845
335.714 10.5807
335.760 10.5785
335.798 10.5781
335.835 10.5792
335.872 10.5822
335.910 10.5874
335.947 10.5954
335.984 10.6068
336.022 10.6223
336.059 10.6430
336.096 10.6701
336.115 10.6865
336.133 10.7050
336.152 10.7260
336.171 10.7495
336.189 10.7761
336.208 10.8058
336.227 10.8392
336.245 10.8763
336.264 10.9179
336.283 10.9640
336.301 11.0154
336.320 11.0722
336.338 11.1350
336.357 11.2045
336.370 11.2551
336.382 11.3087
336.394 11.3658
336.407 11.4267
336.419 11.4919
336.432 11.5608
336.444 11.6339
336.456 11.7115
336.474 11.8263
336.491 11.9505
336.508 12.0848
336.525 12.2297
336.542 12.3857
336.559 12.5535
336.576 12.7336
336.593 12.9265
336.610 13.1328
336.627 13.3531
336.645 13.5878
336.662 13.8375
336.679 14.1025
336.696 14.3832
336.713 14.6801
336.730 14.9914
336.744 15.2602
336.758 15.5402
336.786 16.1321
336.814 16.7713
336.842 17.4528
336.870 18.1802
336.898 18.9463
336.926 19.7538
336.954 20.5934
336.988 21.6634
337.022 22.7692
337.090 25.0360
337.146 26.8831
337.202 28.6470
337.236 29.6528
337.270 30.5819
337.305 31.4178
337.339 32.1430
337.379 32.8435
337.413 33.2887
337.447 33.5881
337.468 33.6948
337.488 33.7477
337.500 33.7537
337.503 33.7521
337.513 33.7379
337.523 33.7102
337.543 33.6151
337.572 33.3903
337.599 33.0785
337.624 32.7168
337.649 32.2840
337.664 31.9917
337.691 31.3973
337.718 30.7352
337.753 29.8017
337.788 28.7875
337.842 27.0607
337.897 25.2442
337.951 23.3987
338.006 21.5913
338.033 20.7153
338.060 19.8661
338.088 19.0483
338.115 18.2684
338.142 17.5236
338.169 16.8216
338.197 16.1588
338.224 15.5409
338.241 15.1680
338.259 14.8146
338.276 14.4763
338.293 14.1570
338.311 13.8525
338.328 13.5662
338.345 13.2942
338.363 13.0394
338.380 12.7982
338.397 12.5729
338.415 12.3604
338.432 12.1626
338.449 11.9766
338.467 11.8039
338.484 11.6420
338.501 11.4922
338.515 11.3810
338.529 11.2769
338.542 11.1780
338.556 11.0855
338.570 10.9977
338.583 10.9157
338.597 10.8386
338.611 10.7661
338.624 10.6974
338.638 10.6334
338.652 10.5729
338.665 10.5165
338.679 10.4631
338.692 10.4135
338.706 10.3669
338.720 10.3231
338.733 10.2818
338.747 10.2433
338.774 10.1731
338.802 10.1112
338.829 10.0567
338.856 10.0083
338.883 9.96537
338.911 9.92714
338.938 9.89308
338.977 9.84953
339.007 9.82070
339.037 9.79477
339.067 9.77112
339.096 9.74954
339.126 9.72959
339.156 9.71115
339.215 9.67770
339.275 9.64787
339.334 9.62075
339.394 9.59570
339.453 9.57232
339.513 9.55022
339.572 9.52920
339.632 9.50908
339.691 9.48974
339.810 9.45301
339.929 9.41841
340.078 9.37743
340.227 9.33856
340.376 9.30133
340.524 9.26551
340.673 9.23084
340.822 9.19721
340.970 9.16446
341.119 9.13250
341.417 9.07058
341.714 9.01101
342.012 8.95342
342.309 8.89763
342.686 8.82926
343.063 8.76326
343.439 8.69941
343.816 8.63746
344.570 8.51871
345.323 8.40639
346.077 8.29986
346.830 8.19863
347.584 8.10224
348.337 8.01038
349.170 7.91406
350.003 7.82216
350.836 7.73448
351.669 7.65065
352.502 7.57072
353.335 7.49429
354.168 7.42101
355.000 7.35092
355.833 7.28367
356.666 7.21902
358.332 7.09736
359.998 6.98461
361.663 6.87984
363.409 6.77783
365.154 6.68281
366.899 6.59410
368.644 6.51113
370.389 6.43326
372.134 6.36009
373.879 6.29118
375.624 6.22614
377.052 6.17560
378.480 6.12728
379.907 6.08104
381.335 6.03707
382.763 5.99453
384.191 5.95386
385.619 5.91443
387.046 5.87699
388.474 5.84048
389.902 5.80574
391.330 5.77194
392.757 5.73952
395.613 5.67783
398.469 5.62025
400.214 5.58703
401.959 5.55498
403.704 5.52402
405.449 5.49439
408.939 5.43810
412.429 5.38581
415.919 5.33681
419.409 5.29104
422.900 5.24808
426.390 5.20760
430.515 5.16288
434.639 5.12101
438.764 5.08179
442.889 5.04501
447.013 5.01033
451.138 4.97793
455.263 4.94695
459.387 4.91765
464.464 4.88379
469.541 4.85202
474.617 4.82214
479.694 4.79398
484.770 4.76740
489.847 4.74226
494.924 4.71844
500.000 4.69583
507.813 4.66320
515.625 4.63293
523.438 4.60478
531.250 4.57850
539.063 4.55390
546.875 4.53083
554.688 4.50914
562.500 4.48869
570.313 4.46939
578.125 4.45114
585.938 4.43384
593.750 4.41741
601.563 4.40179
609.375 4.38692
617.188 4.37274
625.000 4.35920
635.742 4.34158
646.484 4.32491
657.227 4.30916
667.969 4.29430
678.711 4.28015
689.453 4.26674
710.938 4.24175
730.469 4.22099
750.000 4.20176
765.625 4.18737
781.250 4.17378
812.500 4.14865
843.750 4.12586
875.000 4.10502
906.250 4.08580
937.500 4.06796
968.750 4.05127
1000.00 4.03557
1031.25 4.02072
1062.50 4.00659
1125.00 3.98011
1187.50 3.95546
1250.00 3.93213
1312.50 3.90972
1375.00 3.88791
1437.50 3.86641
1500.00 3.84497
1562.50 3.82336
1656.25 3.79011
1750.00 3.75516
1812.50 3.73046
1875.00 3.70425
1937.50 3.67613
2000.00 3.64556
2050.75 3.61844
2101.49 3.58874
2152.24 3.55579
2202.98 3.51861
2232.97 3.49397
2262.95 3.46707
2292.94 3.43712
2322.92 3.40342
2344.84 3.37571
2366.75 3.34484
2388.66 3.30991
2410.57 3.26972
2423.26 3.24335
2435.95 3.21414
2448.63 3.18147
2461.32 3.14449
2470.54 3.11421
2479.77 3.08043
2489.00 3.04237
2498.22 2.99884
2504.57 2.96499
2510.91 2.92721
2517.25 2.88460
2523.60 2.83600
2528.21 2.79599
2532.82 2.75114
2537.44 2.70049
2542.05 2.64239
2545.22 2.59716
2548.39 2.54670
2551.56 2.48988
2554.73 2.42531
2557.19 2.36890
2559.64 2.30560
2562.09 2.23401
2563.31 2.19449
2564.54 2.15211
2566.12 2.09246
2567.71 2.02662
2569.30 1.95346
2570.09 1.91375
2570.88 1.87177
2571.67 1.82720
2572.47 1.77987
2573.26 1.72950
2574.05 1.67584
2574.85 1.61857
2575.64 1.55739
2576.43 1.49196
2577.22 1.42203
2578.02 1.34712
2578.41 1.30769
2578.81 1.26706
2579.21 1.22503
2579.60 1.18183
2580.00 1.13731
2580.40 1.09178
2580.79 1.04518
2581.19 0.997992
2581.59 0.950342
2581.98 0.903006
2582.38 0.856526
2582.77 0.812264
2583.17 0.771746
2583.37 0.753606
2583.57 0.737391
2583.84 0.719237
2584.11 0.707301
2584.38 0.703716
2584.65 0.711539
2584.78 0.721102
2584.92 0.735229
2585.05 0.754839
2585.19 0.780996
2585.32 0.815026
2585.46 0.858593
2585.59 0.913811
2585.73 0.983384
2585.82 1.04280
2585.92 1.11253
2586.01 1.19441
2586.11 1.28954
2586.18 1.37346
2586.26 1.48118
2586.34 1.60516
2586.41 1.72369
2586.48 1.85728
2586.55 2.00798
2586.61 2.17543
2586.68 2.36720
2586.75 2.58051
2586.82 2.82502
2586.88 3.09713
2586.93 3.32278
2586.98 3.56974
2587.03 3.83999
2587.08 4.12951
2587.13 4.45239
2587.18 4.79808
2587.23 5.18334
2587.28 5.59548
2587.33 6.05434
2587.38 6.54467
2587.43 7.08990
2587.48 7.67173
2587.50 7.98788
2587.53 8.31773
2587.55 8.66180
2587.58 9.00597
2587.60 9.37945
2587.63 9.76876
2587.68 10.5799
2587.72 11.3471
2587.76 12.1693
2587.80 13.0497
2587.85 13.9915
2587.89 14.9982
2587.93 16.0731
2587.98 17.2199
2588.02 18.4126
2588.06 19.7116
2588.10 21.0931
2588.15 22.5605
2588.19 24.0803
2588.23 25.7282
2588.28 27.4726
2588.32 29.3170
2588.36 31.2181
2588.41 33.6138
2588.46 36.1055
2588.51 38.7993
2588.56 41.5912
2588.61 44.5985
2588.66 47.7037
2588.71 51.0358
2588.76 54.4631
2588.81 58.1264
2588.86 61.8793
2588.91 65.8741
2588.95 69.9494
2589.00 74.2690
2589.05 78.6565
2589.15 87.9675
2589.25 97.9342
2589.35 108.289
2589.45 119.040
2589.55 130.085
2589.82 160.668
2589.92 171.618
2590.02 182.174
2590.12 192.170
2590.22 201.441
2590.31 209.830
2590.41 217.190
2590.53 224.276
2590.59 227.155
2590.64 229.590
2590.73 232.341
2590.81 234.051
2590.82 234.188
2590.85 234.528
2590.88 234.716
2590.95 234.634
2591.01 233.948
2591.07 232.689
2591.16 230.062
2591.25 226.429
2591.34 221.675
2591.42 216.057
2591.50 210.388
2591.58 204.227
2591.66 197.484
2591.73 190.408
2591.90 174.493
2592.06 157.752
2592.23 139.277
2592.32 130.143
2592.41 121.320
2592.49 113.344
2592.57 105.743
2592.66 98.4540
2592.74 91.5058
2592.82 84.9192
2592.90 78.7087
2592.98 72.8822
2593.06 67.4422
2593.10 64.8351
2593.14 62.3257
2593.18 59.9127
2593.22 57.6503
2593.26 55.4239
2593.30 53.3404
2593.35 51.2938
2593.39 49.3820
2593.43 47.5072
2593.47 45.7588
2593.51 44.0469
2593.55 42.4527
2593.59 40.8940
2593.63 39.4443
2593.67 38.0287
2593.71 36.7137
2593.78 34.6503
2593.84 32.7787
2593.91 31.0311
2593.98 29.4487
2594.04 27.9733
2594.11 26.6388
2594.17 25.4129
2594.24 24.2868
2594.31 23.2370
2594.37 22.2870
2594.44 21.4005
2594.51 20.5970
2594.57 19.8457
2594.64 19.1632
2594.71 18.5326
2594.77 17.9491
2594.85 17.2830
2594.93 16.6823
2595.02 16.1320
2595.10 15.6264
2595.18 15.1605
2595.26 14.7299
2595.34 14.3308
2595.42 13.9596
2595.50 13.6136
2595.58 13.2902
2595.74 12.7020
2595.91 12.1802
2596.07 11.7134
2596.25 11.2557
2596.42 10.8439
2596.60 10.4711
2596.78 10.1315
2596.95 9.82069
2597.13 9.53505
2597.31 9.27151
2597.48 9.02885
2597.65 8.81952
2597.81 8.62467
2598.13 8.26964
2598.46 7.95337
2598.78 7.67138
2599.11 7.41686
2599.43 7.18728
2599.75 6.97849
2600.08 6.78776
2600.40 6.61230
2600.73 6.45126
2601.05 6.30204
2601.38 6.16416
2601.70 6.03560
2602.03 5.91613
2602.67 5.69982
2603.23 5.53335
2603.79 5.38330
2604.35 5.24698
2604.91 5.12245
2605.48 5.00793
2606.04 4.90252
2606.60 4.80491
2607.16 4.71418
2607.80 4.61657
2608.45 4.52606
2609.75 4.36303
2611.05 4.21916
2612.35 4.09052
2613.47 3.98907
2614.59 3.89496
2615.71 3.80661
2616.83 3.72309
2617.95 3.64336
2619.07 3.56675
2620.19 3.49241
2621.31 3.41983
2622.49 3.34451
2623.67 3.26967
2624.85 3.19473
2626.03 3.11915
2627.21 3.04212
2628.39 2.96313
2629.57 2.88130
2630.75 2.79593
2632.04 2.69669
2633.34 2.59071
2633.99 2.53464
2634.64 2.47623
2635.29 2.41526
2635.94 2.35154
2636.56 2.28765
2637.18 2.22075
2637.79 2.15042
2638.41 2.07638
2639.03 1.99817
2639.65 1.91572
2640.27 1.82863
2640.89 1.73662
2641.22 1.68628
2641.54 1.63471
2641.86 1.58161
2642.19 1.52735
2642.51 1.47169
2642.84 1.41513
2643.16 1.35773
2643.49 1.29982
2643.81 1.24172
2644.13 1.18450
2644.46 1.12897
2644.78 1.07659
2645.11 1.02934
2645.27 1.00869
2645.43 0.990632
2645.59 0.975827
2645.76 0.965081
2645.92 0.959426
2646.08 0.960188
2646.26 0.971139
2646.45 0.996016
2646.54 1.01534
2646.63 1.03991
2646.73 1.07081
2646.82 1.10914
2646.91 1.15676
2647.00 1.21424
2647.09 1.28392
2647.19 1.36808
2647.28 1.46942
2647.37 1.59122
2647.46 1.73736
2647.51 1.82099
2647.55 1.91250
2647.61 2.04259
2647.67 2.18852
2647.73 2.35215
2647.79 2.53225
2647.80 2.58220
2647.85 2.75204
2647.90 2.93822
2647.95 3.14223
2648.00 3.36568
2648.06 3.69138
2648.12 4.05784
2648.15 4.26107
2648.19 4.46975
2648.22 4.69066
2648.25 4.92447
2648.28 5.18006
2648.31 5.44219
2648.34 5.71936
2648.37 6.01232
2648.40 6.33216
2648.44 6.65972
2648.47 7.00558
2648.50 7.37063
2648.54 7.88446
2648.58 8.43564
2648.62 9.02644
2648.66 9.64329
2648.70 10.3194
2648.74 11.0242
2648.78 11.7955
2648.82 12.5983
2648.86 13.4752
2648.90 14.3862
2648.94 15.3797
2648.98 16.4098
2649.03 17.5311
2649.07 18.6916
2649.11 19.9522
2649.15 21.2543
2649.18 22.5246
2649.22 23.8604
2649.26 25.2638
2649.29 26.7370
2649.33 28.2819
2649.37 29.9005
2649.41 31.5947
2649.44 33.3175
2649.48 35.1661
2649.52 37.0955
2649.55 39.1070
2649.59 41.1443
2649.63 43.3218
2649.66 45.5851
2649.74 50.3051
2649.78 53.1056
2649.82 56.0141
2649.90 62.0775
2649.98 68.5576
2650.06 75.4436
2650.14 82.7178
2650.22 90.3555
2650.30 98.3242
2650.38 106.584
2650.55 123.886
2650.71 141.578
2650.86 157.689
2651.00 173.143
2651.09 181.241
2651.17 188.933
2651.25 196.136
2651.33 202.769
2651.41 208.758
2651.49 214.032
2651.55 217.335
2651.61 220.222
2651.66 222.674
2651.72 224.647
2651.83 227.148
2651.84 227.300
2651.87 227.692
2651.90 227.940
2651.97 228.004
2652.03 227.492
2652.09 226.435
2652.19 223.794
2652.29 219.964
2652.38 215.136
2652.47 209.401
2652.59 200.832
2652.71 191.103
2652.80 182.762
2652.90 174.076
2653.08 155.799
2653.27 137.215
2653.37 128.020
2653.46 119.137
2653.53 112.363
2653.60 105.884
2653.68 99.6307
2653.75 93.6231
2653.82 87.7992
2653.89 82.3302
2653.96 77.1424
2654.04 72.2402
2654.08 69.1948
2654.13 66.2713
2654.18 63.4688
2654.22 60.8418
2654.27 58.2744
2654.32 55.8231
2654.36 53.4854
2654.41 51.3049
2654.46 49.1839
2654.50 47.1679
2654.55 45.2537
2654.60 43.4754
2654.64 41.7523
2654.69 40.1205
2654.74 38.5762
2654.78 37.1461
2654.83 35.7643
2654.88 34.4591
2654.93 33.2269
2654.97 32.0882
2655.02 30.9899
2655.07 29.9541
2655.11 28.9775
2655.16 28.0758
2655.21 27.2068
2655.25 26.3875
2655.30 25.6152
2655.35 24.9020
2655.39 24.2143
2655.44 23.5655
2655.49 22.9532
2655.53 22.3871
2655.63 21.3237
2655.72 20.3822
2655.81 19.5283
2655.91 18.7678
2656.00 18.0736
2656.09 17.4511
2656.19 16.8785
2656.28 16.3612
2656.37 15.8817
2656.47 15.4451
2656.56 15.0375
2656.65 14.6636
2656.75 14.3121
2656.84 13.9876
2657.03 13.3957
2657.22 12.8719
2657.40 12.4041
2657.59 11.9832
2657.78 11.6019
2657.96 11.2547
2658.15 10.9369
2658.34 10.6448
2658.52 10.3753
2658.81 9.99731
2659.10 9.65946
2659.39 9.35554
2659.68 9.08062
2659.97 8.83069
2660.26 8.60244
2660.55 8.39315
2660.84 8.20118
2661.21 7.97349
2661.58 7.76705
2661.96 7.57900
2662.33 7.40697
2662.71 7.24900
2663.08 7.10342
2663.45 6.96881
2663.83 6.84397
2664.27 6.70762
2664.71 6.58202
2665.15 6.46595
2665.60 6.35835
2666.48 6.16503
2667.36 5.99614
2668.11 5.86896
2668.86 5.75395
2669.61 5.64942
2670.36 5.55398
2671.10 5.46646
2671.85 5.38590
2673.35 5.24254
2674.84 5.11850
2676.34 5.01006
2677.83 4.91435
2679.33 4.82927
2680.83 4.75289
2682.32 4.68383
2683.82 4.62107
2685.31 4.56375
2688.31 4.46266
2691.30 4.37618
2694.02 4.30757
2696.74 4.24680
2699.73 4.18757
2701.22 4.16063
2702.72 4.13537
2704.22 4.11176
2705.71 4.08985
2707.21 4.06978
2708.70 4.05186
2709.45 4.04385
2710.20 4.03662
2710.95 4.03031
2711.69 4.02515
2712.44 4.02148
2713.19 4.01982
2713.94 4.02098
2714.31 4.02299
2714.69 4.02624
2715.13 4.03215
2715.57 4.04107
2716.01 4.05430
2716.23 4.06321
2716.45 4.07430
2716.67 4.08839
2716.90 4.10687
2717.12 4.13208
2717.23 4.14844
2717.34 4.16799
2717.45 4.19204
2717.56 4.22133
2717.67 4.25795
2717.78 4.30318
2717.89 4.36028
2718.00 4.43124
2718.11 4.52110
2718.22 4.63273
2718.32 4.76100
2718.37 4.83564
2718.43 4.91821
2718.48 5.00944
2718.53 5.11014
2718.58 5.22116
2718.63 5.34339
2718.68 5.47778
2718.73 5.62533
2718.78 5.78709
2718.83 5.96415
2718.88 6.15764
2718.94 6.36873
2718.99 6.59862
2719.04 6.84854
2719.09 7.11975
2719.14 7.41351
2719.19 7.73108
2719.24 8.07372
2719.29 8.44269
2719.34 8.83919
2719.39 9.26441
2719.45 9.71945
2719.50 10.2054
2719.55 10.7232
2719.60 11.2737
2719.65 11.8577
2719.70 12.4758
2719.75 13.1286
2719.80 13.8162
2719.85 14.5388
2719.90 15.2357
2719.95 15.9621
2719.99 16.7177
2720.04 17.4848
2720.13 19.1346
2720.23 20.8686
2720.32 22.7130
2720.41 24.6148
2720.60 28.5989
2720.79 32.6494
2720.88 34.6458
2720.98 36.5573
2721.10 39.0317
2721.23 41.2406
2721.32 42.6767
2721.42 43.9027
2721.51 44.9225
2721.60 45.6958
2721.68 46.1290
2721.72 46.3209
2721.77 46.4551
2721.84 46.5200
2721.90 46.4578
2721.95 46.3188
2722.00 46.1163
2722.07 45.7055
2722.16 44.9164
2722.27 43.7728
2722.36 42.4939
2722.46 41.0158
2722.59 38.7195
2722.72 36.1756
2722.91 32.1529
2723.10 28.0297
2723.20 25.9701
2723.29 23.9799
2723.39 22.0576
2723.48 20.2201
2723.58 18.4811
2723.62 17.6433
2723.67 16.8510
2723.72 16.0710
2723.77 15.3367
2723.81 14.6171
2723.86 13.9425
2723.91 13.2308
2723.96 12.5554
2724.02 11.9161
2724.07 11.3123
2724.12 10.7435
2724.17 10.2089
2724.22 9.70756
2724.28 9.23848
2724.33 8.80055
2724.38 8.39258
2724.43 8.01335
2724.48 7.66157
2724.54 7.33591
2724.59 7.03504
2724.64 6.75762
2724.69 6.50702
2724.74 6.27211
2724.80 6.05671
2724.85 5.85954
2724.90 5.67937
2724.95 5.51500
2725.00 5.36529
2725.06 5.22912
2725.11 5.10771
2725.16 4.99533
2725.21 4.89352
2725.26 4.80139
2725.31 4.71812
2725.37 4.64291
2725.42 4.57505
2725.52 4.45970
2725.59 4.39824
2725.65 4.34432
2725.72 4.29700
2725.78 4.25545
2725.91 4.18685
2726.04 4.13396
2726.17 4.09219
2726.30 4.05909
2726.43 4.03246
2726.56 4.01083
2726.82 3.97725
2727.08 3.95234
2727.34 3.93257
2727.60 3.91628
2727.86 3.90232
2728.12 3.89020
2728.64 3.86978
2729.15 3.85307
2729.67 3.83893
2730.44 3.82145
2731.20 3.80671
2731.96 3.79385
2732.72 3.78232
2733.48 3.77176
2734.24 3.76195
2735.76 3.74400
2737.29 3.72762
2738.81 3.71233
2740.33 3.69775
2741.85 3.68375
2744.35 3.66179
2746.84 3.64070
2749.33 3.62025
2751.82 3.60029
2756.80 3.56140
2761.78 3.52329
2764.41 3.50338
2767.04 3.48352
2769.67 3.46374
2772.30 3.44405
2774.93 3.42456
2776.25 3.41496
2777.56 3.40553
2778.88 3.39638
2780.19 3.38769
2781.51 3.37975
2782.82 3.37304
2783.79 3.36941
2784.76 3.36766
2785.24 3.36788
2785.73 3.36915
2786.21 3.37187
2786.70 3.37666
2787.11 3.38327
2787.53 3.39368
2787.74 3.40128
2787.94 3.41144
2788.15 3.42564
2788.36 3.44604
2788.57 3.47657
2788.67 3.49736
2788.77 3.52314
2788.88 3.55517
2788.98 3.59500
2789.09 3.64450
2789.19 3.70527
2789.29 3.78113
2789.40 3.87467
2789.50 3.98951
2789.55 4.05619
2789.60 4.12829
2789.66 4.20924
2789.71 4.29831
2789.76 4.39616
2789.81 4.50349
2789.86 4.62100
2789.92 4.74944
2789.97 4.88958
2790.02 5.03912
2790.10 5.29275
2790.18 5.57890
2790.21 5.73503
2790.25 5.90030
2790.29 6.07504
2790.33 6.25959
2790.37 6.45426
2790.41 6.65936
2790.45 6.87517
2790.49 7.10197
2790.53 7.34003
2790.57 7.58959
2790.60 7.85087
2790.64 8.11690
2790.68 8.40184
2790.72 8.69900
2790.76 9.00847
2790.80 9.33033
2790.88 10.0113
2790.95 10.7417
2791.03 11.5206
2791.11 12.3463
2791.19 13.2163
2791.27 14.1153
2791.34 15.0624
2791.42 16.0410
2791.58 18.0545
2791.89 22.1528
2791.98 23.3014
2792.07 24.3983
2792.16 25.4275
2792.25 26.3731
2792.35 27.2549
2792.44 28.0134
2792.50 28.4290
2792.56 28.7795
2792.65 29.1949
2792.71 29.3670
2792.75 29.4806
2792.80 29.5559
2792.86 29.5878
2792.86 29.5879
2792.88 29.5855
2792.89 29.5795
2792.92 29.5565
2792.96 29.4913
2793.00 29.4064
2793.08 29.1544
2793.15 28.7981
2793.22 28.4067
2793.29 27.9434
2793.38 27.1979
2793.47 26.3476
2793.55 25.5507
2793.63 24.6924
2793.70 23.7824
2793.78 22.8302
2793.93 20.8256
2794.09 18.7815
2794.24 16.7427
2794.32 15.7562
2794.40 14.7962
2794.49 13.6915
2794.58 12.6516
2794.67 11.6702
2794.72 11.1978
2794.76 10.7517
2794.81 10.3124
2794.85 9.89008
2794.90 9.48500
2794.95 9.10544
2794.99 8.73449
2795.04 8.38821
2795.08 8.05103
2795.13 7.73740
2795.17 7.43311
2795.22 7.14497
2795.27 6.87262
2795.31 6.62105
2795.36 6.37864
2795.40 6.15548
2795.45 5.94115
2795.49 5.74447
2795.54 5.55618
2795.58 5.38392
2795.63 5.21952
2795.67 5.06957
2795.72 4.92687
2795.77 4.79710
2795.81 4.67396
2795.86 4.56228
2795.91 4.44121
2795.96 4.33073
2796.02 4.23008
2796.07 4.14018
2796.12 4.05688
2796.17 3.98270
2796.28 3.85327
2796.38 3.74649
2796.49 3.66041
2796.59 3.59048
2796.70 3.53377
2796.80 3.48740
2796.91 3.45017
2797.01 3.41986
2797.12 3.39508
2797.23 3.37450
2797.33 3.35760
2797.54 3.33142
2797.75 3.31207
2797.96 3.29715
2798.17 3.28497
2798.38 3.27471
2798.80 3.25774
2799.22 3.24381
2799.79 3.22813
2800.35 3.21467
2800.91 3.20265
2801.47 3.19165
2802.03 3.18135
2802.59 3.17158
2803.72 3.15304
2804.84 3.13524
2805.96 3.11774
2807.08 3.10025
2808.21 3.08260
2810.45 3.04611
2812.70 3.00740
2815.17 2.96125
2817.64 2.91037
2820.11 2.85348
2822.58 2.78903
2824.49 2.73275
2826.40 2.66950
2828.30 2.59774
2829.26 2.55804
2830.21 2.51533
2831.45 2.45500
2832.68 2.38806
2833.92 2.31333
2835.15 2.22939
2835.77 2.18331
2836.39 2.13419
2837.01 2.08171
2837.62 2.02565
2838.24 1.96545
2838.86 1.90091
2839.48 1.83140
2840.09 1.75670
2840.46 1.70985
2840.82 1.66091
2841.19 1.60983
2841.55 1.55655
2841.92 1.50109
2842.28 1.44352
2842.65 1.38399
2843.01 1.32302
2843.32 1.27041
2843.63 1.21762
2843.94 1.16552
2844.25 1.11564
2844.56 1.06984
2844.71 1.04953
2844.86 1.03194
2845.02 1.01773
2845.17 1.00828
2845.33 1.00510
2845.48 1.01040
2845.58 1.01966
2845.68 1.03453
2845.78 1.05634
2845.87 1.08663
2845.97 1.12776
2846.07 1.18125
2846.17 1.25028
2846.27 1.33830
2846.37 1.45075
2846.46 1.59041
2846.51 1.67266
2846.56 1.76430
2846.61 1.86628
2846.66 1.97959
2846.71 2.10805
2846.76 2.24772
2846.81 2.40234
2846.86 2.57328
2846.91 2.76206
2846.96 2.97027
2847.00 3.19964
2847.05 3.45201
2847.09 3.65901
2847.13 3.88114
2847.16 4.11934
2847.20 4.37457
2847.24 4.64787
2847.28 4.94030
2847.31 5.25296
2847.35 5.57768
2847.40 6.12562
2847.43 6.42030
2847.46 6.72951
2847.49 7.05384
2847.52 7.39386
2847.56 7.92131
2847.60 8.47139
2847.64 9.07352
2847.68 9.70023
2847.72 10.3849
2847.76 11.0960
2847.80 11.8517
2847.84 12.6541
2847.88 13.4832
2847.92 14.3603
2847.96 15.2874
2847.99 16.2404
2848.03 17.2713
2848.07 18.3289
2848.11 19.4706
2848.15 20.6396
2848.19 21.8988
2848.23 23.1853
2848.26 24.5682
2848.30 25.9780
2848.34 27.4901
2848.38 29.0282
2848.42 30.6743
2848.46 32.3448
2848.52 35.4528
2848.59 38.7707
2848.66 42.2999
2848.72 45.9826
2848.79 49.9284
2848.86 54.0151
2848.92 58.3603
2848.99 62.8256
2849.07 68.3246
2849.14 73.9683
2849.22 79.8002
2849.30 85.7904
2849.45 98.1860
2849.61 110.674
2849.73 120.760
2849.86 130.491
2850.00 140.677
2850.08 145.817
2850.15 150.594
2850.23 154.961
2850.31 158.875
2850.39 162.461
2850.47 165.428
2850.57 168.215
2850.66 170.075
2850.69 170.400
2850.70 170.491
2850.72 170.749
2850.75 170.926
2850.80 171.074
2850.91 170.532
2850.98 169.502
2851.05 167.975
2851.16 164.639
2851.28 160.212
2851.40 154.226
2851.52 147.232
2851.65 139.356
2851.77 130.928
2851.98 115.477
2852.19 99.8579
2852.32 90.9522
2852.44 82.4553
2852.50 78.3341
2852.56 74.3364
2852.63 70.4717
2852.69 66.8063
2852.76 62.6067
2852.83 58.6173
2852.91 54.8427
2852.98 51.3321
2853.05 47.9877
2853.12 44.8574
2853.20 41.9372
2853.27 39.2573
2853.33 37.1039
2853.39 35.0883
2853.46 33.2051
2853.52 31.4761
2853.58 29.8388
2853.64 28.3402
2853.70 26.9251
2853.76 25.6333
2853.82 24.4162
2853.89 23.2898
2853.95 22.2482
2854.01 21.3006
2854.07 20.4103
2854.13 19.6010
2854.19 18.8409
2854.26 18.1501
2854.32 17.5013
2854.38 16.9019
2854.44 16.3478
2854.50 15.8434
2854.56 15.3684
2854.63 14.9352
2854.69 14.5265
2854.75 14.1527
2854.87 13.4751
2854.99 12.8847
2855.12 12.3669
2855.24 11.9095
2855.34 11.5722
2855.44 11.2642
2855.54 10.9819
2855.64 10.7218
2855.85 10.2579
2856.05 9.85699
2856.25 9.50256
2856.45 9.18754
2856.65 8.90505
2856.85 8.65110
2857.10 8.37024
2857.35 8.11941
2857.59 7.89212
2857.84 7.68666
2858.09 7.49852
2858.33 7.32688
2858.58 7.16901
2858.83 7.02331
2859.14 6.85283
2859.45 6.69756
2859.77 6.55553
2860.08 6.42550
2860.71 6.19405
2861.34 5.99524
2861.83 5.85733
2862.32 5.73300
2862.81 5.62031
2863.31 5.51770
2863.80 5.42385
2864.29 5.33769
2865.28 5.18501
2866.26 5.05355
2867.25 4.93922
2868.24 4.83884
2869.22 4.74995
2870.16 4.67407
2871.10 4.60554
2872.99 4.48652
2874.87 4.38658
2876.75 4.30140
2878.18 4.24438
2879.62 4.19305
2881.05 4.14661
2882.49 4.10445
2884.46 4.05268
2885.44 4.02930
2886.43 4.00762
2887.41 3.98766
2888.40 3.96972
2889.39 3.95430
2889.88 3.94785
2890.37 3.94257
2890.73 3.93968
2891.09 3.93793
2891.45 3.93787
2891.81 3.94073
2891.99 3.94406
2892.16 3.94939
2892.34 3.95772
2892.52 3.97052
2892.70 3.99011
2892.79 4.00339
2892.88 4.01946
2892.97 4.03928
2893.06 4.06313
2893.15 4.09237
2893.24 4.12729
2893.36 4.18798
2893.49 4.26504
2893.55 4.31146
2893.61 4.36278
2893.67 4.42125
2893.73 4.48559
2893.79 4.55855
2893.86 4.63982
2893.92 4.73010
2893.98 4.82843
2894.04 4.93878
2894.10 5.05833
2894.16 5.19175
2894.23 5.33548
2894.29 5.49499
2894.35 5.66875
2894.41 5.85747
2894.47 6.05839
2894.53 6.27869
2894.60 6.51180
2894.66 6.76579
2894.72 7.03283
2894.78 7.32193
2894.84 7.62898
2894.90 7.95397
2894.97 8.29108
2895.03 8.65106
2895.09 9.02183
2895.15 9.41487
2895.21 9.81670
2895.31 10.4770
2895.40 11.1597
2895.50 11.8658
2895.59 12.5885
2895.78 14.0591
2895.97 15.4836
2896.06 16.1218
2896.15 16.7181
2896.24 17.2772
2896.33 17.7786
2896.44 18.3029
2896.54 18.7270
2896.61 18.9272
2896.67 19.0877
2896.73 19.2210
2896.79 19.3000
2896.84 19.3374
2896.89 19.3505
2896.95 19.3349
2897.00 19.2930
2897.05 19.2249
2897.12 19.0792
2897.22 18.7966
2897.31 18.4550
2897.40 18.0407
2897.48 17.6107
2897.56 17.1327
2897.65 16.6128
2897.73 16.0573
2897.88 14.9334
2898.04 13.7584
2898.19 12.5598
2898.35 11.3913
2898.44 10.6886
2898.54 10.0204
2898.63 9.37781
2898.73 8.77833
2898.78 8.49016
2898.82 8.21227
2898.87 7.94487
2898.92 7.69334
2898.97 7.44708
2899.01 7.21637
2899.06 6.99140
2899.11 6.78147
2899.16 6.57754
2899.20 6.38404
2899.25 6.20080
2899.30 6.03110
2899.35 5.86747
2899.40 5.71337
2899.44 5.56849
2899.49 5.43527
2899.54 5.30773
2899.59 5.18843
2899.63 5.07705
2899.68 4.97532
2899.78 4.79043
2899.87 4.63103
2899.94 4.52415
2900.02 4.42952
2900.09 4.34600
2900.16 4.27345
2900.24 4.20885
2900.31 4.15229
2900.38 4.10290
2900.45 4.06041
2900.53 4.02289
2900.60 3.99029
2900.74 3.93776
2900.89 3.89793
2901.04 3.86806
2901.18 3.84518
2901.33 3.82770
2901.47 3.81391
2901.62 3.80296
2901.76 3.79392
2901.91 3.78637
2902.20 3.77413
2902.49 3.76423
2902.78 3.75577
2903.36 3.74145
2903.94 3.72924
2904.52 3.71844
2905.51 3.70225
2906.49 3.68776
2907.47 3.67437
2908.45 3.66181
2909.43 3.64986
2910.41 3.63842
2912.38 3.61671
2914.34 3.59624
2916.30 3.57665
2920.23 3.53967
2923.72 3.50868
2927.21 3.47906
2934.19 3.42281
2941.17 3.36917
2948.15 3.31690
2952.80 3.28228
2959.78 3.23007
2966.76 3.17676
2973.74 3.12147
2980.72 3.06331
2987.11 3.00659
2993.51 2.94566
2999.91 2.87941
3006.31 2.80648
3009.80 2.76334
3013.29 2.71734
3016.78 2.66813
3020.27 2.61535
3023.47 2.56346
3025.07 2.53617
3026.67 2.50797
3028.27 2.47885
3029.86 2.44888
3031.46 2.41817
3033.06 2.38704
3034.01 2.36862
3034.95 2.35048
3035.90 2.33290
3036.84 2.31644
3037.32 2.30890
3037.79 2.30207
3038.26 2.29619
3038.73 2.29161
3039.21 2.28888
3039.68 2.28887
3040.15 2.29321
3040.39 2.29802
3040.62 2.30565
3040.81 2.31439
3040.99 2.32681
3041.17 2.34462
3041.35 2.37020
3041.53 2.40760
3041.62 2.43233
3041.72 2.46223
3041.81 2.49836
3041.90 2.54197
3041.99 2.59453
3042.08 2.65699
3042.20 2.75884
3042.26 2.81889
3042.32 2.88620
3042.37 2.96153
3042.43 3.04570
3042.49 3.13960
3042.55 3.24416
3042.61 3.36038
3042.67 3.48930
3042.73 3.63203
3042.79 3.78973
3042.85 3.96360
3042.91 4.15489
3042.96 4.36487
3043.02 4.59484
3043.08 4.85058
3043.14 5.12491
3043.20 5.42323
3043.26 5.74684
3043.32 6.09701
3043.38 6.47496
3043.44 6.88184
3043.50 7.31872
3043.56 7.78655
3043.61 8.28618
3043.67 8.81830
3043.73 9.38343
3043.79 9.98192
3043.85 10.6139
3043.91 11.2793
3043.97 11.9777
3044.02 12.5950
3044.07 13.2352
3044.17 14.5810
3044.27 16.0080
3044.37 17.5062
3044.47 19.0633
3044.57 20.6642
3044.77 23.9089
3044.97 27.1252
3045.07 28.6444
3045.17 30.0775
3045.29 31.6253
3045.40 32.9823
3045.49 33.7946
3045.57 34.4804
3045.67 35.1544
3045.75 35.5398
3045.79 35.7168
3045.84 35.8443
3045.91 35.9292
3045.94 35.9373
3046.00 35.8931
3046.05 35.7864
3046.11 35.6280
3046.17 35.3461
3046.26 34.7844
3046.38 33.8901
3046.48 32.8688
3046.58 31.6897
3046.67 30.6091
3046.75 29.4438
3046.83 28.2077
3046.92 26.9152
3047.07 24.5116
3047.22 22.0698
3047.37 19.6298
3047.52 17.2872
3047.59 16.1553
3047.67 15.0624
3047.74 14.0129
3047.81 13.0236
3047.89 12.0705
3047.96 11.1694
3048.04 10.3217
3048.11 9.53814
3048.19 8.79767
3048.23 8.44297
3048.26 8.11070
3048.30 7.78273
3048.34 7.47617
3048.38 7.18203
3048.41 6.90009
3048.45 6.62300
3048.49 6.36508
3048.52 6.11863
3048.56 5.88336
3048.60 5.65306
3048.64 5.43956
3048.71 5.04310
3048.75 4.83061
3048.80 4.63515
3048.84 4.45117
3048.88 4.27817
3048.92 4.11568
3048.96 3.96324
3049.05 3.68658
3049.13 3.44452
3049.22 3.23352
3049.30 3.05026
3049.38 2.89158
3049.47 2.75458
3049.55 2.63659
3049.64 2.53517
3049.72 2.44813
3049.80 2.37349
3049.89 2.30951
3049.97 2.25464
3050.06 2.20753
3050.14 2.16699
3050.22 2.13201
3050.39 2.07534
3050.56 2.03193
3050.73 1.99778
3050.90 1.97007
3051.06 1.94685
3051.40 1.90895
3051.77 1.87450
3052.15 1.84448
3052.52 1.81711
3052.89 1.79154
3053.27 1.76710
3053.64 1.74357
3054.39 1.69804
3055.14 1.65360
3055.88 1.60945
3056.63 1.56506
3057.38 1.52006
3058.20 1.46953
3059.02 1.41765
3059.84 1.36421
3060.66 1.30912
3061.49 1.25209
3062.31 1.19315
3063.13 1.13208
3063.95 1.06899
3064.77 1.00372
3065.59 0.936435
3066.42 0.867289
3067.24 0.796667
3068.06 0.724878
3068.88 0.652757
3069.70 0.581443
3070.52 0.512719
3070.99 0.475667
3071.46 0.440855
3071.92 0.409090
3072.39 0.381398
3072.86 0.359094
3073.09 0.350456
3073.33 0.343866
3073.56 0.339557
3073.79 0.337894
3074.03 0.339239
3074.26 0.344010
3074.44 0.350264
3074.61 0.358992
3074.79 0.370493
3074.97 0.385068
3075.12 0.400076
3075.30 0.422431
3075.45 0.443788
3075.60 0.468244
3075.75 0.496441
3075.90 0.528344
3076.09 0.574462
3076.28 0.628136
3076.46 0.690330
3076.65 0.761741
3076.84 0.844411
3077.02 0.939463
3077.21 1.04862
3077.30 1.10877
3077.40 1.17317
3077.49 1.24291
3077.58 1.31682
3077.68 1.39687
3077.77 1.48173
3077.86 1.57368
3077.96 1.67122
3078.05 1.77582
3078.14 1.88802
3078.24 2.00979
3078.33 2.13922
3078.42 2.27986
3078.52 2.42956
3078.61 2.59248
3078.70 2.76618
3078.80 2.95348
3078.89 3.15564
3078.99 3.39864
3079.10 3.66381
3079.20 3.95365
3079.25 4.10716
3079.30 4.26778
3079.35 4.43930
3079.40 4.61557
3079.46 4.80398
3079.51 4.99779
3079.56 5.20517
3079.61 5.41871
3079.66 5.64292
3079.71 5.87846
3079.76 6.13101
3079.82 6.39164
3079.87 6.67139
3079.92 6.96039
3079.97 7.27095
3080.02 7.59213
3080.07 7.93081
3080.12 8.28815
3080.18 8.67295
3080.23 9.07175
3080.28 9.50164
3080.33 9.94761
3080.38 10.4288
3080.43 10.9284
3080.48 11.4573
3080.53 12.0174
3080.59 12.6226
3080.64 13.2520
3080.69 13.9326
3080.74 14.6408
3080.79 15.4070
3080.84 16.2045
3080.89 17.0505
3080.95 17.9480
3081.00 18.9196
3081.05 19.9313
3081.10 21.0263
3081.15 22.1663
3081.20 23.4001
3081.25 24.6843
3081.31 26.0460
3081.36 27.4895
3081.41 29.0502
3081.46 30.6728
3081.51 32.4257
3081.56 34.2464
3081.61 36.2115
3081.67 38.2505
3081.72 40.4052
3081.77 42.6808
3081.82 45.1306
3081.87 47.6658
3081.92 50.3373
3081.97 53.1502
3082.02 56.1688
3082.08 59.2821
3082.13 62.5512
3082.18 65.9806
3082.27 72.3615
3082.36 79.2632
3082.44 86.7022
3082.53 94.5982
3082.62 103.138
3082.71 112.236
3082.80 121.888
3082.89 131.964
3082.99 144.404
3083.09 157.497
3083.20 171.182
3083.30 185.241
3083.50 214.779
3083.71 244.889
3083.91 274.561
3084.02 288.899
3084.12 302.498
3084.24 317.865
3084.37 331.836
3084.49 344.146
3084.61 354.479
3084.70 360.529
3084.78 365.441
3084.87 369.247
3084.95 371.914
3084.99 372.822
3085.06 373.662
3085.13 373.715
3085.20 372.986
3085.27 371.505
3085.41 366.291
3085.55 358.321
3085.67 349.650
3085.78 339.463
3085.90 327.892
3086.01 315.150
3086.13 301.464
3086.24 287.187
3086.47 257.250
3086.70 226.982
3086.81 212.103
3086.93 197.759
3087.04 184.411
3087.15 171.745
3087.25 159.701
3087.36 148.324
3087.47 137.547
3087.58 127.580
3087.69 118.324
3087.75 113.920
3087.80 109.767
3087.86 105.492
3087.92 101.475
3087.97 97.5697
3088.03 93.9070
3088.09 90.3530
3088.15 87.0249
3088.20 83.8545
3088.26 80.8364
3088.32 77.9155
3088.37 75.1869
3088.43 72.5930
3088.49 70.1281
3088.55 67.7463
3088.60 65.5241
3088.66 63.4136
3088.72 61.4094
3088.79 59.1501
3088.85 57.0258
3088.92 55.0279
3088.99 53.1753
3089.06 51.4051
3089.12 49.7622
3089.19 48.1907
3089.26 46.7306
3089.33 45.3323
3089.39 44.0123
3089.46 42.7653
3089.53 41.6032
3089.66 39.4440
3089.80 37.5016
3089.91 35.9967
3090.03 34.6246
3090.14 33.3482
3090.26 32.1780
3090.37 31.0834
3090.49 30.0747
3090.60 29.1264
3090.72 28.2483
3090.83 27.4189
3090.94 26.6476
3091.06 25.9161
3091.17 25.2332
3091.40 23.9743
3091.63 22.8465
3091.86 21.8305
3092.09 20.9104
3092.32 20.0733
3092.55 19.3088
3092.78 18.6078
3093.01 17.9628
3093.23 17.3676
3093.46 16.8166
3093.86 15.9549
3094.26 15.1920
3094.65 14.5121
3095.05 13.9039
3095.44 13.3543
3095.84 12.8578
3096.23 12.4050
3096.63 11.9925
3097.09 11.5569
3097.54 11.1613
3098.00 10.8006
3098.46 10.4704
3098.92 10.1671
3099.38 9.88763
3099.83 9.62926
3100.29 9.38977
3100.88 9.10917
3101.46 8.85256
3102.04 8.61707
3102.62 8.40023
3103.21 8.19991
3103.79 8.01427
3104.96 7.68122
3105.87 7.44964
3106.79 7.24059
3107.70 7.05097
3108.62 6.87819
3109.54 6.72013
3110.45 6.57496
3112.28 6.31748
3114.12 6.09607
3115.95 5.90358
3117.78 5.73464
3119.61 5.58519
3121.36 5.45774
3123.11 5.34259
3124.86 5.23804
3126.61 5.14276
3130.10 4.97505
3133.60 4.83201
3137.27 4.70269
3140.93 4.59007
3144.59 4.49085
3148.26 4.40257
3150.92 4.34421
3154.09 4.28053
3155.67 4.25086
3157.25 4.22264
3158.84 4.19595
3160.42 4.17105
3161.21 4.15943
3162.00 4.14852
3162.79 4.13857
3163.58 4.12996
3164.25 4.12425
3164.58 4.12217
3164.91 4.12084
3165.25 4.12061
3165.58 4.12219
3165.75 4.12408
3165.91 4.12706
3166.08 4.13165
3166.25 4.13846
3166.41 4.14855
3166.58 4.16318
3166.75 4.18446
3166.91 4.21476
3167.00 4.23463
3167.08 4.25795
3167.16 4.28553
3167.25 4.31806
3167.33 4.35679
3167.41 4.40165
3167.50 4.45398
3167.58 4.51481
3167.66 4.58613
3167.75 4.66744
3167.83 4.76079
3167.91 4.86748
3168.00 4.99045
3168.08 5.12818
3168.16 5.28346
3168.24 5.45769
3168.33 5.65471
3168.41 5.87113
3168.49 6.11037
3168.58 6.37347
3168.66 6.66491
3168.74 6.97837
3168.83 7.31756
3168.91 7.68250
3168.98 7.99091
3169.04 8.31008
3169.11 8.64409
3169.17 8.99234
3169.24 9.35402
3169.30 9.72816
3169.43 10.5091
3169.95 13.8201
3170.06 14.4907
3170.17 15.1187
3170.28 15.7035
3170.39 16.2230
3170.50 16.6907
3170.62 17.0704
3170.73 17.3551
3170.82 17.4952
3170.87 17.5594
3170.93 17.5933
3170.98 17.6035
3171.03 17.5908
3171.08 17.5579
3171.14 17.4929
3171.21 17.3812
3171.32 17.1082
3171.43 16.7715
3171.53 16.3582
3171.63 15.9010
3171.73 15.3950
3171.83 14.8386
3171.93 14.2518
3172.13 13.0005
3172.33 11.7121
3172.53 10.4507
3172.62 9.84991
3172.72 9.27401
3172.79 8.92243
3172.85 8.58350
3172.91 8.25794
3172.98 7.94633
3173.04 7.64908
3173.10 7.36648
3173.16 7.09871
3173.23 6.84969
3173.29 6.61133
3173.35 6.38759
3173.42 6.17822
3173.48 5.98587
3173.54 5.80395
3173.60 5.63519
3173.67 5.47909
3173.73 5.33730
3173.81 5.16292
3173.90 5.00763
3173.98 4.86997
3174.06 4.74983
3174.14 4.64888
3174.22 4.55978
3174.30 4.48143
3174.38 4.41357
3174.46 4.35344
3174.54 4.30165
3174.61 4.25601
3174.69 4.21689
3174.77 4.18255
3174.85 4.15321
3175.01 4.10561
3175.16 4.07008
3175.32 4.04348
3175.48 4.02338
3175.63 4.00799
3175.79 3.99596
3175.95 3.98634
3176.11 3.97841
3176.26 3.97171
3176.58 3.96070
3176.89 3.95167
3177.20 3.94380
3177.83 3.93015
3178.46 3.91824
3179.09 3.90742
3179.68 3.89802
3180.26 3.88913
3181.43 3.87242
3182.61 3.85666
3183.78 3.84160
3184.95 3.82703
3186.12 3.81289
3188.47 3.78556
3190.81 3.75914
3193.16 3.73348
3195.50 3.70847
3197.85 3.68405
3200.70 3.65515
3202.12 3.64103
3203.54 3.62718
3204.97 3.61372
3205.68 3.60721
3206.39 3.60091
3207.10 3.59492
3207.82 3.58945
3208.17 3.58704
3208.53 3.58505
3208.88 3.58385
3209.06 3.58379
3209.24 3.58431
3209.42 3.58570
3209.59 3.58836
3209.77 3.59287
3209.86 3.59606
3209.95 3.60002
3210.04 3.60492
3210.13 3.61090
3210.22 3.61816
3210.31 3.62692
3210.40 3.63740
3210.48 3.64988
3210.57 3.66466
3210.66 3.68203
3210.75 3.70236
3210.84 3.72600
3210.93 3.75334
3211.02 3.78478
3211.11 3.82073
3211.20 3.86159
3211.29 3.90778
3211.37 3.95968
3211.46 4.01766
3211.55 4.08202
3211.64 4.15305
3211.73 4.23094
3211.82 4.31581
3211.91 4.40771
3212.00 4.50653
3212.09 4.61210
3212.23 4.80029
3212.38 5.00221
3212.53 5.21727
3212.67 5.43820
3212.97 5.88160
3213.11 6.09130
3213.26 6.28214
3213.35 6.39381
3213.45 6.49262
3213.54 6.57825
3213.64 6.64934
3213.72 6.70222
3213.81 6.74026
3213.90 6.76202
3213.95 6.76861
3213.99 6.76973
3214.04 6.76639
3214.10 6.75719
3214.19 6.72660
3214.28 6.68178
3214.37 6.62201
3214.42 6.58842
3214.44 6.57088
3214.52 6.49261
3214.61 6.39676
3214.70 6.29101
3214.79 6.17583
3214.88 6.05273
3215.06 5.78758
3215.24 5.51117
3215.48 5.15220
3215.60 4.97924
3215.71 4.81368
3215.83 4.65730
3215.95 4.51144
3216.06 4.37700
3216.18 4.25552
3216.30 4.14505
3216.41 4.04656
3216.53 3.95964
3216.65 3.88369
3216.76 3.81796
3216.88 3.76158
3217.00 3.71365
3217.11 3.67354
3217.22 3.64233
3217.33 3.61618
3217.43 3.59418
3217.54 3.57575
3217.65 3.56023
3217.75 3.54746
3217.86 3.53685
3217.96 3.52805
3218.07 3.52068
3218.18 3.51461
3218.28 3.50955
3218.39 3.50529
3218.60 3.49860
3218.81 3.49368
3218.98 3.49056
3219.15 3.48797
3219.49 3.48390
3219.83 3.48106
3220.00 3.48016
3220.17 3.47974
3220.35 3.48001
3220.54 3.48133
3220.72 3.48415
3220.90 3.48911
3220.99 3.49269
3221.08 3.49713
3221.17 3.50261
3221.26 3.50932
3221.35 3.51754
3221.44 3.52734
3221.53 3.53903
3221.62 3.55289
3221.71 3.56942
3221.80 3.58857
3221.89 3.61084
3221.98 3.63658
3222.07 3.66651
3222.16 3.70035
3222.25 3.73876
3222.34 3.78209
3222.43 3.83125
3222.52 3.88546
3222.61 3.94549
3222.70 4.01153
3222.79 4.08457
3222.88 4.16305
3222.97 4.24769
3223.06 4.33836
3223.21 4.50095
3223.36 4.67738
3223.51 4.86476
3223.66 5.05792
3223.95 5.44724
3224.10 5.63203
3224.25 5.80054
3224.35 5.90384
3224.45 5.99558
3224.55 6.07412
3224.66 6.13802
3224.74 6.17956
3224.83 6.20932
3224.90 6.22605
3224.97 6.23180
3224.99 6.23202
3225.05 6.22865
3225.12 6.21704
3225.18 6.20001
3225.24 6.17716
3225.32 6.13811
3225.40 6.08930
3225.45 6.05510
3225.54 5.97528
3225.64 5.88319
3225.74 5.78144
3225.84 5.67074
3225.93 5.55276
3226.13 5.30181
3226.32 5.04206
3226.50 4.80005
3226.60 4.68363
3226.69 4.57103
3226.78 4.46301
3226.87 4.36017
3226.96 4.26299
3227.05 4.17182
3227.14 4.08597
3227.23 4.00741
3227.32 3.93519
3227.42 3.86920
3227.51 3.80927
3227.60 3.75518
3227.69 3.70663
3227.78 3.66330
3227.91 3.61050
3228.04 3.56629
3228.16 3.52960
3228.29 3.49963
3228.42 3.47495
3228.55 3.45506
3228.67 3.43886
3228.80 3.42590
3228.93 3.41539
3229.06 3.40697
3229.18 3.40009
3229.31 3.39451
3229.44 3.38987
3229.57 3.38601
3229.69 3.38269
3229.82 3.37983
3230.08 3.37498
3230.33 3.37092
3230.84 3.36395
3231.35 3.35770
3231.86 3.35180
3232.88 3.34056
3233.90 3.32975
3234.92 3.31918
3235.94 3.30878
3237.11 3.29706
3238.28 3.28556
3239.44 3.27431
3240.61 3.26347
3241.77 3.25334
3242.36 3.24873
3242.94 3.24459
3243.52 3.24117
3244.11 3.23902
3244.40 3.23881
3244.69 3.23969
3244.98 3.24252
3245.13 3.24514
3245.27 3.24894
3245.47 3.25673
3245.56 3.26217
3245.66 3.26895
3245.76 3.27747
3245.86 3.28790
3245.95 3.30074
3246.05 3.31648
3246.15 3.33587
3246.24 3.35919
3246.34 3.38733
3246.44 3.42113
3246.54 3.46149
3246.63 3.50944
3246.73 3.56607
3246.83 3.63258
3246.94 3.72152
3247.05 3.82565
3247.16 3.94882
3247.26 4.09071
3247.37 4.25578
3247.48 4.44272
3247.59 4.65439
3247.65 4.77095
3247.70 4.89192
3247.76 5.02184
3247.81 5.15859
3247.87 5.30217
3247.92 5.44975
3247.98 5.60675
3248.03 5.77037
3248.14 6.11352
3248.25 6.48364
3248.36 6.87135
3248.47 7.27648
3248.58 7.69476
3248.94 9.12072
3249.03 9.46316
3249.12 9.79229
3249.21 10.1040
3249.31 10.3941
3249.38 10.6253
3249.46 10.8349
3249.54 11.0206
3249.62 11.1784
3249.69 11.3016
3249.77 11.3999
3249.85 11.4817
3249.92 11.5203
3249.97 11.5352
3250.00 11.5374
3250.05 11.5303
3250.10 11.5109
3250.16 11.4697
3250.27 11.3583
3250.36 11.2051
3250.46 11.0087
3250.56 10.7696
3250.66 10.4969
3250.76 10.1926
3250.85 9.86173
3250.94 9.54604
3251.03 9.22049
3251.20 8.54382
3251.38 7.85219
3251.55 7.17868
3251.64 6.85393
3251.73 6.53662
3251.81 6.23580
3251.90 5.94925
3251.99 5.67815
3252.08 5.42047
3252.16 5.18262
3252.25 4.96182
3252.34 4.75806
3252.40 4.61472
3252.47 4.48286
3252.53 4.35817
3252.60 4.24418
3252.67 4.13705
3252.73 4.03969
3252.80 3.95006
3252.86 3.86777
3252.94 3.77924
3253.01 3.70077
3253.09 3.62963
3253.17 3.56700
3253.24 3.51061
3253.32 3.46129
3253.40 3.41768
3253.47 3.37923
3253.62 3.31538
3253.78 3.26649
3253.93 3.22930
3254.08 3.20125
3254.24 3.17981
3254.39 3.16346
3254.54 3.15086
3254.69 3.14105
3254.85 3.13315
3255.00 3.12672
3255.15 3.12127
3255.30 3.11659
3255.61 3.10861
3255.91 3.10184
3256.22 3.09575
3256.53 3.09011
3257.14 3.07965
3257.75 3.06992
3258.58 3.05736
3259.40 3.04527
3260.23 3.03344
3261.06 3.02176
3262.72 2.99847
3264.38 2.97506
3266.03 2.95128
3267.69 2.92703
3271.01 2.87667
3272.40 2.85463
3276.24 2.79088
3280.08 2.72186
3283.92 2.64645
3287.76 2.56334
3291.59 2.47084
3295.43 2.36684
3299.27 2.24856
3301.19 2.18297
3303.11 2.11238
3305.20 2.02893
3307.30 1.93772
3309.39 1.83748
3311.48 1.72697
3313.40 1.61515
3314.36 1.55503
3315.32 1.49193
3316.28 1.42551
3317.24 1.35572
3318.20 1.28220
3319.16 1.20493
3320.12 1.12361
3321.08 1.03823
3322.04 0.948804
3323.00 0.855628
3323.96 0.758982
3324.92 0.659997
3325.88 0.560132
3326.84 0.462473
3327.27 0.419902
3327.71 0.379513
3328.15 0.342068
3328.58 0.308678
3329.02 0.280777
3329.24 0.269448
3329.45 0.260233
3329.67 0.253458
3329.89 0.249497
3330.11 0.248780
3330.33 0.251806
3330.47 0.256283
3330.62 0.262899
3330.77 0.271971
3330.92 0.283622
3331.06 0.297524
3331.24 0.320411
3331.41 0.345392
3331.57 0.375240
3331.73 0.410939
3331.90 0.452749
3332.09 0.512845
3332.29 0.584558
3332.49 0.670076
3332.58 0.718707
3332.68 0.771678
3332.78 0.829963
3332.88 0.892779
3332.98 0.961128
3333.07 1.03549
3333.17 1.11640
3333.27 1.20445
3333.37 1.30030
3333.47 1.40468
3333.60 1.55900
3333.73 1.73231
3333.79 1.82765
3333.86 1.92727
3333.92 2.03298
3333.99 2.14521
3334.06 2.26631
3334.12 2.39314
3334.19 2.53016
3334.25 2.67384
3334.32 2.82929
3334.38 2.99253
3334.45 3.16662
3334.51 3.35244
3334.57 3.53519
3334.63 3.72953
3334.69 3.93637
3334.75 4.15663
3334.81 4.39138
3334.87 4.64173
3334.93 4.90890
3334.99 5.19423
3335.05 5.49915
3335.11 5.82523
3335.17 6.17415
3335.23 6.54775
3335.29 6.94799
3335.35 7.37703
3335.41 7.83716
3335.47 8.33088
3335.53 8.86084
3335.59 9.42992
3335.65 10.0412
3335.71 10.6980
3335.77 11.4038
3335.83 12.1624
3335.89 12.9778
3335.95 13.8543
3336.01 14.7963
3336.07 15.8086
3336.13 16.8962
3336.19 18.0645
3336.25 19.3189
3336.31 20.6653
3336.37 22.1096
3336.43 23.6581
3336.48 24.9481
3336.53 26.2795
3336.57 27.7133
3336.62 29.1917
3336.67 30.7824
3336.71 32.4208
3336.76 34.1431
3336.80 35.9526
3336.85 37.8949
3336.90 39.8905
3336.94 42.0296
3336.99 44.2244
3337.04 46.5735
3337.08 48.9800
3337.13 51.4958
3337.17 54.1237
3337.23 57.7241
3337.29 61.5253
3337.35 65.5323
3337.41 69.7495
3337.47 74.1807
3337.53 78.8288
3337.59 83.6959
3337.65 88.6966
3337.71 94.0908
3337.77 99.6175
3337.83 105.361
3337.89 111.318
3338.01 123.852
3338.13 137.162
3338.25 151.167
3338.37 165.761
3338.61 196.040
3338.85 226.931
3338.97 242.058
3339.09 256.679
3339.21 270.117
3339.33 282.665
3339.44 294.124
3339.56 304.226
3339.68 313.187
3339.79 320.422
3339.91 325.928
3340.03 329.524
3340.07 330.311
3340.20 331.343
3340.33 330.101
3340.46 326.620
3340.58 321.056
3340.70 314.063
3340.82 305.583
3340.94 295.740
3341.06 284.725
3341.18 272.429
3341.30 259.452
3341.55 232.040
3341.79 203.938
3341.91 190.184
3342.03 176.791
3342.13 166.714
3342.22 156.977
3342.31 147.617
3342.41 138.759
3342.50 130.234
3342.59 122.155
3342.69 114.530
3342.78 107.434
3342.84 103.022
3342.90 98.7976
3342.96 94.7597
3343.02 90.9664
3343.09 87.2873
3343.15 83.8386
3343.21 80.5008
3343.27 77.3780
3343.33 74.3610
3343.39 71.4972
3343.45 68.7808
3343.51 66.2470
3343.57 63.8052
3343.63 61.5297
3343.69 59.3388
3343.75 57.2983
3343.87 53.4770
3343.99 50.0837
3344.12 47.0198
3344.24 44.2965
3344.36 41.8324
3344.48 39.6354
3344.60 37.6552
3344.72 35.8659
3344.84 34.2319
3344.97 32.7595
3345.09 31.4171
3345.21 30.1894
3345.33 29.0540
3345.45 28.0178
3345.57 27.0611
3345.69 26.1751
3345.81 25.3457
3345.94 24.5799
3346.18 23.1959
3346.42 21.9737
3346.66 20.8945
3346.91 19.9268
3347.15 19.0573
3347.39 18.2718
3347.63 17.5615
3347.88 16.9109
3348.12 16.3153
3348.36 15.7680
3348.60 15.2653
3348.98 14.5594
3349.35 13.9296
3349.73 13.3644
3350.10 12.8558
3350.48 12.3933
3350.85 11.9722
3351.23 11.5871
3351.60 11.2347
3352.09 10.8179
3352.57 10.4421
3353.06 10.1012
3353.54 9.79037
3354.03 9.50601
3354.51 9.24485
3355.48 8.78179
3356.54 8.35025
3357.60 7.98046
3358.66 7.65961
3359.72 7.37904
3360.69 7.15052
3361.66 6.94550
3362.63 6.76038
3363.60 6.59241
3365.54 6.29908
3367.48 6.05134
3369.42 5.83900
3371.36 5.65495
3373.30 5.49355
3375.24 5.35091
3377.09 5.22914
3378.95 5.11905
3382.65 4.92736
3386.35 4.76549
3390.06 4.62626
3393.23 4.52094
3396.41 4.42607
3399.58 4.33975
3402.76 4.26055
3406.64 4.17177
3410.52 4.09038
3412.46 4.05213
3414.40 4.01546
3416.34 3.98039
3418.28 3.94715
3419.30 3.93065
3420.31 3.91494
3421.33 3.90024
3422.34 3.88705
3422.85 3.88123
3423.36 3.87616
3423.86 3.87206
3424.37 3.86932
3424.88 3.86868
3425.13 3.86960
3425.38 3.87185
3425.64 3.87618
3425.89 3.88383
3426.15 3.89711
3426.27 3.90698
3426.40 3.91976
3426.56 3.94264
3426.73 3.97459
3426.90 4.01948
3427.06 4.08122
3427.14 4.12047
3427.23 4.16631
3427.31 4.21968
3427.39 4.28082
3427.47 4.35234
3427.56 4.43478
3427.64 4.52946
3427.72 4.63641
3427.81 4.75969
3427.89 4.89966
3427.97 5.05790
3428.05 5.23381
3428.14 5.43329
3428.22 5.65596
3428.30 5.90340
3428.38 6.17367
3428.47 6.47472
3428.55 6.80465
3428.63 7.16448
3428.72 7.55009
3428.80 7.97138
3428.88 8.41832
3428.96 8.90159
3429.05 9.40892
3429.10 9.78513
3429.16 10.1752
3429.28 10.9940
3429.39 11.8589
3429.51 12.7535
3429.97 16.4935
3430.08 17.3550
3430.19 18.1666
3430.30 18.9216
3430.41 19.6063
3430.53 20.2624
3430.65 20.8018
3430.78 21.2111
3430.87 21.4326
3430.93 21.5280
3430.99 21.5869
3431.05 21.6089
3431.06 21.6090
3431.08 21.6054
3431.10 21.5964
3431.17 21.5451
3431.23 21.4546
3431.30 21.2986
3431.36 21.1252
3431.43 20.9154
3431.53 20.4948
3431.63 19.9921
3431.72 19.4729
3431.81 18.9044
3431.90 18.2887
3431.99 17.6333
3432.09 16.8993
3432.18 16.1386
3432.37 14.5746
3432.57 13.0122
3432.66 12.2511
3432.76 11.5198
3432.86 10.7649
3432.96 10.0537
3433.06 9.37617
3433.11 9.05381
3433.16 8.74878
3433.21 8.44908
3433.26 8.16108
3433.32 7.88488
3433.37 7.62558
3433.42 7.37279
3433.47 7.13174
3433.52 6.90233
3433.57 6.68855
3433.62 6.48166
3433.67 6.28583
3433.72 6.10078
3433.77 5.92955
3433.82 5.76499
3433.87 5.61029
3433.92 5.46510
3433.97 5.33164
3434.03 5.20422
3434.08 5.08520
3434.18 4.87281
3434.28 4.68725
3434.38 4.52920
3434.47 4.41390
3434.55 4.31310
3434.64 4.22525
3434.72 4.14978
3434.80 4.08356
3434.89 4.02697
3434.97 3.97756
3435.06 3.93549
3435.14 3.89888
3435.23 3.86743
3435.40 3.81749
3435.57 3.78050
3435.73 3.75287
3435.90 3.73181
3436.07 3.71561
3436.24 3.70273
3436.41 3.69218
3436.75 3.67557
3437.09 3.66247
3437.43 3.65130
3437.76 3.64138
3438.44 3.62378
3439.12 3.60811
3439.79 3.59370
3440.70 3.57570
3441.60 3.55867
3442.50 3.54222
3443.40 3.52620
3445.21 3.49487
3447.01 3.46408
3448.82 3.43343
3450.62 3.40274
3454.23 3.34055
3457.12 3.28952
3461.09 3.21668
3465.06 3.13976
3469.03 3.05747
3473.00 2.96833
3476.79 2.87510
3480.58 2.77179
3484.37 2.65567
3486.27 2.59174
3488.16 2.52320
3490.15 2.44563
3492.13 2.36122
3494.12 2.26893
3496.10 2.16742
3498.09 2.05505
3500.07 1.93000
3501.06 1.86196
3502.06 1.78991
3503.05 1.71337
3504.04 1.63214
3505.31 1.52114
3505.94 1.46228
3506.57 1.40117
3507.20 1.33754
3507.83 1.27154
3508.46 1.20295
3509.09 1.13205
3509.68 1.06403
3510.27 0.994359
3510.85 0.923115
3511.44 0.851056
3512.03 0.778710
3512.61 0.707481
3513.20 0.638850
3513.79 0.575615
3514.13 0.542881
3514.46 0.514263
3514.80 0.490897
3515.14 0.474597
3515.48 0.467460
3515.65 0.468211
3515.82 0.472396
3515.99 0.480583
3516.16 0.493266
3516.33 0.511168
3516.49 0.535093
3516.71 0.575746
3516.92 0.629770
3516.97 0.643113
3517.12 0.692145
3517.26 0.750039
3517.36 0.793768
3517.45 0.842523
3517.55 0.896820
3517.64 0.956582
3517.74 1.02372
3517.84 1.09839
3517.93 1.18143
3518.03 1.27281
3518.15 1.40881
3518.28 1.56405
3518.40 1.74285
3518.46 1.84231
3518.52 1.94920
3518.59 2.06415
3518.65 2.18785
3518.71 2.32102
3518.77 2.46449
3518.83 2.61914
3518.90 2.78595
3518.96 2.96597
3519.02 3.16036
3519.08 3.37392
3519.15 3.60125
3519.21 3.84713
3519.27 4.11319
3519.33 4.40120
3519.39 4.71310
3519.46 5.05098
3519.52 5.41709
3519.58 5.81388
3519.64 6.24399
3519.70 6.71025
3519.77 7.21569
3519.83 7.76359
3519.89 8.35742
3519.95 9.00092
3520.01 9.69803
3520.06 10.2152
3520.10 10.7486
3520.14 11.3113
3520.18 11.9049
3520.23 12.5461
3520.27 13.2068
3520.31 13.9030
3520.35 14.6365
3520.39 15.4279
3520.44 16.2421
3520.48 17.0989
3520.52 18.0001
3520.56 18.9708
3520.61 19.9678
3520.65 21.0150
3520.69 22.1144
3520.75 23.8371
3520.81 25.6843
3520.88 27.6627
3520.94 29.7786
3521.00 32.0387
3521.06 34.4492
3521.12 37.0162
3521.19 39.7458
3521.25 42.6434
3521.31 45.7143
3521.37 48.9634
3521.43 52.3949
3521.50 56.0123
3521.56 59.8187
3521.62 63.8162
3521.68 68.0061
3521.74 72.4611
3521.81 77.0390
3521.87 81.8071
3521.93 86.7626
3521.99 91.9013
3522.05 97.2175
3522.18 108.354
3522.30 120.101
3522.43 132.363
3522.67 157.943
3522.88 179.225
3523.08 199.972
3523.20 212.012
3523.33 223.327
3523.46 234.669
3523.60 244.653
3523.71 251.293
3523.81 256.855
3523.91 261.334
3524.02 264.674
3524.09 266.240
3524.12 266.834
3524.23 267.819
3524.35 267.382
3524.46 265.544
3524.57 262.352
3524.68 258.008
3524.79 252.583
3524.90 246.137
3525.01 238.781
3525.12 230.399
3525.23 221.316
3525.35 211.673
3525.46 201.611
3525.68 180.682
3525.91 159.738
3526.06 145.819
3526.21 132.472
3526.29 126.027
3526.37 119.868
3526.44 113.922
3526.52 108.201
3526.63 100.127
3526.74 92.6486
3526.80 89.1071
3526.86 85.6974
3526.91 82.4188
3526.97 79.2703
3527.02 76.2500
3527.08 73.3561
3527.14 70.5862
3527.19 67.9377
3527.25 65.4075
3527.30 62.9926
3527.36 60.6896
3527.42 58.4949
3527.47 56.3685
3527.53 54.3813
3527.58 52.4913
3527.64 50.6946
3527.70 48.9873
3527.75 47.3657
3527.81 45.8259
3527.86 44.3641
3527.92 42.9768
3527.98 41.6602
3528.09 39.2254
3528.20 37.0327
3528.31 35.0569
3528.42 33.3505
3528.53 31.8022
3528.63 30.3950
3528.74 29.1138
3528.85 27.9445
3528.95 26.8750
3529.06 25.8943
3529.17 24.9926
3529.28 24.1613
3529.38 23.3928
3529.49 22.6806
3529.60 22.0186
3529.81 20.8257
3530.02 19.7799
3530.25 18.8104
3530.47 17.9544
3530.70 17.1894
3530.92 16.5011
3531.15 15.8782
3531.37 15.3116
3531.59 14.7938
3531.82 14.3188
3532.14 13.6934
3532.47 13.1350
3532.80 12.6332
3533.12 12.1799
3533.45 11.7683
3533.77 11.3930
3534.10 11.0494
3534.43 10.7336
3534.87 10.3384
3535.32 9.98370
3535.77 9.66224
3536.22 9.37085
3536.67 9.10438
3537.12 8.86084
3537.57 8.63643
3538.01 8.42989
3538.91 8.06099
3539.81 7.74167
3540.70 7.46260
3541.60 7.21684
3542.50 6.99822
3543.39 6.80256
3544.29 6.62637
3545.19 6.46703
3546.08 6.32190
3546.98 6.18927
3548.77 5.95553
3550.57 5.75561
3552.36 5.58257
3554.15 5.43101
3555.95 5.29698
3557.58 5.18775
3559.21 5.08862
3562.47 4.91466
3565.73 4.76653
3568.99 4.63808
3572.58 4.51427
3576.17 4.40476
3579.75 4.30638
3583.34 4.21680
3587.09 4.13071
3590.84 4.05042
3598.34 3.90278
3605.84 3.76597
3613.34 3.63382
3619.86 3.51842
3626.38 3.39883
3632.91 3.27086
3639.43 3.12948
3643.02 3.04327
3646.60 2.94917
3650.19 2.84509
3653.78 2.72829
3656.39 2.63334
3658.99 2.52800
3661.60 2.41008
3664.21 2.27645
3666.01 2.17349
3667.80 2.05987
3669.59 1.93360
3670.49 1.86508
3671.39 1.79265
3672.28 1.71580
3673.18 1.63428
3674.08 1.54772
3674.97 1.45588
3675.87 1.35823
3676.77 1.25464
3677.66 1.14501
3678.56 1.02970
3679.25 0.936996
3679.95 0.841982
3680.64 0.745914
3681.33 0.650913
3682.02 0.560517
3682.37 0.518709
3682.72 0.480664
3683.06 0.447569
3683.41 0.421466
3683.58 0.411688
3683.76 0.404680
3683.93 0.400821
3684.10 0.400630
3684.25 0.403669
3684.39 0.410026
3684.53 0.420159
3684.67 0.434479
3684.82 0.453800
3684.96 0.478556
3685.10 0.509929
3685.24 0.548455
3685.36 0.585119
3685.47 0.627426
3685.58 0.676436
3685.69 0.733023
3685.81 0.798206
3685.92 0.873170
3686.03 0.959298
3686.14 1.05821
3686.22 1.13461
3686.29 1.21750
3686.37 1.30986
3686.45 1.41014
3686.52 1.52196
3686.60 1.64349
3686.68 1.77915
3686.75 1.92676
3686.83 2.09174
3686.91 2.27149
3686.98 2.47262
3687.06 2.69200
3687.14 2.93777
3687.21 3.20612
3687.29 3.50291
3687.36 3.83126
3687.42 4.10031
3687.48 4.38533
3687.53 4.69250
3687.59 5.02353
3687.65 5.38027
3687.70 5.76468
3687.76 6.17886
3687.81 6.62503
3687.87 7.10556
3687.93 7.62294
3687.98 8.17983
3688.04 8.77903
3688.09 9.42346
3688.15 10.1162
3688.21 10.8605
3688.26 11.6598
3688.31 12.3599
3688.35 13.1014
3688.40 13.8865
3688.45 14.7173
3688.49 15.5959
3688.54 16.5247
3688.58 17.5059
3688.63 18.5187
3688.67 19.6105
3688.72 20.7617
3688.77 21.9747
3688.81 23.2237
3688.86 24.5663
3688.90 25.9781
3688.95 27.4614
3688.99 28.9841
3689.05 31.0179
3689.11 33.1343
3689.16 35.3720
3689.22 37.7350
3689.28 40.2270
3689.33 42.8512
3689.39 45.6110
3689.44 48.5090
3689.50 51.5478
3689.56 54.7293
3689.61 58.0552
3689.67 61.5264
3689.72 65.1435
3689.78 68.9064
3689.84 72.8145
3689.89 76.8662
3690.00 85.3917
3690.12 94.4572
3690.23 104.024
3690.34 114.040
3690.45 124.440
3690.56 135.145
3690.79 157.084
3691.01 179.078
3691.12 189.696
3691.24 199.914
3691.36 210.433
3691.48 220.146
3691.56 226.070
3691.64 231.522
3691.72 236.460
3691.80 240.796
3691.89 244.906
3691.98 248.289
3692.07 250.917
3692.16 252.767
3692.17 253.034
3692.23 253.693
3692.28 254.038
3692.39 253.823
3692.50 252.402
3692.61 249.839
3692.73 245.785
3692.84 240.555
3692.96 234.226
3693.08 226.917
3693.20 218.322
3693.32 209.033
3693.44 199.064
3693.57 188.744
3693.81 167.358
3693.93 156.586
3694.06 146.055
3694.20 133.888
3694.35 122.247
3694.42 116.625
3694.49 111.253
3694.56 106.061
3694.64 101.058
3694.70 96.9054
3694.76 92.9629
3694.82 89.1639
3694.88 85.5094
3694.94 81.9430
3695.00 78.5791
3695.06 75.3578
3695.13 72.2773
3695.19 69.2882
3695.25 66.4841
3695.31 63.8125
3695.37 61.2700
3695.43 58.8141
3695.49 56.5200
3695.55 54.3428
3695.62 52.2784
3695.68 50.2910
3695.74 48.4402
3695.80 46.6885
3695.86 45.0315
3695.98 41.9598
3696.11 39.2398
3696.23 36.7927
3696.35 34.6267
3696.47 32.6763
3696.60 30.9464
3696.70 29.6510
3696.80 28.4773
3696.90 27.4009
3697.00 26.4118
3697.10 25.4924
3697.20 24.6527
3697.30 23.8760
3697.40 23.1561
3697.60 21.8578
3697.80 20.7324
3698.00 19.7427
3698.20 18.8652
3698.44 17.9125
3698.69 17.0783
3698.93 16.3385
3699.18 15.6780
3699.42 15.0856
3699.67 14.5528
3699.91 14.0736
3700.16 13.6443
3700.34 13.3613
3700.52 13.1053
3700.69 12.8755
3700.87 12.6728
3701.05 12.4986
3701.14 12.4227
3701.23 12.3546
3701.32 12.2944
3701.41 12.2423
3701.50 12.1986
3701.58 12.1633
3701.69 12.1335
3701.79 12.1149
3701.89 12.1070
3701.99 12.1097
3702.09 12.1229
3702.19 12.1457
3702.29 12.1776
3702.39 12.2178
3702.49 12.2660
3702.59 12.3198
3702.79 12.4407
3702.99 12.5687
3703.19 12.6897
3703.32 12.7596
3703.45 12.8150
3703.59 12.8526
3703.72 12.8682
3703.83 12.8631
3703.93 12.8411
3704.03 12.8041
3704.09 12.7734
3704.14 12.7475
3704.14 12.7450
3704.16 12.7360
3704.17 12.7267
3704.20 12.7070
3704.26 12.6631
3704.37 12.5622
3704.47 12.4535
3704.57 12.3294
3704.64 12.2321
3704.71 12.1279
3704.78 12.0174
3704.86 11.9027
3705.00 11.6570
3705.14 11.3956
3705.27 11.1430
3705.41 10.8855
3705.67 10.3736
3705.81 10.1241
3705.94 9.88371
3706.07 9.65457
3706.20 9.44005
3706.34 9.23810
3706.47 9.05109
3706.60 8.87924
3706.73 8.72349
3706.87 8.58096
3707.00 8.45210
3707.13 8.33595
3707.27 8.23215
3707.37 8.15562
3707.48 8.08588
3707.58 8.02161
3707.69 7.96223
3707.90 7.85561
3708.12 7.76318
3708.33 7.68087
3708.54 7.60693
3708.75 7.53874
3708.97 7.47554
3709.39 7.35925
3709.82 7.25374
3710.24 7.15828
3710.45 7.11511
3710.66 7.07579
3710.86 7.04443
3711.05 7.01841
3711.24 6.99908
3711.43 6.98833
3711.62 6.98852
3711.81 7.00239
3711.91 7.01549
3712.00 7.03302
3712.10 7.05577
3712.19 7.08366
3712.29 7.11768
3712.39 7.15795
3712.48 7.20481
3712.58 7.25796
3712.67 7.31874
3712.77 7.38605
3712.86 7.46137
3712.96 7.54308
3713.05 7.63277
3713.15 7.72827
3713.25 7.83120
3713.34 7.93884
3713.44 8.05276
3713.53 8.16975
3713.72 8.41366
3713.98 8.74289
3714.11 8.90210
3714.23 9.05125
3714.37 9.19404
3714.50 9.31910
3714.63 9.42265
3714.70 9.46559
3714.76 9.50137
3714.86 9.54120
3714.96 9.56569
3715.05 9.57469
3715.11 9.57278
3715.14 9.56917
3715.15 9.56798
3715.17 9.56295
3715.20 9.55655
3715.27 9.53529
3715.38 9.48346
3715.43 9.45139
3715.45 9.44282
3715.50 9.40582
3715.57 9.35274
3715.63 9.29406
3715.68 9.24174
3715.78 9.14199
3715.87 9.03190
3715.96 8.91270
3716.05 8.78711
3716.16 8.63444
3716.26 8.47545
3716.47 8.14668
3716.68 7.81644
3716.79 7.65512
3716.89 7.49829
3717.00 7.34720
3717.10 7.20285
3717.21 7.06605
3717.31 6.93739
3717.42 6.81725
3717.52 6.70583
3717.63 6.60318
3717.73 6.51003
3717.87 6.39384
3718.02 6.29337
3718.16 6.20600
3718.31 6.13158
3718.45 6.06763
3718.60 6.01358
3718.74 5.96758
3718.88 5.92835
3719.03 5.89453
3719.17 5.86554
3719.32 5.84026
3719.46 5.81795
3719.61 5.79786
3719.75 5.77975
3720.04 5.74754
3720.33 5.71879
3720.62 5.69235
3721.19 5.64327
3722.35 5.55399
3723.82 5.45225
3725.28 5.36145
3726.44 5.29686
3727.59 5.23786
3728.75 5.18416
3729.90 5.13569
3731.06 5.09262
3732.21 5.05555
3733.36 5.02561
3733.94 5.01401
3734.52 5.00531
3734.94 5.00129
3735.36 4.99979
3735.78 5.00172
3736.20 5.00880
3736.41 5.01535
3736.62 5.02496
3736.83 5.03895
3737.04 5.05934
3737.25 5.08918
3737.46 5.13300
3737.56 5.16211
3737.67 5.19735
3737.77 5.23998
3737.88 5.29091
3737.98 5.35278
3738.09 5.42709
3738.19 5.51604
3738.30 5.62211
3738.40 5.74808
3738.51 5.89702
3738.61 6.07228
3738.72 6.27744
3738.82 6.51635
3738.87 6.65101
3738.93 6.79298
3738.98 6.94824
3739.03 7.11144
3739.08 7.28938
3739.14 7.47584
3739.19 7.67852
3739.24 7.89023
3739.29 8.11961
3739.35 8.35843
3739.40 8.61633
3739.45 8.88395
3739.50 9.16637
3739.56 9.46391
3739.63 9.92651
3739.71 10.4159
3739.78 10.9454
3739.86 11.5013
3739.93 12.0981
3740.01 12.7196
3740.08 13.3816
3740.16 14.0651
3740.24 14.7869
3740.31 15.5257
3740.46 17.0828
3740.61 18.7107
3740.76 20.3665
3741.05 23.5136
3741.19 24.9947
3741.34 26.3610
3741.48 27.5808
3741.56 28.1168
3741.63 28.6006
3741.71 29.0671
3741.79 29.4618
3741.90 29.8907
3741.97 30.0797
3742.04 30.2037
3742.10 30.2554
3742.15 30.2581
3742.22 30.2154
3742.27 30.1396
3742.34 29.9727
3742.42 29.7213
3742.54 29.1494
3742.63 28.6635
3742.71 28.0996
3742.79 27.5195
3742.87 26.8840
3742.94 26.1987
3743.02 25.4692
3743.17 23.9023
3743.33 22.2324
3743.63 18.7880
3743.76 17.3945
3743.89 16.0437
3744.01 14.7523
3744.14 13.5433
3744.20 12.9915
3744.26 12.4681
3744.32 11.9562
3744.38 11.4731
3744.44 11.0030
3744.49 10.5617
3744.55 10.1343
3744.61 9.73512
3744.67 9.35039
3744.73 8.99272
3744.79 8.64963
3744.85 8.33215
3744.91 8.02901
3744.97 7.74974
3745.03 7.48855
3745.09 7.24478
3745.15 7.01404
3745.21 6.80330
3745.27 6.60466
3745.33 6.42400
3745.39 6.25440
3745.45 6.10076
3745.50 5.95940
3745.56 5.82957
3745.62 5.70864
3745.68 5.59991
3745.74 5.49900
3745.80 5.40860
3745.92 5.25033
3746.04 5.12125
3746.12 5.04646
3746.20 4.98221
3746.28 4.92576
3746.36 4.87749
3746.52 4.79928
3746.68 4.74124
3746.84 4.69834
3747.00 4.66665
3747.17 4.64320
3747.33 4.62582
3747.49 4.61265
3747.65 4.60260
3747.97 4.58867
3748.29 4.57963
3748.61 4.57340
3749.25 4.56567
3749.90 4.56190
3750.54 4.56107
3751.18 4.56278
3751.85 4.56721
3752.53 4.57443
3753.20 4.58469
3753.87 4.59834
3754.54 4.61582
3755.21 4.63772
3755.88 4.66478
3756.55 4.69789
3757.05 4.72751
3757.56 4.76179
3758.06 4.80161
3758.56 4.84774
3759.07 4.90151
3759.57 4.96411
3760.07 5.03742
3760.58 5.12370
3761.19 5.25112
3761.50 5.32601
3761.81 5.40949
3762.12 5.50348
3762.42 5.60905
3762.73 5.72894
3763.04 5.86491
3763.32 6.00595
3763.60 6.16639
3763.88 6.35011
3764.16 6.56138
3764.44 6.80852
3764.72 7.09910
3764.86 7.26557
3765.00 7.44867
3765.14 7.65113
3765.27 7.87458
3765.43 8.15324
3765.58 8.47136
3765.74 8.83785
3765.89 9.26106
3765.97 9.50068
3766.04 9.76091
3766.12 10.0442
3766.20 10.3532
3766.27 10.6910
3766.35 11.0609
3766.43 11.4669
3766.50 11.9070
3766.58 12.3975
3766.66 12.9381
3766.74 13.5344
3766.81 14.1928
3766.89 14.9202
3766.97 15.7240
3767.04 16.6125
3767.12 17.5811
3767.20 18.6646
3767.27 19.8611
3767.35 21.1814
3767.43 22.6371
3767.50 24.2401
3767.58 26.0030
3767.66 27.9391
3767.73 30.0330
3767.79 31.6078
3767.84 33.2494
3767.89 35.0256
3767.94 36.8736
3768.00 38.8689
3768.05 40.9406
3768.10 43.1726
3768.15 45.4847
3768.21 47.9700
3768.26 50.5382
3768.31 53.2919
3768.36 56.1302
3768.42 59.1655
3768.47 62.2856
3768.52 65.5488
3768.57 68.9567
3768.65 74.2715
3768.73 79.9086
3768.80 85.8674
3768.88 92.0609
3768.96 98.6456
3769.03 105.532
3769.11 112.707
3769.19 120.054
3769.33 134.207
3769.47 149.022
3769.75 179.785
3769.90 196.738
3770.05 213.099
3770.21 228.651
3770.36 242.843
3770.50 253.677
3770.63 262.860
3770.70 267.407
3770.78 271.308
3770.88 275.288
3770.98 278.115
3771.07 279.695
3771.16 280.182
3771.17 280.169
3771.20 280.052
3771.23 279.831
3771.29 279.070
3771.41 276.253
3771.51 272.525
3771.61 267.636
3771.71 261.657
3771.81 254.671
3771.91 246.857
3772.01 238.256
3772.10 229.749
3772.19 220.860
3772.37 201.917
3772.76 158.439
3772.89 144.830
3773.02 131.793
3773.14 119.273
3773.21 113.331
3773.27 107.585
3773.37 98.8893
3773.47 90.8236
3773.57 83.3193
3773.62 79.7468
3773.67 76.3887
3773.72 73.1079
3773.77 69.9742
3773.82 66.9867
3773.87 64.1997
3773.92 61.4977
3773.97 58.9869
3774.02 56.5624
3774.06 54.3186
3774.14 51.2123
3774.21 48.4165
3774.28 45.8757
3774.35 43.5782
3774.43 41.4842
3774.50 39.6379
3774.57 37.9957
3774.64 36.5437
3774.72 35.1042
3774.81 33.8870
3774.89 32.8419
3774.97 31.9747
3775.05 31.2448
3775.13 30.6513
3775.21 30.1668
3775.29 29.7742
3775.38 29.4402
3775.47 29.1734
3775.55 28.9570
3775.64 28.7773
3775.74 28.5905
3775.84 28.4131
3775.87 28.3470
3775.97 28.1527
3776.03 28.0239
3776.08 27.9074
3776.13 27.7700
3776.16 27.6779
3776.18 27.6224
3776.24 27.4448
3776.30 27.2566
3776.35 27.0549
3776.46 26.6035
3776.59 25.9275
3776.71 25.2551
3776.83 24.5028
3776.95 23.6042
3777.08 22.6320
3777.21 21.6006
3777.33 20.5345
3777.76 16.8048
3777.87 15.8905
3777.98 15.0109
3778.08 14.1638
3778.19 13.3548
3778.29 12.6159
3778.40 11.9255
3778.45 11.5901
3778.50 11.2721
3778.55 10.9652
3778.60 10.6694
3778.65 10.3792
3778.70 10.1058
3778.76 9.84342
3778.81 9.59193
3778.86 9.35121
3778.91 9.12106
3778.96 8.90130
3779.01 8.69171
3779.06 8.48821
3779.11 8.29837
3779.22 7.94646
3779.32 7.62664
3779.42 7.34254
3779.52 7.08593
3779.63 6.85916
3779.73 6.65702
3779.83 6.47703
3779.90 6.35897
3779.98 6.25188
3780.05 6.15332
3780.12 6.06256
3780.27 5.90072
3780.42 5.76359
3780.56 5.64498
3780.71 5.54294
3780.85 5.45366
3781.00 5.37474
3781.15 5.30379
3781.29 5.24022
3781.59 5.12905
3781.88 5.03345
3782.17 4.94975
3782.60 4.84235
3783.03 4.74909
3783.46 4.66690
3783.89 4.59373
3784.32 4.52807
3784.74 4.46877
3785.60 4.36572
3786.31 4.29367
3787.01 4.23049
3787.71 4.17442
3788.41 4.12420
3789.11 4.07885
3789.82 4.03760
3791.22 3.96501
3792.31 3.91575
3793.40 3.87147
3794.50 3.83117
3795.59 3.79412
3796.68 3.75974
3797.77 3.72753
3799.96 3.66823
3802.30 3.61034
3804.64 3.55657
3806.98 3.50556
3809.32 3.45643
3811.66 3.40835
3814.00 3.36080
3816.34 3.31329
3818.68 3.26543
3821.80 3.20036
3824.92 3.13306
3828.35 3.05535
3831.79 2.97260
3835.22 2.88328
3838.65 2.78569
3841.30 2.70320
3843.96 2.61333
3845.28 2.56520
3846.61 2.51479
3847.93 2.46195
3849.26 2.40683
3849.87 2.38122
3850.47 2.35613
3850.77 2.34439
3851.07 2.33414
3851.23 2.32996
3851.38 2.32674
3851.53 2.32484
3851.68 2.32468
3851.83 2.32689
3851.98 2.33213
3852.13 2.34130
3852.28 2.35546
3852.43 2.37586
3852.59 2.40396
3852.74 2.44138
3852.89 2.48993
3853.04 2.55196
3853.19 2.62861
3853.34 2.72214
3853.49 2.83428
3853.64 2.96644
3853.79 3.11962
3853.95 3.29416
3854.10 3.48968
3854.25 3.71232
3854.41 3.95343
3854.56 4.20927
3854.72 4.47490
3855.03 5.01050
3855.19 5.26587
3855.34 5.50245
3855.42 5.61121
3855.50 5.71233
3855.59 5.81611
3855.68 5.90779
3855.76 5.98626
3855.85 6.04991
3855.93 6.09454
3856.01 6.12694
3856.09 6.14759
3856.14 6.15309
3856.19 6.15322
3856.19 6.15301
3856.21 6.15201
3856.22 6.15059
3856.25 6.14650
3856.31 6.13092
3856.42 6.08516
3856.53 6.01638
3856.64 5.92536
3856.71 5.85233
3856.78 5.77163
3856.85 5.68157
3856.92 5.58529
3857.06 5.37157
3857.21 5.13630
3857.34 4.90705
3857.47 4.66954
3857.73 4.18767
3857.86 3.95143
3857.99 3.72297
3858.12 3.50506
3858.26 3.29990
3858.39 3.10909
3858.52 2.93365
3858.65 2.77408
3858.78 2.63042
3858.91 2.50228
3859.04 2.38900
3859.17 2.28963
3859.30 2.20368
3859.40 2.14762
3859.49 2.09780
3859.59 2.05267
3859.68 2.01270
3859.88 1.94460
3860.07 1.89026
3860.26 1.84607
3860.45 1.80996
3860.64 1.77946
3860.83 1.75328
3860.99 1.73270
3861.16 1.71373
3861.49 1.67893
3861.83 1.64614
3862.16 1.61426
3862.83 1.55046
3863.50 1.48520
3864.16 1.41779
3864.83 1.34791
3865.50 1.27538
3866.16 1.20025
3866.73 1.13359
3867.31 1.06505
3867.88 0.994837
3868.45 0.923424
3869.02 0.851104
3869.59 0.778964
3870.16 0.708015
3870.74 0.640399
3871.12 0.598419
3871.50 0.560289
3871.88 0.527581
3872.26 0.502414
3872.45 0.493500
3872.64 0.487663
3872.83 0.485376
3873.02 0.487290
3873.21 0.494174
3873.40 0.506848
3873.59 0.526526
3873.78 0.554302
3873.93 0.581549
3874.07 0.615131
3874.21 0.655999
3874.36 0.705281
3874.52 0.775297
3874.69 0.861239
3874.86 0.966348
3874.94 1.02770
3875.02 1.09468
3875.15 1.21487
3875.29 1.35550
3875.42 1.52019
3875.48 1.61364
3875.55 1.71335
3875.61 1.82307
3875.68 1.94025
3875.74 2.06931
3875.81 2.20725
3875.88 2.35932
3875.94 2.52199
3876.01 2.69864
3876.07 2.89054
3876.14 3.10242
3876.20 3.32939
3876.27 3.58014
3876.33 3.84888
3876.40 4.14588
3876.46 4.46427
3876.53 4.81620
3876.59 5.19347
3876.66 5.61044
3876.73 6.05732
3876.79 6.55102
3876.86 7.07985
3876.92 7.66368
3876.99 8.28855
3877.05 8.97771
3877.12 9.71447
3877.17 10.2981
3877.21 10.9173
3877.26 11.5740
3877.31 12.2553
3877.36 12.9921
3877.40 13.7557
3877.45 14.5807
3877.50 15.4348
3877.55 16.3564
3877.60 17.3303
3877.64 18.3587
3877.69 19.4207
3877.74 20.5638
3877.79 21.7426
3877.83 23.0097
3877.88 24.3145
3877.95 26.2582
3878.01 28.3047
3878.08 30.5230
3878.14 32.8514
3878.21 35.3669
3878.27 37.9983
3878.34 40.8310
3878.40 43.7836
3878.47 46.9503
3878.54 50.2383
3878.60 53.7511
3878.67 57.3837
3878.73 61.2486
3878.80 65.2285
3878.86 69.4445
3878.93 73.7666
3878.99 78.3245
3879.06 82.9752
3879.19 92.8123
3879.32 103.216
3879.45 114.101
3879.58 124.842
3879.70 135.818
3879.95 157.966
3880.00 162.174
3880.13 173.458
3880.26 184.219
3880.39 194.514
3880.52 203.919
3880.61 209.317
3880.69 214.290
3880.77 218.802
3880.85 222.772
3880.94 226.465
3881.02 229.506
3881.11 231.939
3881.20 233.692
3881.23 234.216
3881.35 235.156
3881.46 234.945
3881.57 233.597
3881.68 231.172
3881.79 227.991
3881.89 224.010
3881.99 219.212
3882.10 213.757
3882.20 207.554
3882.31 200.784
3882.41 193.538
3882.52 185.977
3882.73 169.907
3882.94 153.331
3883.12 139.038
3883.30 125.251
3883.39 118.568
3883.48 112.089
3883.57 105.839
3883.66 99.8988
3883.77 93.2925
3883.87 87.0491
3883.98 81.1777
3884.08 75.6816
3884.19 70.5588
3884.29 65.8029
3884.35 63.5385
3884.40 61.4037
3884.45 59.3530
3884.50 57.3847
3884.56 55.2841
3884.62 53.3144
3884.67 51.4355
3884.73 49.6447
3884.79 47.9095
3884.85 46.2867
3884.90 44.7425
3884.96 43.2737
3885.02 41.8534
3885.07 40.5273
3885.19 38.0702
3885.30 35.8531
3885.42 33.8531
3885.52 32.1844
3885.63 30.6657
3885.73 29.2822
3885.84 28.0205
3885.94 26.8680
3886.05 25.8136
3886.15 24.8471
3886.26 23.9591
3886.36 23.1416
3886.47 22.3871
3886.57 21.6891
3886.68 21.0417
3886.89 19.8790
3887.10 18.8645
3887.31 17.9711
3887.52 17.1778
3887.73 16.4680
3887.94 15.8288
3888.15 15.2495
3888.36 14.7219
3888.57 14.2391
3888.78 13.7974
3889.12 13.1429
3889.46 12.5662
3889.81 12.0511
3890.15 11.5908
3890.49 11.1745
3890.84 10.7983
3891.18 10.4557
3891.52 10.1424
3891.94 9.79328
3892.36 9.47723
3892.78 9.18972
3893.20 8.92704
3893.62 8.68610
3894.04 8.46428
3894.88 8.06997
3895.45 7.83230
3896.03 7.61657
3896.60 7.41917
3897.17 7.23840
3898.32 6.91770
3899.46 6.64204
3900.30 6.46275
3901.14 6.30006
3902.82 6.01493
3904.50 5.77268
3906.18 5.56342
3908.31 5.33374
3910.45 5.13557
3912.59 4.96128
3914.72 4.80505
3917.17 4.64340
3919.61 4.49531
3922.05 4.35682
3924.49 4.22465
3927.55 4.06387
3930.60 3.90288
3932.13 3.82049
3933.65 3.73587
3935.18 3.64795
3936.71 3.55572
3938.39 3.44757
3940.06 3.33052
3941.74 3.20182
3942.58 3.13201
3943.42 3.05797
3944.64 2.94126
3945.86 2.81183
3946.48 2.74142
3947.09 2.66680
3947.70 2.58725
3948.31 2.50249
3949.15 2.37601
3949.57 2.30807
3949.99 2.23674
3950.41 2.16182
3950.83 2.08315
3951.25 2.00063
3951.67 1.91447
3952.09 1.82446
3952.51 1.73136
3952.93 1.63642
3953.14 1.58899
3953.34 1.54246
3953.55 1.49719
3953.76 1.45454
3953.97 1.41625
3954.18 1.38498
3954.39 1.36421
3954.60 1.35970
3954.71 1.36599
3954.81 1.37970
3954.92 1.40245
3955.02 1.43582
3955.13 1.48274
3955.23 1.54571
3955.34 1.62799
3955.44 1.73340
3955.55 1.86643
3955.65 2.03228
3955.71 2.13033
3955.76 2.23696
3955.81 2.35716
3955.86 2.48735
3955.92 2.63354
3955.97 2.79129
3956.02 2.96781
3956.07 3.15764
3956.13 3.36936
3956.18 3.59631
3956.23 3.84866
3956.28 4.11833
3956.34 4.41728
3956.39 4.73581
3956.44 5.08789
3956.49 5.46196
3956.55 5.87424
3956.60 6.31102
3956.65 6.79104
3956.70 7.29815
3956.75 7.77817
3956.79 8.27768
3956.84 8.80811
3956.88 9.37077
3956.93 9.98066
3956.97 10.6126
3957.02 11.2808
3957.06 11.9867
3957.10 12.6130
3957.15 13.3562
3957.19 14.1370
3957.23 14.9567
3957.27 15.8161
3957.33 16.9318
3957.38 18.0886
3957.43 19.3327
3957.48 20.6186
3957.54 21.9974
3957.59 23.4181
3957.64 24.9366
3957.69 26.4964
3957.78 29.0656
3957.86 31.8059
3957.94 34.7172
3958.02 37.7977
3958.10 41.0440
3958.18 44.4506
3958.26 48.0104
3958.34 51.7139
3958.45 56.7096
3958.55 61.8970
3958.66 67.2401
3958.76 72.6968
3958.92 80.7531
3959.07 88.7867
3959.17 94.1946
3959.28 99.3979
3959.38 104.436
3959.49 109.196
3959.59 113.618
3959.70 117.647
3959.80 121.229
3959.91 124.292
3960.03 127.152
3960.14 129.266
3960.22 130.252
3960.26 130.628
3960.39 131.236
3960.52 130.935
3960.62 130.090
3960.72 128.727
3960.81 126.891
3960.91 124.624
3961.03 121.371
3961.14 117.623
3961.24 114.068
3961.34 110.229
3961.53 101.928
3961.73 93.0068
3961.92 83.8643
3962.08 76.8744
3962.23 70.0712
3962.30 66.7517
3962.38 63.5595
3962.45 60.4190
3962.53 57.4209
3962.63 53.6656
3962.72 50.1041
3962.82 46.7442
3962.92 43.6211
3962.97 42.1206
3963.02 40.6718
3963.07 39.2745
3963.12 37.9282
3963.16 36.6324
3963.21 35.3865
3963.26 34.1896
3963.31 33.0639
3963.36 31.9615
3963.41 30.9054
3963.46 29.8943
3963.51 28.9271
3963.56 28.0027
3963.60 27.1196
3963.70 25.4726
3963.80 23.9754
3963.90 22.6173
3964.00 21.3873
3964.09 20.2857
3964.19 19.2796
3964.29 18.3710
3964.39 17.5508
3964.48 16.8173
3964.58 16.1474
3964.68 15.5415
3964.78 14.9928
3964.88 14.4999
3964.97 14.0470
3965.07 13.6344
3965.17 13.2576
3965.27 12.9159
3965.46 12.3065
3965.66 11.7888
3965.85 11.3390
3966.05 10.9458
3966.25 10.5983
3966.44 10.2897
3966.64 10.0104
3966.83 9.75844
3967.03 9.52726
3967.22 9.31619
3967.53 9.02004
3967.83 8.75727
3968.13 8.52146
3968.43 8.30843
3968.73 8.11429
3969.04 7.93762
3969.64 7.62638
3970.03 7.44937
3970.42 7.28909
3971.21 7.00884
3971.99 6.77140
3972.77 6.56788
3973.70 6.36123
3974.62 6.18400
3975.54 6.02978
3976.47 5.89443
3977.25 5.79182
3978.03 5.69870
3979.60 5.53560
3981.16 5.39702
3982.73 5.27763
3984.58 5.15567
3986.43 5.05021
3988.27 4.95781
3990.12 4.87582
3993.25 4.75564
3996.38 4.65359
3999.51 4.56523
4002.64 4.48747
4007.48 4.38324
4012.31 4.29365
4017.15 4.21479
4021.99 4.14426
4027.68 4.06951
4033.36 4.00172
4039.05 3.93934
4044.74 3.88127
4051.00 3.82136
4057.26 3.76482
4063.52 3.71102
4069.78 3.65960
4075.47 3.61483
4078.31 3.59323
4081.16 3.57228
4084.00 3.55219
4086.85 3.53331
4088.27 3.52452
4089.69 3.51631
4091.11 3.50887
4092.54 3.50255
4093.67 3.49862
4094.81 3.49606
4095.95 3.49542
4097.09 3.49761
4097.80 3.50107
4098.51 3.50689
4099.22 3.51617
4099.58 3.52275
4099.93 3.53128
4100.29 3.54288
4100.64 3.55965
4100.82 3.57117
4101.00 3.58585
4101.18 3.60485
4101.36 3.62962
4101.53 3.66260
4101.71 3.70652
4101.89 3.76509
4102.07 3.84248
4102.16 3.89037
4102.24 3.94534
4102.33 4.00832
4102.42 4.08028
4102.51 4.16228
4102.60 4.25546
4102.69 4.36099
4102.78 4.47872
4102.90 4.67125
4102.96 4.77876
4103.03 4.89483
4103.09 5.02202
4103.15 5.15671
4103.21 5.30130
4103.28 5.45618
4103.34 5.62452
4103.40 5.80134
4103.46 5.98957
4103.52 6.18952
4103.59 6.40495
4103.65 6.62924
4103.71 6.86589
4103.77 7.11499
4103.84 7.38090
4103.90 7.65515
4103.96 7.94175
4104.02 8.24051
4104.09 8.55628
4104.15 8.87865
4104.27 9.55609
4104.40 10.2789
4104.52 11.0292
4104.65 11.8112
4104.77 12.6028
4105.11 14.7529
4105.28 15.7650
4105.45 16.6911
4105.53 17.1143
4105.61 17.4995
4105.70 17.8485
4105.78 18.1584
4105.88 18.4554
4105.97 18.6948
4106.07 18.8844
4106.14 18.9834
4106.19 19.0320
4106.25 19.0700
4106.26 19.0755
4106.27 19.0768
4106.28 19.0798
4106.29 19.0819
4106.31 19.0832
4106.37 19.0717
4106.42 19.0429
4106.50 18.9659
4106.62 18.7764
4106.73 18.5526
4106.83 18.2822
4106.94 17.9688
4107.04 17.6283
4107.24 16.9014
4107.32 16.6330
4107.44 16.2179
4107.57 15.8491
4107.69 15.5457
4107.81 15.3304
4107.87 15.2618
4107.93 15.2248
4107.99 15.2207
4108.05 15.2520
4108.12 15.3210
4108.18 15.4302
4108.24 15.5816
4108.30 15.7773
4108.37 16.0859
4108.45 16.4637
4108.52 16.9171
4108.60 17.4481
4108.68 18.0670
4108.75 18.7586
4108.83 19.5311
4108.90 20.3841
4108.98 21.3298
4109.05 22.3419
4109.13 23.4298
4109.20 24.5906
4109.28 25.8375
4109.35 27.1329
4109.43 28.4877
4109.50 29.8958
4109.66 33.0460
4109.82 36.3319
4110.14 42.9508
4110.33 46.6095
4110.42 48.3080
4110.52 49.8920
4110.62 51.4874
4110.73 52.8818
4110.80 53.7685
4110.88 54.5383
4110.98 55.4076
4111.08 56.0070
4111.16 56.2880
4111.25 56.4427
4111.27 56.4492
4111.31 56.4273
4111.36 56.3550
4111.43 56.1505
4111.49 55.8490
4111.57 55.3603
4111.70 54.2126
4111.78 53.3614
4111.85 52.4012
4111.98 50.5045
4112.11 48.3245
4112.23 46.2364
4112.34 44.0240
4112.56 39.2847
4112.96 30.5463
4113.07 28.4220
4113.17 26.3810
4113.27 24.3959
4113.37 22.5172
4113.47 20.7162
4113.57 19.0352
4113.67 17.4454
4113.72 16.6994
4113.77 15.9808
4113.82 15.2761
4113.87 14.6129
4113.92 13.9770
4113.97 13.3681
4114.02 12.7746
4114.07 12.2194
4114.12 11.6900
4114.17 11.1860
4114.22 10.6975
4114.27 10.2431
4114.32 9.81215
4114.37 9.40408
4114.42 9.01066
4114.47 8.64655
4114.52 8.30306
4114.57 7.97942
4114.62 7.66895
4114.67 7.38301
4114.72 7.11455
4114.77 6.86277
4114.82 6.62690
4114.87 6.40617
4114.97 6.00710
4115.03 5.80312
4115.09 5.61804
4115.14 5.44719
4115.20 5.28964
4115.31 5.00864
4115.42 4.77333
4115.54 4.57337
4115.65 4.40686
4115.76 4.26711
4115.87 4.14995
4115.99 4.05093
4116.10 3.96865
4116.21 3.89893
4116.32 3.84072
4116.44 3.79105
4116.55 3.74920
4116.77 3.68253
4117.00 3.63209
4117.22 3.59284
4117.45 3.56127
4117.67 3.53518
4118.12 3.49349
4118.57 3.46095
4118.91 3.44019
4119.25 3.42206
4119.94 3.39166
4120.63 3.36689
4121.31 3.34611
4122.00 3.32821
4122.68 3.31250
4123.37 3.29845
4124.05 3.28572
4125.43 3.26306
4126.80 3.24308
4128.17 3.22493
4129.54 3.20808
4131.43 3.18628
4133.32 3.16564
4135.21 3.14568
4137.11 3.12615
4140.89 3.08779
4144.67 3.04961
4148.46 3.01104
4152.24 2.97169
4156.02 2.93122
4159.80 2.88938
4165.86 2.81874
4170.02 2.76694
4174.18 2.71196
4178.34 2.65318
4182.50 2.58989
4186.67 2.52118
4190.83 2.44603
4192.91 2.40565
4194.99 2.36321
4197.07 2.31867
4198.11 2.29568
4199.15 2.27229
4199.91 2.25512
4200.66 2.23799
4201.42 2.22123
4201.80 2.21329
4202.18 2.20601
4202.56 2.20017
4202.75 2.19825
4202.93 2.19744
4203.12 2.19822
4203.31 2.20130
4203.50 2.20766
4203.69 2.21860
4203.79 2.22635
4203.88 2.23596
4203.98 2.24773
4204.07 2.26183
4204.16 2.27892
4204.26 2.29906
4204.35 2.32313
4204.45 2.35110
4204.54 2.38408
4204.64 2.42195
4204.73 2.46610
4204.83 2.51621
4204.92 2.57398
4205.01 2.63884
4205.11 2.71282
4205.20 2.79499
4205.30 2.88771
4205.39 2.99074
4205.49 3.10460
4205.58 3.22835
4205.68 3.36499
4205.77 3.51187
4205.87 3.67222
4205.96 3.84263
4206.06 4.02652
4206.15 4.21964
4206.24 4.42552
4206.34 4.63905
4206.43 4.86377
4206.53 5.09378
4206.72 5.57341
4206.93 6.12667
4207.14 6.67061
4207.25 6.93207
4207.36 7.17876
4207.46 7.41186
4207.57 7.62372
4207.66 7.78464
4207.75 7.92825
4207.84 8.05296
4207.92 8.15636
4208.01 8.23467
4208.09 8.29296
4208.18 8.33409
4208.24 8.34870
4208.29 8.35237
4208.30 8.35223
4208.30 8.35213
4208.31 8.35180
4208.31 8.35139
4208.33 8.35014
4208.35 8.34611
4208.40 8.33403
4208.48 8.29970
4208.60 8.20710
4208.67 8.13815
4208.74 8.05794
4208.87 7.86298
4208.96 7.70994
4209.05 7.54194
4209.13 7.35907
4209.22 7.16310
4209.40 6.73698
4209.58 6.28390
4209.83 5.61448
4209.95 5.28198
4210.08 4.95702
4210.21 4.64344
4210.33 4.34442
4210.46 4.06251
4210.58 3.79956
4210.71 3.55682
4210.84 3.33493
4210.96 3.13402
4211.09 2.95374
4211.21 2.79337
4211.34 2.65189
4211.47 2.52806
4211.59 2.42047
4211.68 2.35060
4211.78 2.28878
4211.87 2.23308
4211.96 2.18409
4212.05 2.14018
4212.15 2.10173
4212.33 2.03744
4212.52 1.98741
4212.70 1.94844
4212.89 1.91785
4213.07 1.89362
4213.26 1.87382
4213.44 1.85730
4213.63 1.84312
4213.81 1.83056
4214.00 1.81912
4214.18 1.80844
4214.55 1.78851
4214.92 1.76945
4215.29 1.75075
4216.03 1.71355
4216.77 1.67585
4217.51 1.63724
4218.99 1.55624
4220.46 1.46907
4221.94 1.37450
4223.42 1.27147
4224.16 1.21630
4224.90 1.15864
4225.64 1.09820
4226.38 1.03501
4227.12 0.968815
4227.86 0.899770
4228.60 0.827833
4229.34 0.753188
4230.01 0.683188
4230.68 0.611925
4231.35 0.540195
4232.03 0.469454
4232.70 0.402036
4233.03 0.370673
4233.37 0.341713
4233.71 0.316012
4234.04 0.294678
4234.38 0.279159
4234.71 0.271360
4235.00 0.272687
4235.29 0.283510
4235.43 0.293302
4235.57 0.306553
4235.71 0.323749
4235.86 0.345457
4236.06 0.384898
4236.18 0.413714
4236.29 0.447078
4236.47 0.508040
4236.65 0.583517
4236.82 0.677655
4236.91 0.732519
4237.00 0.793534
4237.09 0.865474
4237.18 0.945078
4237.28 1.03513
4237.37 1.13487
4237.46 1.24784
4237.55 1.37313
4237.65 1.51363
4237.74 1.67128
4237.83 1.85035
4237.92 2.04954
4238.02 2.27608
4238.11 2.52836
4238.20 2.81557
4238.29 3.13562
4238.34 3.31045
4238.39 3.49597
4238.43 3.69282
4238.48 3.90169
4238.54 4.18834
4238.60 4.49756
4238.65 4.83107
4238.71 5.19069
4238.77 5.57835
4238.83 5.99612
4238.89 6.44615
4238.95 6.92222
4239.01 7.44311
4239.07 8.00344
4239.13 8.60584
4239.18 9.25308
4239.24 9.94802
4239.30 10.6937
4239.36 11.4931
4239.42 12.3345
4239.47 13.0588
4239.51 13.8064
4239.56 14.5938
4239.60 15.4227
4239.65 16.3142
4239.70 17.2321
4239.74 18.1966
4239.79 19.2093
4239.84 20.2957
4239.88 21.4113
4239.93 22.5802
4239.97 23.8042
4240.02 25.1135
4240.07 26.4538
4240.11 27.8541
4240.16 29.3159
4240.21 30.8745
4240.25 32.4651
4240.30 34.1213
4240.34 35.8445
4240.44 39.4963
4240.53 43.4284
4240.62 47.6942
4240.71 52.2057
4240.81 57.0081
4240.90 62.0995
4241.01 68.5590
4241.12 75.3448
4241.23 82.5587
4241.34 90.0389
4241.52 103.305
4241.70 117.165
4241.89 131.475
4242.07 145.649
4242.26 159.367
4242.44 172.141
4242.54 178.137
4242.63 183.695
4242.72 188.835
4242.81 193.511
4242.91 198.022
4243.01 201.854
4243.11 205.018
4243.21 207.483
4243.33 209.449
4243.34 209.652
4243.40 210.181
4243.46 210.454
4243.57 210.235
4243.69 209.007
4243.81 206.822
4243.96 202.429
4244.11 196.550
4244.27 189.437
4244.42 181.217
4244.54 174.270
4244.65 166.894
4244.89 151.259
4245.19 130.331
4245.34 120.039
4245.49 110.046
4245.64 100.413
4245.72 95.7891
4245.80 91.3069
4245.87 86.9745
4245.95 82.7985
4246.02 78.7836
4246.10 74.9831
4246.16 71.7730
4246.23 68.7351
4246.30 65.7759
4246.36 62.9845
4246.43 60.2737
4246.49 57.7241
4246.56 55.2917
4246.62 52.9739
4246.69 50.7350
4246.75 48.6398
4246.82 46.6204
4246.88 44.7344
4246.95 42.9202
4247.01 41.2289
4247.08 39.6284
4247.14 38.1150
4247.22 36.4505
4247.30 34.8936
4247.37 33.4380
4247.45 32.0778
4247.52 30.8070
4247.60 29.6201
4247.68 28.5116
4247.75 27.4892
4247.83 26.5210
4247.90 25.6161
4247.98 24.7700
4248.05 23.9886
4248.21 22.5522
4248.36 21.2973
4248.45 20.6205
4248.54 19.9977
4248.72 18.8689
4248.89 17.8819
4249.07 17.0128
4249.25 16.2421
4249.43 15.5539
4249.61 14.9353
4249.79 14.3760
4249.94 13.9412
4250.09 13.5412
4250.40 12.8205
4250.70 12.1910
4251.00 11.6357
4251.30 11.1417
4251.61 10.6992
4251.91 10.3003
4252.21 9.93875
4252.52 9.60952
4252.82 9.30842
4253.12 9.03196
4253.43 8.77723
4254.03 8.32340
4254.64 7.93112
4255.22 7.60294
4255.79 7.31278
4256.37 7.05348
4256.95 6.82109
4257.53 6.61090
4258.11 6.42049
4258.69 6.24659
4259.27 6.08765
4259.87 5.93477
4260.48 5.79425
4261.69 5.54462
4262.90 5.32946
4264.11 5.14193
4265.22 4.99100
4266.32 4.85552
4267.42 4.73303
4268.52 4.62175
4270.72 4.42644
4272.93 4.26032
4275.13 4.11656
4277.34 3.99048
4279.54 3.87856
4281.74 3.77823
4284.17 3.67888
4286.59 3.58936
4287.80 3.54794
4289.01 3.50871
4290.23 3.47178
4291.44 3.43752
4292.16 3.41884
4292.87 3.40181
4293.59 3.38733
4293.95 3.38178
4294.30 3.37840
4294.48 3.37804
4294.66 3.37905
4294.84 3.38194
4295.02 3.38749
4295.20 3.39673
4295.38 3.41108
4295.56 3.43244
4295.74 3.46328
4295.92 3.50681
4296.09 3.56703
4296.18 3.60513
4296.27 3.64886
4296.36 3.69997
4296.45 3.75815
4296.54 3.82559
4296.63 3.90172
4296.72 3.98922
4296.81 4.08718
4296.90 4.19883
4296.99 4.32277
4297.08 4.46283
4297.17 4.61697
4297.28 4.83250
4297.39 5.07325
4297.50 5.34264
4297.61 5.64198
4297.72 5.97540
4297.83 6.33748
4297.94 6.73114
4298.05 7.15591
4298.16 7.61497
4298.27 8.09824
4298.38 8.60724
4298.49 9.13870
4298.60 9.68866
4298.71 10.2524
4298.93 11.3990
4299.10 12.2913
4299.28 13.1410
4299.45 13.9251
4299.53 14.2838
4299.62 14.6158
4299.70 14.8844
4299.77 15.1247
4299.85 15.3412
4299.92 15.5264
4300.00 15.6840
4300.07 15.8099
4300.16 15.9091
4300.22 15.9607
4300.27 15.9812
4300.32 15.9900
4300.33 15.9900
4300.34 15.9893
4300.35 15.9878
4300.37 15.9826
4300.44 15.9521
4300.50 15.8974
4300.60 15.7661
4300.67 15.6279
4300.75 15.4584
4300.83 15.2590
4300.90 15.0310
4300.98 14.7764
4301.05 14.4971
4301.14 14.1703
4301.22 13.8199
4301.38 13.0647
4301.55 12.2464
4301.71 11.3989
4301.92 10.2887
4302.13 9.20951
4302.24 8.68645
4302.34 8.18776
4302.45 7.71146
4302.55 7.25998
4302.66 6.83121
4302.76 6.43450
4302.87 6.06637
4302.97 5.72702
4303.08 5.41621
4303.18 5.13331
4303.29 4.87740
4303.39 4.64725
4303.47 4.48454
4303.56 4.33596
4303.64 4.20072
4303.72 4.07804
4303.80 3.96709
4303.88 3.86705
4303.97 3.77711
4304.05 3.69741
4304.13 3.62522
4304.21 3.56083
4304.37 3.45323
4304.54 3.36811
4304.70 3.30201
4304.86 3.25025
4305.03 3.21003
4305.19 3.17871
4305.36 3.15428
4305.52 3.13480
4305.68 3.11921
4305.85 3.10634
4306.01 3.09561
4306.34 3.07821
4306.66 3.06425
4306.99 3.05221
4307.32 3.04130
4307.97 3.02147
4308.63 3.00330
4309.61 2.97792
4310.59 2.95400
4311.57 2.93107
4312.55 2.90889
4314.52 2.86606
4316.48 2.82476
4318.45 2.78457
4320.41 2.74522
4324.33 2.66832
4326.58 2.62526
4328.82 2.58274
4331.07 2.54076
4333.31 2.49935
4335.55 2.45879
4336.68 2.43902
4337.80 2.41980
4338.92 2.40141
4340.04 2.38445
4340.60 2.37687
4341.16 2.37028
4341.72 2.36542
4342.00 2.36415
4342.28 2.36427
4342.47 2.36555
4342.66 2.36825
4342.85 2.37299
4343.03 2.38061
4343.22 2.39232
4343.41 2.40976
4343.59 2.43515
4343.78 2.47140
4343.97 2.52229
4344.15 2.59255
4344.25 2.63696
4344.34 2.68797
4344.44 2.74757
4344.53 2.81545
4344.62 2.89410
4344.72 2.98291
4344.81 3.08492
4344.90 3.19912
4345.00 3.32913
4345.09 3.47337
4345.18 3.63608
4345.28 3.81493
4345.38 4.04176
4345.49 4.29188
4345.59 4.56844
4345.70 4.87232
4345.80 5.20735
4345.91 5.56739
4346.01 5.95520
4346.12 6.37004
4346.22 6.81495
4346.33 7.27968
4346.43 7.76588
4346.54 8.27054
4346.75 9.32020
4346.96 10.3932
4347.12 11.2198
4347.29 12.0117
4347.45 12.7454
4347.53 13.0831
4347.61 13.3938
4347.69 13.6624
4347.77 13.9068
4347.84 14.1252
4347.92 14.3157
4348.00 14.4884
4348.08 14.6241
4348.17 14.7353
4348.24 14.7842
4348.30 14.8089
4348.34 14.8121
4348.39 14.8051
4348.44 14.7820
4348.49 14.7446
4348.58 14.6399
4348.66 14.5181
4348.74 14.3654
4348.81 14.1933
4348.88 13.9985
4349.02 13.5364
4349.17 12.9546
4349.32 12.3004
4349.48 11.5882
4349.63 10.8365
4350.00 8.93944
4350.18 8.01778
4350.27 7.57212
4350.37 7.14610
4350.46 6.73247
4350.55 6.34173
4350.64 5.96667
4350.74 5.61629
4350.83 5.28359
4350.92 4.97602
4351.01 4.68696
4351.11 4.42239
4351.17 4.24028
4351.24 4.07177
4351.31 3.91155
4351.38 3.76402
4351.44 3.62442
4351.51 3.49648
4351.58 3.37768
4351.65 3.26761
4351.71 3.16440
4351.78 3.07064
4351.91 2.90502
4352.05 2.76479
4352.18 2.64868
4352.32 2.55176
4352.45 2.47254
4352.59 2.40715
4352.72 2.35421
4352.86 2.31081
4352.99 2.27583
4353.13 2.24719
4353.26 2.22404
4353.39 2.20495
4353.53 2.18935
4353.66 2.17627
4353.80 2.16535
4354.07 2.14789
4354.34 2.13437
4354.60 2.12324
4354.87 2.11358
4355.41 2.09673
4356.19 2.07544
4356.96 2.05592
4357.73 2.03741
4358.51 2.01958
4360.05 1.98503
4361.60 1.95125
4363.15 1.91780
4364.69 1.88445
4367.79 1.81746
4370.75 1.75258
4373.71 1.68660
4376.67 1.61933
4379.63 1.55066
4382.59 1.48045
4385.55 1.40864
4388.51 1.33519
4391.47 1.26015
4393.89 1.19754
4396.31 1.13396
4398.73 1.06954
4401.15 1.00453
4403.58 0.939297
4406.00 0.874590
4407.21 0.842815
4408.42 0.811863
4409.63 0.782332
4410.23 0.768461
4410.84 0.755646
4411.41 0.745509
4411.70 0.741936
4411.98 0.740248
4412.27 0.741695
4412.56 0.748294
4412.70 0.754445
4412.84 0.763159
4412.98 0.775055
4413.13 0.790741
4413.27 0.811286
4413.41 0.837564
4413.56 0.870667
4413.70 0.911794
4413.84 0.962232
4413.98 1.02333
4414.13 1.09645
4414.27 1.18292
4414.41 1.28398
4414.56 1.40070
4414.70 1.53389
4414.84 1.68404
4414.99 1.85119
4415.13 2.03490
4415.27 2.23415
4415.41 2.44575
4415.57 2.69776
4415.73 2.96010
4416.05 3.49258
4416.21 3.75178
4416.37 3.99646
4416.53 4.21947
4416.61 4.32068
4416.69 4.41280
4416.78 4.50637
4416.87 4.58733
4416.96 4.65596
4417.04 4.71154
4417.12 4.74858
4417.20 4.77514
4417.28 4.79156
4417.33 4.79583
4417.36 4.79593
4417.36 4.79582
4417.38 4.79526
4417.39 4.79445
4417.41 4.79203
4417.46 4.78329
4417.55 4.75759
4417.63 4.72256
4417.70 4.67732
4417.81 4.60008
4417.91 4.50631
4418.01 4.39551
4418.12 4.27134
4418.22 4.13308
4418.32 3.98520
4418.39 3.88098
4418.53 3.66435
4418.81 3.20488
4419.08 2.74379
4419.22 2.52231
4419.36 2.31112
4419.50 2.11272
4419.63 1.93033
4419.77 1.76273
4419.91 1.61226
4420.00 1.51892
4420.10 1.43405
4420.19 1.35766
4420.29 1.29041
4420.38 1.23082
4420.48 1.17958
4420.57 1.13665
4420.67 1.10233
4420.76 1.07590
4420.86 1.05786
4420.95 1.04837
4421.05 1.04767
4421.14 1.05613
4421.24 1.07435
4421.33 1.10301
4421.43 1.14253
4421.52 1.19481
4421.62 1.26079
4421.71 1.34203
4421.80 1.43920
4421.90 1.55642
4421.99 1.69513
4422.09 1.85797
4422.18 2.04577
4422.28 2.26578
4422.37 2.51971
4422.47 2.81143
4422.56 3.14135
4422.66 3.52084
4422.75 3.95121
4422.85 4.43722
4422.94 4.97767
4423.03 5.56178
4423.12 6.20265
4423.21 6.91861
4423.30 7.69781
4423.35 8.12453
4423.39 8.56117
4423.44 9.01719
4423.48 9.49293
4423.53 9.99995
4423.58 10.5165
4423.67 11.6116
4423.76 12.8039
4423.85 14.0679
4423.94 15.4315
4424.03 16.8633
4424.12 18.3927
4424.21 19.9828
4424.30 21.6451
4424.39 23.3736
4424.48 25.2621
4424.58 27.2064
4424.77 31.1928
4425.15 39.2339
4425.34 43.0398
4425.43 44.8196
4425.53 46.4927
4425.65 48.5619
4425.78 50.3597
4425.87 51.4440
4425.96 52.3537
4426.06 53.1279
4426.15 53.7020
4426.25 54.0664
4426.34 54.2248
4426.37 54.2305
4426.44 54.1672
4426.52 53.9465
4426.59 53.6393
4426.67 53.1822
4426.80 52.0761
4426.88 51.2048
4426.96 50.2142
4427.10 48.2534
4427.24 46.0065
4427.35 43.9641
4427.46 41.7833
4427.69 37.1520
4428.09 28.5914
4428.19 26.4894
4428.29 24.4620
4428.39 22.5007
4428.49 20.6165
4428.59 18.8008
4428.69 17.0966
4428.79 15.4752
4428.89 13.9720
4428.94 13.2451
4428.99 12.5587
4429.04 11.8982
4429.09 11.2636
4429.14 10.6546
4429.19 10.0710
4429.24 9.51257
4429.29 8.97881
4429.34 8.45938
4429.39 7.97417
4429.44 7.51222
4429.49 7.07295
4429.54 6.65577
4429.59 6.26003
4429.64 5.88509
4429.69 5.53027
4429.74 5.18835
4429.79 4.87203
4429.84 4.57369
4429.89 4.29263
4429.99 3.77944
4430.09 3.32675
4430.15 3.09365
4430.21 2.88105
4430.32 2.49776
4430.43 2.16958
4430.55 1.88969
4430.66 1.65182
4430.77 1.45027
4430.88 1.27990
4431.00 1.13732
4431.11 1.01598
4431.22 0.913735
4431.34 0.827531
4431.45 0.755334
4431.56 0.693628
4431.67 0.641214
4431.90 0.558444
4432.12 0.496457
4432.35 0.448924
4432.58 0.411300
4432.80 0.380701
4433.25 0.332761
4433.70 0.296070
4434.05 0.272581
4434.41 0.252360
4435.11 0.219327
4435.81 0.193779
4436.51 0.174002
4437.21 0.158929
4437.91 0.148007
4438.62 0.140919
4439.32 0.137519
4439.72 0.137209
4440.27 0.138746
4440.82 0.142584
4441.37 0.148807
4441.93 0.157488
4442.48 0.168775
4443.03 0.182771
4443.58 0.199655
4444.13 0.219613
4444.68 0.242898
4445.23 0.269658
4445.79 0.300247
4446.34 0.334838
4446.89 0.373872
4447.44 0.417552
4447.99 0.466418
4448.54 0.520710
4449.09 0.581086
4449.37 0.613678
4449.65 0.647835
4449.92 0.683877
4450.20 0.721758
4450.47 0.761558
4450.75 0.803203
4451.02 0.847084
4451.30 0.893146
4451.58 0.941484
4451.85 0.992011
4452.13 1.04520
4452.40 1.10099
4452.68 1.15949
4452.95 1.22061
4453.23 1.28491
4453.51 1.35232
4453.78 1.42299
4454.06 1.49679
4454.33 1.57442
4454.61 1.65580
4454.89 1.74110
4455.16 1.83019
4455.44 1.92391
4455.71 2.02216
4455.99 2.12517
4456.26 2.23278
4456.54 2.34602
4456.82 2.46479
4457.09 2.58937
4457.37 2.71957
4457.64 2.85668
4457.92 3.00056
4458.19 3.15158
4458.47 3.30955
4458.75 3.47602
4459.02 3.65087
4459.30 3.83458
4459.57 4.02691
4459.85 4.22982
4460.12 4.44317
4460.40 4.66759
4460.68 4.90284
4460.95 5.15134
4461.23 5.41300
4461.50 5.68861
4461.78 5.97796
4462.05 6.28408
4462.33 6.60693
4462.61 6.94758
4462.88 7.30584
4463.16 7.68556
4463.43 8.08679
4463.71 8.51099
4463.98 8.95804
4464.26 9.43288
4464.54 9.93574
4464.81 10.4686
4465.09 11.0315
4465.36 11.6309
4465.64 12.2672
4465.92 12.9434
4466.19 13.6596
4466.59 14.7868
4466.99 16.0224
4467.39 17.3795
4467.59 18.1099
4467.79 18.8727
4468.00 19.6775
4468.20 20.5189
4468.40 21.4077
4468.60 22.3378
4468.80 23.3215
4469.00 24.3520
4469.20 25.4431
4469.40 26.5875
4469.70 28.4290
4470.00 30.4268
4470.28 32.4101
4470.55 34.5526
4470.83 36.8703
4471.10 39.3712
4471.38 42.0930
4471.66 45.0492
4471.93 48.2642
4472.21 51.7523
4472.48 55.5696
4472.76 59.7383
4473.03 64.2969
4473.31 69.2692
4473.59 74.7388
4473.86 80.7411
4474.14 87.3341
4474.41 94.5535
4474.69 102.521
4474.96 111.284
4475.24 120.921
4475.52 131.472
4475.79 143.096
4476.07 155.787
4476.20 162.596
4476.34 169.712
4476.48 177.142
4476.62 184.836
4476.76 193.271
4476.90 202.005
4477.05 211.163
4477.19 220.620
4477.34 230.507
4477.48 240.683
4477.62 251.209
4477.76 262.075
4477.91 273.346
4478.05 284.848
4478.19 296.636
4478.34 308.684
4478.48 321.046
4478.62 333.513
4478.77 346.127
4478.91 358.840
4479.01 368.027
4479.12 377.127
4479.32 395.235
4479.52 413.055
4479.73 430.368
4479.93 446.941
4480.14 462.532
4480.34 476.899
4480.54 489.808
4480.64 495.315
4480.73 500.379
4480.83 505.086
4480.93 509.321
4481.09 515.564
4481.19 518.818
4481.27 520.816
4481.32 522.115
4481.38 523.349
4481.38 523.387
4481.39 523.481
4481.39 523.573
4481.41 523.877
4481.43 524.165
4481.46 524.681
4481.48 525.019
4481.49 525.059
4481.50 525.215
4481.51 525.363
4481.53 525.635
4481.61 526.287
4481.76 526.689
4481.87 526.235
4481.97 525.248
4482.07 523.728
4482.17 521.688
4482.28 519.145
4482.39 515.761
4482.50 511.846
4482.72 502.460
4482.95 491.162
4483.17 478.329
4483.40 464.132
4483.62 448.977
4483.73 441.102
4483.85 433.071
4483.96 424.914
4484.07 416.661
4484.22 405.877
4484.36 395.032
4484.51 384.176
4484.65 373.429
4484.79 362.684
4484.94 352.051
4485.08 341.562
4485.23 331.318
4485.37 321.198
4485.52 311.296
4485.66 301.629
4485.81 292.274
4485.95 283.112
4486.10 274.217
4486.24 265.595
4486.39 257.306
4486.53 249.400
4486.67 241.760
4486.81 234.384
4486.95 227.270
4487.24 213.808
4487.52 201.374
4487.81 189.829
4488.09 179.162
4488.37 169.311
4488.66 160.247
4488.94 151.846
4489.22 144.085
4489.51 136.909
4489.79 130.269
4490.08 124.118
4490.36 118.412
4490.64 113.114
4490.93 108.205
4491.20 103.820
4491.47 99.7179
4491.74 95.8767
4492.01 92.2748
4492.28 88.8932
4492.55 85.7144
4492.82 82.7228
4493.09 79.9141
4493.37 77.2545
4493.64 74.7431
4493.91 72.3688
4494.18 70.1301
4494.45 68.0012
4494.72 65.9826
4495.26 62.2529
4495.83 58.7201
4496.40 55.5288
4496.96 52.6355
4497.53 50.0078
4498.10 47.6050
4498.67 45.4090
4499.23 43.3891
4499.80 41.5326
4500.52 39.3703
4501.25 37.4129
4501.97 35.6297
4502.69 34.0040
4503.41 32.5128
4504.14 31.1443
4504.86 29.8826
4505.58 28.7162
4506.72 27.0508
4507.85 25.5665
4508.99 24.2355
4510.12 23.0361
4511.26 21.9502
4512.39 20.9630
4513.53 20.0617
4514.66 19.2360
4515.80 18.4760
4516.93 17.7756
4518.07 17.1273
4519.20 16.5256
4520.34 15.9655
4521.47 15.4428
4522.61 14.9538
4523.74 14.4955
4525.91 13.6943
4528.08 12.9752
4530.24 12.3249
4532.41 11.7329
4534.58 11.1900
4536.75 10.6885
4538.91 10.2218
4541.08 9.78455
4543.56 9.31441
4546.03 8.86996
4548.51 8.44504
4550.99 8.03462
4554.08 7.53362
4557.18 7.03663
4558.73 6.78625
4560.27 6.53257
4561.82 6.27389
4563.37 6.00837
4565.54 5.62098
4566.62 5.41864
4567.70 5.20948
4568.79 4.99204
4569.87 4.76555
4570.96 4.52831
4572.04 4.27928
4573.17 4.00363
4574.31 3.71105
4575.44 3.39962
4576.01 3.23614
4576.58 3.06764
4577.15 2.89342
4577.71 2.71378
4578.28 2.52889
4578.85 2.33946
4579.42 2.14557
4579.98 1.94919
4580.55 1.75171
4581.12 1.55712
4581.53 1.41988
4581.95 1.28972
4582.15 1.22840
4582.36 1.17084
4582.56 1.11756
4582.77 1.06952
4582.98 1.02773
4583.18 0.994015
4583.39 0.969834
4583.60 0.957581
4583.80 0.959837
4584.01 0.979930
4584.11 0.997926
4584.22 1.02203
4584.32 1.05293
4584.42 1.09142
4584.57 1.16237
4584.72 1.25423
4584.87 1.37076
4584.94 1.43915
4585.02 1.51535
4585.13 1.64455
4585.20 1.74329
4585.27 1.85098
4585.38 2.03456
4585.49 2.24480
4585.60 2.48945
4585.66 2.62538
4585.71 2.76845
4585.78 2.96310
4585.85 3.17515
4585.92 3.40603
4585.98 3.65343
4586.05 3.92636
4586.12 4.22307
4586.19 4.54545
4586.25 4.89020
4586.32 5.26976
4586.39 5.68154
4586.46 6.12802
4586.52 6.60444
4586.59 7.12782
4586.66 7.69429
4586.73 8.30702
4586.80 8.95920
4586.84 9.46855
4586.89 9.99551
4586.94 10.5634
4586.99 11.1505
4587.04 11.7826
4587.09 12.4356
4587.13 13.1233
4587.18 13.8474
4587.23 14.6257
4587.28 15.4281
4587.33 16.2897
4587.38 17.1770
4587.43 18.1287
4587.47 19.1078
4587.52 20.1349
4587.57 21.2119
4587.64 22.8998
4587.71 24.7061
4587.78 26.6366
4587.85 28.6968
4587.92 30.8923
4588.00 33.2285
4588.07 35.7105
4588.14 38.3051
4588.21 41.0911
4588.28 44.0366
4588.35 47.1455
4588.42 50.4210
4588.49 53.8660
4588.56 57.4824
4588.63 61.2716
4588.70 65.2343
4588.78 69.3701
4588.85 73.6778
4588.92 78.1554
4588.99 82.7996
4589.13 92.5699
4589.27 102.866
4589.41 113.768
4589.56 125.119
4589.84 148.731
4590.12 172.654
4590.27 184.343
4590.41 195.548
4590.56 206.982
4590.71 217.545
4590.86 227.037
4591.01 235.278
4591.12 239.985
4591.22 243.994
4591.32 247.353
4591.42 249.971
4591.52 251.883
4591.68 253.394
4591.84 252.947
4592.01 250.605
4592.17 246.470
4592.28 242.698
4592.39 238.215
4592.50 233.083
4592.61 227.422
4592.83 214.911
4593.04 201.076
4593.46 172.653
4593.66 158.356
4593.77 151.344
4593.87 144.538
4593.98 137.515
4594.08 130.772
4594.19 124.208
4594.30 117.964
4594.41 111.939
4594.51 106.254
4594.62 100.809
4594.73 95.7068
4594.85 90.4163
4594.96 85.4732
4595.08 80.8684
4595.20 76.6251
4595.32 72.6567
4595.43 69.0152
4595.55 65.6214
4595.67 62.5159
4595.78 59.8636
4595.88 57.4030
4595.99 55.1209
4596.10 53.0231
4596.21 51.0581
4596.32 49.2344
4596.42 47.5407
4596.53 45.9805
4596.64 44.5148
4596.75 43.1496
4596.85 41.8763
4596.96 40.6979
4597.18 38.5521
4597.39 36.6627
4597.61 34.9812
4597.82 33.4892
4598.04 32.1450
4598.25 30.9380
4598.47 29.8385
4598.68 28.8410
4598.90 27.9236
4599.12 27.0843
4599.47 25.8431
4599.82 24.7487
4600.17 23.7706
4600.53 22.8955
4600.88 22.1034
4601.23 21.3868
4601.58 20.7316
4601.94 20.1335
4602.37 19.4663
4602.80 18.8613
4603.23 18.3100
4603.66 17.8057
4604.09 17.3423
4604.52 16.9151
4605.38 16.1541
4605.93 15.7235
4606.48 15.3296
4607.58 14.6322
4608.67 14.0338
4609.77 13.5146
4610.63 13.1514
4611.49 12.8218
4612.36 12.5213
4613.22 12.2460
4614.94 11.7590
4616.66 11.3415
4617.92 11.0731
4619.17 10.8302
4620.03 10.6762
4620.90 10.5320
4621.76 10.3971
4622.62 10.2714
4623.48 10.1547
4624.34 10.0479
4624.77 9.99887
4625.20 9.95341
4625.64 9.91274
4626.07 9.87952
4626.46 9.86046
4626.65 9.85765
4626.85 9.86171
4627.05 9.87536
4627.24 9.90236
4627.44 9.94781
4627.63 10.0181
4627.73 10.0655
4627.83 10.1228
4627.93 10.1913
4628.02 10.2728
4628.12 10.3691
4628.22 10.4821
4628.32 10.6142
4628.42 10.7676
4628.51 10.9449
4628.61 11.1487
4628.71 11.3820
4628.81 11.6476
4628.91 11.9485
4629.00 12.2877
4629.10 12.6684
4629.20 13.0888
4629.29 13.5351
4629.39 14.0261
4629.48 14.5638
4629.57 15.1499
4629.66 15.7857
4629.76 16.4722
4629.85 17.2098
4629.94 17.9986
4630.04 18.8378
4630.13 19.7259
4630.22 20.6611
4630.32 21.6405
4630.41 22.6604
4630.50 23.7164
4630.69 25.9156
4631.04 30.2383
4631.22 32.3531
4631.39 34.3570
4631.49 35.4005
4631.59 36.3780
4631.69 37.2787
4631.78 38.0924
4631.89 38.8769
4632.00 39.5275
4632.12 40.0873
4632.22 40.4306
4632.27 40.5577
4632.33 40.6464
4632.40 40.7056
4632.43 40.7078
4632.51 40.6618
4632.57 40.5729
4632.62 40.4486
4632.71 40.1788
4632.82 39.6933
4632.92 39.0929
4633.03 38.3669
4633.11 37.6938
4633.20 36.9507
4633.28 36.1439
4633.37 35.2801
4633.52 33.6274
4633.67 31.8703
4633.97 28.1737
4634.13 26.1752
4634.29 24.2325
4634.45 22.3679
4634.53 21.4738
4634.61 20.6091
4634.69 19.7762
4634.77 18.9772
4634.85 18.2134
4634.93 17.4862
4635.01 16.7963
4635.09 16.1440
4635.17 15.5295
4635.25 14.9526
4635.34 14.3091
4635.44 13.7235
4635.53 13.1872
4635.63 12.6982
4635.72 12.2540
4635.82 11.8523
4635.91 11.4905
4636.01 11.1657
4636.10 10.8752
4636.20 10.6163
4636.29 10.3864
4636.39 10.1827
4636.48 10.0028
4636.58 9.84422
4636.67 9.70485
4636.77 9.58254
4636.86 9.47430
4636.96 9.38061
4637.05 9.29862
4637.15 9.22689
4637.24 9.16409
4637.34 9.10905
4637.53 9.01816
4637.72 8.94725
4637.91 8.89099
4638.10 8.84536
4638.29 8.80742
4638.51 8.77015
4638.73 8.73819
4639.17 8.68394
4639.61 8.63723
4640.05 8.59511
4640.49 8.55592
4640.93 8.51904
4641.81 8.45027
4642.69 8.38642
4643.57 8.32639
4644.45 8.26932
4645.33 8.21482
4646.94 8.12097
4648.54 8.03288
4650.14 7.94956
4651.74 7.87041
4654.94 7.72285
4658.14 7.58755
4662.63 7.41507
4667.11 7.25913
4671.59 7.11704
4676.08 6.98631
4683.12 6.80037
4690.17 6.63413
4697.21 6.48391
4704.26 6.34708
4718.35 6.10482
4732.44 5.89469
4746.53 5.70835
4760.62 5.53992
4773.43 5.39855
4786.24 5.26554
4799.05 5.13869
4811.86 5.01594
4825.95 4.88342
4840.04 4.75102
4854.13 4.61589
4868.22 4.47456
4876.55 4.38625
4884.87 4.29307
4893.20 4.19304
4901.53 4.08402
4907.29 4.00167
4913.05 3.91210
4918.82 3.81348
4924.58 3.70325
4928.11 3.62859
4931.63 3.54715
4935.15 3.45758
4938.67 3.35817
4941.56 3.26796
4944.44 3.16825
4945.88 3.11435
4947.32 3.05754
4948.76 2.99769
4950.20 2.93485
4951.00 2.89881
4951.80 2.86227
4952.60 2.82577
4953.40 2.79073
4953.81 2.77494
4954.21 2.76223
4954.41 2.75796
4954.61 2.75596
4954.81 2.75723
4955.01 2.76319
4955.21 2.77586
4955.41 2.79779
4955.61 2.83251
4955.81 2.88459
4955.91 2.91888
4956.01 2.95978
4956.11 3.00820
4956.21 3.06518
4956.31 3.13182
4956.41 3.20930
4956.51 3.29892
4956.61 3.40201
4956.71 3.52125
4956.81 3.65575
4956.91 3.80813
4957.01 3.97988
4957.11 4.17252
4957.21 4.38749
4957.31 4.62620
4957.41 4.88992
4957.51 5.18283
4957.61 5.50011
4957.71 5.84524
4957.81 6.21871
4957.91 6.62067
4958.01 7.05095
4958.11 7.50897
4958.21 7.99375
4958.28 8.37406
4958.36 8.76786
4958.51 9.59208
4958.66 10.4572
4958.81 11.3516
4959.11 13.1706
4959.26 14.0619
4959.41 14.9167
4959.54 15.6133
4959.67 16.2558
4959.80 16.8325
4959.93 17.3323
4960.04 17.6879
4960.15 17.9762
4960.28 18.2245
4960.37 18.3351
4960.42 18.3773
4960.49 18.4024
4960.53 18.4038
4960.59 18.3842
4960.65 18.3480
4960.70 18.2889
4960.81 18.1263
4960.89 17.9568
4960.97 17.7490
4961.11 17.2911
4961.25 16.7283
4961.41 15.9793
4961.58 15.1329
4961.74 14.2118
4961.90 13.2455
4962.26 11.0025
4962.44 9.90177
4962.62 8.85307
4962.71 8.34908
4962.80 7.86326
4962.89 7.39716
4962.98 6.95200
4963.07 6.52873
4963.16 6.12799
4963.25 5.75016
4963.33 5.39918
4963.44 5.01394
4963.54 4.66266
4963.65 4.34070
4963.75 4.04702
4963.86 3.78031
4963.96 3.53914
4964.06 3.32194
4964.17 3.12705
4964.27 2.95280
4964.38 2.79747
4964.48 2.65939
4964.58 2.53693
4964.69 2.42852
4964.79 2.33267
4964.90 2.24798
4965.00 2.17314
4965.10 2.10696
4965.21 2.04833
4965.42 1.94986
4965.62 1.87095
4965.83 1.80628
4966.04 1.75174
4966.25 1.70427
4966.46 1.66165
4966.66 1.62226
4967.04 1.55534
4967.42 1.49160
4967.80 1.42866
4968.18 1.36586
4968.93 1.23859
4969.69 1.10933
4970.07 1.04423
4970.45 0.979691
4970.83 0.916088
4971.20 0.854801
4971.58 0.797009
4971.96 0.745192
4972.34 0.702385
4972.53 0.685775
4972.72 0.673395
4972.95 0.665500
4973.18 0.667982
4973.41 0.684141
4973.64 0.718258
4973.76 0.743997
4973.88 0.776719
4973.99 0.817548
4974.11 0.867801
4974.22 0.929020
4974.34 1.00301
4974.46 1.09189
4974.57 1.19711
4974.65 1.27735
4974.72 1.36715
4974.80 1.46751
4974.87 1.57799
4974.99 1.77032
4975.10 1.99405
4975.18 2.17751
4975.26 2.37991
4975.34 2.60858
4975.42 2.86030
4975.50 3.14403
4975.58 3.45562
4975.66 3.80143
4975.74 4.18477
4975.81 4.50988
4975.87 4.85549
4975.93 5.23473
4975.99 5.63722
4976.05 6.07811
4976.11 6.54522
4976.18 7.05600
4976.24 7.59615
4976.30 8.18569
4976.36 8.80791
4976.42 9.48567
4976.48 10.1996
4976.54 10.9755
4976.61 11.7911
4976.67 12.6756
4976.73 13.6033
4976.78 14.4409
4976.83 15.3233
4976.88 16.2521
4976.94 17.2290
4976.99 18.2553
4977.04 19.3328
4977.09 20.4629
4977.14 21.6471
4977.20 22.8867
4977.25 24.1832
4977.30 25.5378
4977.35 26.9517
4977.40 28.4260
4977.46 29.9618
4977.51 31.5599
4977.56 33.1885
4977.63 35.5924
4977.70 38.0839
4977.77 40.6962
4977.84 43.4295
4977.92 46.2834
4977.99 49.2565
4978.06 52.3471
4978.13 55.5525
4978.23 60.4476
4978.34 65.5678
4978.44 70.8952
4978.54 76.4081
4978.75 87.8840
4978.96 99.7449
4979.17 111.685
4979.38 123.301
4979.48 128.973
4979.58 134.382
4979.69 139.534
4979.79 144.382
4979.89 148.717
4979.99 152.656
4980.09 156.209
4980.19 159.346
4980.28 161.739
4980.36 163.775
4980.45 165.442
4980.54 166.716
4980.61 167.475
4980.72 168.166
4980.83 168.198
4980.95 167.575
4981.06 166.314
4981.16 164.664
4981.26 162.544
4981.36 159.977
4981.46 156.996
4981.56 153.596
4981.67 149.882
4981.87 141.523
4982.07 132.245
4982.27 122.377
4982.46 113.139
4982.64 103.895
4982.83 94.8387
4982.92 90.4561
4983.01 86.1769
4983.12 81.5710
4983.22 77.1268
4983.32 72.8577
4983.42 68.8135
4983.52 64.9216
4983.62 61.2632
4983.73 57.7682
4983.83 54.5055
4983.95 50.8826
4984.07 47.5296
4984.19 44.4378
4984.31 41.5964
4984.43 38.9928
4984.55 36.6134
4984.67 34.4437
4984.79 32.4687
4984.89 30.9320
4984.99 29.5295
4985.09 28.2247
4985.19 27.0347
4985.29 25.9279
4985.40 24.9182
4985.50 23.9785
4985.60 23.1203
4985.70 22.3203
4985.80 21.5883
4985.90 20.9043
4986.00 20.2768
4986.21 19.1474
4986.41 18.1682
4986.61 17.3089
4986.82 16.5565
4987.02 15.8892
4987.22 15.2931
4987.43 14.7543
4987.63 14.2692
4987.83 13.8275
4988.04 13.4233
4988.39 12.7990
4988.74 12.2529
4989.09 11.7705
4989.44 11.3420
4989.79 10.9563
4990.14 10.6083
4990.49 10.2924
4990.84 10.0051
4991.25 9.70108
4991.66 9.42577
4992.06 9.17460
4992.47 8.94449
4993.28 8.53707
4994.09 8.18831
4994.91 7.88553
4995.72 7.62073
4996.53 7.38661
4997.34 7.17867
4998.01 7.02490
4998.67 6.88443
4999.34 6.75576
5000.00 6.63928
5000.51 6.56043
5000.76 6.52566
5001.01 6.49546
5001.27 6.47167
5001.39 6.46297
5001.52 6.45704
5001.65 6.45431
5001.77 6.45543
5001.90 6.46109
5002.02 6.47207
5002.15 6.48947
5002.28 6.51403
5002.40 6.54731
5002.53 6.59001
5002.66 6.64417
5002.78 6.71036
5002.91 6.79041
5003.03 6.88580
5003.16 6.99897
5003.29 7.12954
5003.41 7.28093
5003.54 7.45189
5003.67 7.64606
5003.79 7.86100
5003.92 8.09842
5004.05 8.35818
5004.16 8.61192
5004.27 8.88259
5004.39 9.16900
5004.50 9.46953
5004.62 9.78219
5004.73 10.1046
5004.96 10.7642
5005.17 11.3907
5005.39 11.9931
5005.49 12.2780
5005.60 12.5441
5005.71 12.7907
5005.82 13.0146
5005.90 13.1815
5005.99 13.3275
5006.08 13.4532
5006.17 13.5575
5006.25 13.6352
5006.33 13.6916
5006.42 13.7291
5006.49 13.7411
5006.54 13.7411
5006.54 13.7407
5006.56 13.7393
5006.57 13.7376
5006.59 13.7331
5006.64 13.7170
5006.71 13.6783
5006.83 13.5868
5006.93 13.4660
5007.04 13.3143
5007.16 13.1024
5007.28 12.8564
5007.40 12.5758
5007.52 12.2698
5007.68 11.8294
5007.84 11.3623
5008.15 10.3804
5008.31 9.88599
5008.47 9.40569
5008.63 8.94387
5008.79 8.50670
5008.93 8.13374
5009.07 7.78998
5009.22 7.47429
5009.36 7.18735
5009.50 6.92738
5009.65 6.69728
5009.79 6.49392
5009.93 6.31568
5010.08 6.15966
5010.22 6.02594
5010.36 5.91118
5010.51 5.81325
5010.65 5.73002
5010.79 5.65953
5010.93 5.59993
5011.08 5.54954
5011.22 5.50659
5011.36 5.47036
5011.51 5.43939
5011.65 5.41271
5011.79 5.38950
5011.94 5.36907
5012.08 5.35087
5012.22 5.33444
5012.51 5.30539
5012.80 5.28001
5013.08 5.25687
5013.37 5.23518
5014.03 5.18823
5014.69 5.14430
5016.02 5.06222
5017.35 4.98600
5018.67 4.91444
5020.00 4.84673
5021.33 4.78244
5023.98 4.66241
5026.27 4.56669
5027.41 4.52144
5028.56 4.47818
5029.71 4.43737
5030.28 4.41842
5030.85 4.40141
5031.14 4.39426
5031.42 4.38881
5031.71 4.38612
5031.85 4.38633
5032.00 4.38798
5032.14 4.39148
5032.28 4.39729
5032.43 4.40601
5032.57 4.41839
5032.71 4.43530
5032.85 4.45779
5033.00 4.48707
5033.14 4.52457
5033.28 4.56931
5033.41 4.62447
5033.55 4.69176
5033.68 4.77235
5033.82 4.86935
5033.95 4.98331
5034.09 5.11792
5034.23 5.27317
5034.36 5.45319
5034.50 5.65858
5034.63 5.89072
5034.77 6.14857
5034.90 6.43644
5035.04 6.74999
5035.18 7.09309
5035.31 7.45917
5035.47 7.91974
5035.63 8.40390
5035.79 8.91095
5035.94 9.42622
5036.26 10.4544
5036.42 10.9419
5036.58 11.3970
5036.70 11.7165
5036.82 12.0028
5036.94 12.2561
5037.06 12.4681
5037.17 12.6200
5037.27 12.7356
5037.38 12.8195
5037.46 12.8513
5037.52 12.8628
5037.55 12.8639
5037.60 12.8590
5037.66 12.8427
5037.72 12.8136
5037.83 12.7285
5037.93 12.6165
5038.02 12.4744
5038.12 12.3008
5038.22 12.0992
5038.32 11.8718
5038.42 11.6235
5038.56 11.2386
5038.70 10.8240
5038.84 10.3821
5038.98 9.92709
5039.26 8.99645
5039.40 8.53514
5039.54 8.08923
5039.64 7.77886
5039.74 7.47908
5039.84 7.19127
5039.94 6.91923
5040.04 6.65836
5040.14 6.41209
5040.24 6.18084
5040.34 5.96690
5040.44 5.76595
5040.54 5.58006
5040.64 5.40893
5040.74 5.25360
5040.84 5.11039
5040.94 4.98154
5041.04 4.86373
5041.13 4.75860
5041.23 4.66322
5041.33 4.57793
5041.43 4.50193
5041.53 4.43504
5041.63 4.37517
5041.73 4.32278
5041.93 4.23546
5042.13 4.16772
5042.33 4.11587
5042.53 4.07589
5042.73 4.04484
5042.93 4.02031
5043.13 4.00073
5043.33 3.98454
5043.53 3.97091
5043.73 3.95896
5043.93 3.94830
5044.32 3.92931
5044.72 3.91207
5045.12 3.89585
5045.92 3.86487
5046.72 3.83495
5047.51 3.80570
5049.11 3.74819
5050.70 3.69118
5052.30 3.63423
5055.48 3.51907
5058.99 3.38863
5062.50 3.25241
5066.01 3.10858
5069.52 2.95512
5073.02 2.78979
5076.53 2.60996
5078.29 2.51366
5080.04 2.41255
5081.79 2.30615
5083.55 2.19403
5085.78 2.04203
5088.01 1.87882
5089.13 1.79260
5090.24 1.70311
5091.36 1.61024
5092.48 1.51394
5093.43 1.42860
5094.39 1.34074
5095.35 1.25044
5096.30 1.15794
5097.26 1.06333
5098.22 0.967191
5099.17 0.869959
5100.13 0.772727
5100.89 0.696399
5101.64 0.621799
5102.40 0.549926
5103.16 0.482564
5103.54 0.451141
5103.92 0.421683
5104.30 0.394579
5104.67 0.370343
5105.05 0.349376
5105.43 0.332368
5105.81 0.320050
5106.19 0.313289
5106.48 0.312462
5106.77 0.315966
5107.06 0.324394
5107.34 0.338423
5107.59 0.355593
5107.61 0.357194
5107.69 0.363507
5107.76 0.370321
5108.01 0.396765
5108.26 0.429623
5108.44 0.457811
5108.62 0.489898
5108.80 0.526387
5108.98 0.567670
5109.16 0.614454
5109.34 0.666697
5109.52 0.725170
5109.70 0.790453
5109.92 0.880973
5110.13 0.983603
5110.35 1.10024
5110.57 1.23261
5110.79 1.38342
5110.90 1.46624
5111.01 1.55359
5111.12 1.64743
5111.23 1.74640
5111.34 1.85274
5111.45 1.96492
5111.56 2.08547
5111.67 2.21390
5111.78 2.35076
5111.89 2.49527
5112.00 2.65073
5112.11 2.81499
5112.22 2.99183
5112.33 3.17885
5112.44 3.38037
5112.55 3.59574
5112.66 3.82601
5112.77 4.07007
5112.88 4.33368
5112.98 4.61343
5113.09 4.91601
5113.20 5.23758
5113.32 5.61884
5113.44 6.02768
5113.56 6.47393
5113.68 6.95342
5113.80 7.47784
5113.92 8.04246
5114.04 8.66125
5114.16 9.32882
5114.27 9.99835
5114.38 10.7231
5114.49 11.5082
5114.60 12.3512
5114.71 13.2737
5114.82 14.2749
5114.93 15.3620
5115.04 16.5318
5115.15 17.8141
5115.26 19.2077
5115.37 20.7224
5115.48 22.3529
5115.59 24.1403
5115.70 26.0633
5115.81 28.1696
5115.91 30.4332
5116.02 32.9090
5116.13 35.5652
5116.24 38.4644
5116.35 41.5675
5116.46 44.9454
5116.57 48.5502
5116.68 52.4611
5116.79 56.6196
5116.90 61.1134
5117.01 65.9162
5117.12 71.0371
5117.23 76.4321
5117.34 82.2052
5117.45 88.2537
5117.56 94.6884
5117.67 101.389
5117.78 108.471
5117.89 115.864
5118.00 123.554
5118.11 131.447
5118.33 148.113
5118.55 165.473
5118.99 201.464
5119.21 219.138
5119.43 236.026
5119.55 245.019
5119.67 253.527
5119.80 261.469
5119.92 268.712
5120.05 275.301
5120.17 281.066
5120.29 286.044
5120.42 290.108
5120.58 294.110
5120.74 296.451
5120.88 297.091
5121.01 296.604
5121.15 295.012
5121.28 292.351
5121.41 288.671
5121.55 284.032
5121.68 278.510
5121.82 272.236
5122.03 260.765
5122.24 247.941
5122.45 234.038
5122.67 219.570
5122.88 204.902
5123.09 190.284
5123.30 175.987
5123.51 162.298
5123.63 154.475
5123.76 146.990
5123.88 139.741
5124.01 132.860
5124.13 126.246
5124.26 120.011
5124.38 114.054
5124.50 108.471
5124.61 103.950
5124.72 99.6961
5124.82 95.6230
5124.93 91.8005
5125.03 88.1484
5125.14 84.7277
5125.24 81.4947
5125.35 78.4408
5125.45 75.5307
5125.56 72.8107
5125.66 70.2437
5125.77 67.8212
5125.87 65.5140
5125.98 63.3573
5126.08 61.3210
5126.19 59.3977
5126.40 55.8460
5126.61 52.6691
5126.82 49.8194
5127.03 47.2553
5127.24 44.9406
5127.46 42.8438
5127.67 40.9377
5127.88 39.2070
5128.04 37.9652
5128.20 36.8033
5128.53 34.6914
5128.85 32.8226
5129.18 31.1631
5129.51 29.6717
5129.83 28.3325
5130.16 27.1166
5130.48 26.0147
5130.90 24.7253
5131.33 23.5728
5131.75 22.5371
5132.17 21.6037
5132.59 20.7547
5133.01 19.9830
5133.43 19.2756
5133.85 18.6280
5134.28 18.0304
5134.70 17.4803
5135.12 16.9706
5135.54 16.5005
5135.96 16.0664
5136.17 15.8635
5136.38 15.6716
5136.59 15.4897
5136.81 15.3200
5137.02 15.1642
5137.23 15.0253
5137.38 14.9350
5137.53 14.8566
5137.69 14.7906
5137.84 14.7385
5138.00 14.7000
5138.17 14.6808
5138.33 14.6826
5138.49 14.7070
5138.65 14.7552
5138.82 14.8282
5138.98 14.9261
5139.14 15.0477
5139.31 15.1932
5139.47 15.3599
5139.63 15.5445
5139.79 15.7431
5140.12 16.1610
5140.28 16.3679
5140.45 16.5632
5140.56 16.6916
5140.68 16.8087
5140.79 16.9120
5140.90 16.9986
5140.99 17.0527
5141.08 17.0951
5141.16 17.1261
5141.25 17.1443
5141.33 17.1497
5141.40 17.1446
5141.49 17.1260
5141.55 17.1041
5141.59 17.0890
5141.59 17.0876
5141.60 17.0842
5141.60 17.0807
5141.62 17.0734
5141.64 17.0577
5141.70 17.0248
5141.79 16.9533
5141.88 16.8712
5141.96 16.7765
5142.08 16.6287
5142.20 16.4590
5142.32 16.2692
5142.43 16.0612
5142.54 15.8552
5142.65 15.6398
5142.86 15.1830
5143.08 14.7030
5143.29 14.2197
5143.51 13.7429
5143.61 13.5127
5143.72 13.2889
5143.83 13.0707
5143.93 12.8628
5144.04 12.6640
5144.15 12.4748
5144.26 12.2938
5144.36 12.1246
5144.47 11.9656
5144.58 11.8167
5144.69 11.6763
5144.79 11.5468
5144.90 11.4265
5145.01 11.3150
5145.11 11.2107
5145.22 11.1152
5145.33 11.0269
5145.44 10.9452
5145.54 10.8690
5145.65 10.7990
5145.86 10.6736
5146.08 10.5641
5146.29 10.4680
5146.51 10.3817
5146.72 10.3035
5146.94 10.2311
5147.15 10.1635
5147.58 10.0379
5147.95 9.93666
5148.32 9.84044
5149.06 9.65839
5149.80 9.48778
5150.54 9.32700
5152.03 9.03105
5153.51 8.76456
5154.83 8.54743
5156.16 8.34776
5158.81 7.99216
5161.46 7.68378
5164.12 7.41311
5167.55 7.10708
5170.98 6.84026
5174.41 6.60404
5177.84 6.39197
5181.28 6.19913
5184.71 6.02167
5188.14 5.85652
5191.57 5.70117
5194.07 5.59315
5198.12 5.42462
5202.18 5.26277
5204.21 5.18380
5206.24 5.10596
5208.26 5.02948
5209.28 4.99196
5210.29 4.95511
5211.19 4.92330
5212.09 4.89261
5212.98 4.86367
5213.43 4.85020
5213.88 4.83782
5214.33 4.82707
5214.78 4.81923
5215.00 4.81716
5215.23 4.81708
5215.45 4.81989
5215.67 4.82694
5215.90 4.84024
5216.12 4.86249
5216.35 4.89763
5216.46 4.92162
5216.57 4.95096
5216.68 4.98692
5216.80 5.02995
5216.91 5.08154
5217.02 5.14304
5217.13 5.21594
5217.24 5.30188
5217.36 5.40265
5217.47 5.52018
5217.55 5.61302
5217.62 5.71571
5217.70 5.82900
5217.78 5.95365
5217.86 6.09045
5217.94 6.24017
5218.01 6.40360
5218.09 6.58152
5218.21 6.89064
5218.34 7.23979
5218.46 7.63145
5218.58 8.06775
5218.70 8.55032
5218.82 9.08022
5218.95 9.65777
5219.07 10.2772
5219.19 10.9473
5219.31 11.6608
5219.43 12.4141
5219.56 13.2026
5219.68 14.0206
5219.80 14.8613
5220.04 16.5705
5220.22 17.8030
5220.39 18.9889
5220.57 20.1086
5220.74 21.1163
5220.83 21.5731
5220.92 21.9916
5221.01 22.3681
5221.10 22.6960
5221.19 23.0091
5221.29 23.2570
5221.40 23.4573
5221.47 23.5460
5221.52 23.5866
5221.60 23.6090
5221.61 23.6091
5221.64 23.6035
5221.68 23.5905
5221.74 23.5413
5221.81 23.4559
5221.92 23.2456
5222.01 23.0199
5222.10 22.7465
5222.25 22.1646
5222.40 21.4554
5222.48 20.9869
5222.57 20.4900
5222.75 19.4048
5222.92 18.2324
5223.10 17.0129
5223.50 14.1731
5223.70 12.8131
5223.80 12.1626
5223.89 11.5423
5223.99 10.9420
5224.09 10.3702
5224.19 9.82857
5224.29 9.31806
5224.39 8.83935
5224.49 8.39265
5224.59 7.97783
5224.69 7.59809
5224.78 7.27555
5224.87 6.98077
5224.97 6.70633
5225.06 6.45726
5225.15 6.22696
5225.24 6.01934
5225.33 5.82859
5225.42 5.65769
5225.51 5.50162
5225.60 5.36259
5225.69 5.23632
5225.78 5.12441
5225.87 5.02326
5225.96 4.93402
5226.05 4.85367
5226.14 4.78304
5226.32 4.66406
5226.50 4.57062
5226.68 4.49730
5226.87 4.43958
5227.05 4.39383
5227.23 4.35714
5227.41 4.32723
5227.59 4.30236
5227.77 4.28121
5227.95 4.26279
5228.31 4.23138
5228.68 4.20437
5229.04 4.17979
5229.76 4.13429
5230.49 4.09118
5231.38 4.03911
5232.28 3.98763
5234.08 3.88420
5235.88 3.77779
5237.68 3.66679
5239.87 3.52273
5242.07 3.36744
5244.27 3.19831
5246.46 3.01242
5248.46 2.82585
5249.46 2.72531
5250.46 2.61945
5251.46 2.50759
5252.46 2.38944
5253.46 2.26422
5254.45 2.13162
5255.55 1.97623
5256.65 1.81040
5257.75 1.63380
5258.30 1.54157
5258.85 1.44679
5259.55 1.32277
5260.25 1.19569
5260.95 1.06683
5261.64 0.938289
5262.34 0.813486
5262.69 0.754031
5263.04 0.698008
5263.39 0.646379
5263.74 0.601096
5264.09 0.564078
5264.44 0.538404
5264.63 0.530348
5264.83 0.527740
5265.02 0.531532
5265.21 0.542842
5265.41 0.563194
5265.60 0.594065
5265.80 0.637847
5265.99 0.696605
5266.11 0.741707
5266.23 0.794592
5266.28 0.822445
5266.38 0.873869
5266.53 0.973552
5266.69 1.09299
5266.81 1.20071
5266.93 1.32441
5267.04 1.46627
5267.16 1.62733
5267.28 1.81316
5267.40 2.02383
5267.52 2.26662
5267.64 2.54163
5267.71 2.72010
5267.77 2.91288
5267.84 3.12107
5267.91 3.34249
5267.98 3.58492
5268.05 3.84661
5268.12 4.12901
5268.19 4.42911
5268.26 4.75738
5268.32 5.11136
5268.39 5.49291
5268.46 5.89787
5268.53 6.34023
5268.60 6.80933
5268.67 7.32128
5268.74 7.86365
5268.80 8.42833
5268.87 9.02364
5268.93 9.67032
5269.00 10.3513
5269.06 11.0900
5269.13 11.8669
5269.19 12.7086
5269.26 13.5925
5269.33 14.5485
5269.39 15.5509
5269.46 16.6333
5269.52 17.7661
5269.59 18.9873
5269.65 20.2630
5269.72 21.6354
5269.78 23.0662
5269.85 24.6742
5269.92 26.3776
5269.99 28.1797
5270.06 30.0555
5270.13 32.0633
5270.20 34.1792
5270.27 36.4060
5270.33 38.7113
5270.40 41.1652
5270.47 43.7364
5270.54 46.4265
5270.61 49.1950
5270.68 52.1240
5270.75 55.1288
5270.81 58.2975
5270.88 61.5375
5271.02 68.4641
5271.16 75.7903
5271.29 83.5361
5271.43 91.6628
5271.57 100.183
5271.71 108.912
5271.98 126.947
5272.26 145.007
5272.39 153.821
5272.53 162.349
5272.67 170.539
5272.80 178.164
5272.94 185.182
5273.08 191.494
5273.22 197.012
5273.35 201.658
5273.49 205.370
5273.63 208.099
5273.73 209.450
5273.89 210.477
5274.05 210.055
5274.21 208.228
5274.38 205.061
5274.49 201.935
5274.61 198.181
5274.73 193.853
5274.85 189.051
5274.97 183.799
5275.09 178.211
5275.32 166.145
5275.68 146.123
5275.86 135.951
5276.04 125.972
5276.16 119.633
5276.28 113.452
5276.39 107.459
5276.51 101.678
5276.63 96.1304
5276.74 90.8307
5276.86 85.7897
5276.98 81.0142
5277.10 76.4695
5277.21 72.2323
5277.33 68.2596
5277.45 64.5456
5277.56 61.0824
5277.68 57.8605
5277.80 54.8692
5277.92 52.0967
5278.02 49.8485
5278.12 47.7689
5278.22 45.8266
5278.32 44.0137
5278.42 42.3220
5278.52 40.7436
5278.62 39.2710
5278.72 37.8967
5278.83 36.6137
5278.93 35.4154
5279.03 34.2955
5279.13 33.2480
5279.33 31.3487
5279.53 29.6774
5279.65 28.7927
5279.77 27.9748
5280.00 26.4954
5280.24 25.1947
5280.47 24.0431
5280.70 23.0164
5280.94 22.0951
5281.17 21.2636
5281.41 20.5089
5281.73 19.5824
5282.04 18.7613
5282.36 18.0258
5282.68 17.3629
5283.00 16.7621
5283.32 16.2150
5283.64 15.7145
5283.96 15.2548
5284.43 14.6430
5284.90 14.0976
5285.36 13.6072
5285.83 13.1638
5286.30 12.7609
5286.77 12.3932
5287.24 12.0561
5287.70 11.7460
5288.64 11.1941
5289.58 10.7183
5290.51 10.3034
5291.45 9.93803
5292.39 9.61317
5293.32 9.32269
5294.26 9.06089
5295.19 8.82350
5296.13 8.60686
5297.07 8.40858
5298.94 8.05730
5300.98 7.72902
5303.02 7.44515
5305.07 7.19604
5307.11 6.97451
5308.98 6.79054
5310.86 6.62167
5314.60 6.31972
5318.35 6.05308
5322.09 5.81086
5326.18 5.56508
5330.26 5.33081
5334.35 5.10143
5338.43 4.87085
5342.52 4.63337
5345.24 4.46815
5347.97 4.29529
5349.33 4.20542
5350.69 4.11299
5352.05 4.01787
5353.41 3.92037
5354.14 3.86792
5354.86 3.81623
5355.22 3.79158
5355.58 3.76907
5355.77 3.75922
5355.95 3.75081
5356.13 3.74436
5356.31 3.74059
5356.49 3.74032
5356.67 3.74470
5356.85 3.75510
5357.03 3.77318
5357.21 3.80093
5357.39 3.84065
5357.57 3.89491
5357.75 3.96615
5357.94 4.05815
5358.12 4.17369
5358.21 4.24163
5358.30 4.31579
5358.39 4.39814
5358.48 4.48718
5358.57 4.58516
5358.66 4.69012
5358.75 4.80457
5358.84 4.92609
5358.93 5.05740
5359.02 5.19557
5359.11 5.34185
5359.20 5.49603
5359.33 5.72824
5359.46 5.97446
5359.59 6.23297
5359.71 6.49950
5360.22 7.61416
5360.41 8.02115
5360.61 8.39867
5360.70 8.57381
5360.80 8.73692
5360.89 8.88640
5360.99 9.01941
5361.07 9.11889
5361.15 9.20615
5361.23 9.28050
5361.31 9.34070
5361.39 9.38778
5361.47 9.42050
5361.55 9.43856
5361.60 9.44237
5361.65 9.43961
5361.71 9.43054
5361.76 9.41262
5361.85 9.37150
5361.93 9.32218
5362.00 9.26030
5362.09 9.16663
5362.19 9.05497
5362.28 8.92627
5362.37 8.78329
5362.48 8.60259
5362.58 8.40706
5362.69 8.19710
5362.79 7.97482
5363.00 7.49976
5363.21 7.00409
5363.58 6.11514
5363.76 5.68812
5363.95 5.28646
5364.04 5.09511
5364.13 4.91158
5364.23 4.73630
5364.32 4.57132
5364.41 4.41327
5364.51 4.26408
5364.60 4.12377
5364.69 3.99363
5364.78 3.87070
5364.88 3.75622
5364.97 3.64993
5365.06 3.55252
5365.15 3.46154
5365.25 3.37770
5365.43 3.23056
5365.62 3.10617
5365.80 3.00255
5365.99 2.91536
5366.17 2.84258
5366.36 2.78076
5366.55 2.72827
5366.73 2.68260
5366.92 2.64264
5367.08 2.61094
5367.24 2.58196
5367.57 2.52963
5367.89 2.48266
5368.21 2.44042
5368.54 2.40327
5368.70 2.38728
5368.86 2.37349
5369.03 2.36231
5369.19 2.35448
5369.35 2.35060
5369.51 2.35146
5369.68 2.35797
5369.84 2.37098
5370.00 2.39146
5370.16 2.42037
5370.32 2.45891
5370.49 2.50744
5370.65 2.56685
5370.81 2.63761
5370.97 2.72047
5371.14 2.81427
5371.30 2.91895
5371.46 3.03351
5371.62 3.15731
5371.78 3.28686
5372.11 3.55542
5372.35 3.75391
5372.47 3.84780
5372.60 3.93607
5372.72 4.01718
5372.84 4.08962
5372.96 4.15198
5373.08 4.20260
5373.25 4.25091
5373.41 4.27489
5373.53 4.27584
5373.61 4.26885
5373.66 4.26116
5373.72 4.24718
5373.81 4.22176
5373.97 4.15427
5374.10 4.08550
5374.22 4.00274
5374.34 3.90702
5374.47 3.79953
5374.58 3.69640
5374.69 3.58626
5374.90 3.35032
5375.12 3.09948
5375.34 2.84231
5375.55 2.58558
5375.77 2.33849
5375.99 2.10529
5376.21 1.88990
5376.33 1.77580
5376.45 1.66857
5376.58 1.56830
5376.70 1.47498
5376.83 1.38514
5376.96 1.30306
5377.09 1.22770
5377.21 1.15868
5377.34 1.09560
5377.47 1.03801
5377.73 0.937480
5377.98 0.853598
5378.24 0.783192
5378.49 0.723617
5378.75 0.672835
5379.01 0.629405
5379.26 0.592451
5379.52 0.561586
5379.77 0.536851
5380.03 0.518659
5380.29 0.507755
5380.54 0.505199
5380.80 0.512378
5381.01 0.526741
5381.22 0.549844
5381.43 0.583089
5381.64 0.628079
5381.78 0.666009
5381.92 0.712885
5382.07 0.768098
5382.28 0.863400
5382.39 0.919207
5382.49 0.980459
5382.59 1.04886
5382.70 1.12442
5382.80 1.20780
5382.91 1.29878
5383.08 1.46858
5383.17 1.56451
5383.25 1.66695
5383.34 1.77893
5383.42 1.89848
5383.51 2.02755
5383.59 2.16690
5383.68 2.31919
5383.76 2.48179
5383.85 2.65738
5383.93 2.84702
5384.02 3.05438
5384.10 3.27591
5384.19 3.51530
5384.27 3.77404
5384.36 4.04351
5384.44 4.33039
5384.52 4.64346
5384.60 4.97685
5384.68 5.34077
5384.76 5.72841
5384.84 6.15161
5384.93 6.60244
5385.01 7.09464
5385.09 7.61894
5385.17 8.19127
5385.25 8.80079
5385.33 9.46592
5385.41 10.1740
5385.50 10.9364
5385.58 11.7571
5385.66 12.6969
5385.75 13.6999
5385.83 14.7950
5385.92 15.9622
5386.00 17.2348
5386.09 18.5892
5386.17 20.0455
5386.26 21.6100
5386.35 23.3094
5386.43 25.1107
5386.52 27.0627
5386.60 29.1266
5386.69 31.3574
5386.77 33.7097
5386.86 36.2144
5386.94 38.8775
5387.03 41.7387
5387.11 44.7365
5387.20 47.9079
5387.28 51.2569
5387.37 54.8294
5387.45 58.5450
5387.54 62.4459
5387.62 66.5329
5387.71 70.8571
5387.80 75.3167
5387.88 80.0140
5387.97 84.8358
5388.14 95.0535
5388.31 105.845
5388.48 117.254
5388.65 129.040
5388.99 153.469
5389.16 165.858
5389.33 177.969
5389.50 189.741
5389.68 200.830
5389.87 212.635
5390.07 222.995
5390.17 227.594
5390.27 231.747
5390.37 235.426
5390.47 238.578
5390.56 241.249
5390.66 243.369
5390.79 245.383
5390.90 246.298
5391.01 246.567
5391.12 246.197
5391.22 245.198
5391.33 243.587
5391.44 241.385
5391.54 238.619
5391.65 235.320
5391.82 228.951
5392.00 221.495
5392.17 213.098
5392.34 203.949
5392.68 184.215
5393.02 163.741
5393.23 151.721
5393.43 140.115
5393.53 134.498
5393.63 129.026
5393.73 123.714
5393.83 118.574
5393.92 114.338
5394.01 110.238
5394.09 106.276
5394.18 102.497
5394.26 98.8153
5394.35 95.3156
5394.43 91.9154
5394.52 88.6926
5394.60 85.5698
5394.69 82.6171
5394.78 79.7623
5394.86 77.0686
5394.95 74.4691
5395.03 72.0203
5395.20 67.4407
5395.37 63.2724
5395.55 59.5281
5395.72 56.1468
5395.89 53.0937
5396.06 50.3206
5396.23 47.8284
5396.40 45.5716
5396.57 43.5242
5396.71 42.0614
5396.84 40.7108
5396.97 39.4521
5397.10 38.2772
5397.37 36.1421
5397.63 34.2706
5397.90 32.6065
5398.16 31.1286
5398.42 29.7981
5398.69 28.6027
5399.03 27.2139
5399.37 25.9852
5399.72 24.8841
5400.06 23.8972
5400.40 23.0027
5400.74 22.1927
5401.09 21.4537
5401.43 20.7769
5401.77 20.1530
5402.11 19.5793
5402.80 18.5548
5403.48 17.6687
5404.17 16.8960
5404.85 16.2145
5405.54 15.6098
5406.22 15.0696
5406.91 14.5844
5407.59 14.1461
5408.28 13.7484
5408.96 13.3860
5409.65 13.0550
5410.89 12.5199
5412.14 12.0573
5413.38 11.6544
5414.63 11.3019
5415.28 11.1347
5415.93 10.9795
5416.59 10.8369
5416.91 10.7714
5417.24 10.7113
5417.57 10.6585
5417.73 10.6360
5417.89 10.6171
5418.06 10.6025
5418.22 10.5936
5418.38 10.5916
5418.55 10.5985
5418.71 10.6164
5418.87 10.6477
5419.04 10.6960
5419.20 10.7643
5419.37 10.8575
5419.53 10.9789
5419.61 11.0525
5419.69 11.1342
5419.77 11.2267
5419.85 11.3284
5419.95 11.4603
5420.04 11.6063
5420.14 11.7706
5420.23 11.9507
5420.32 12.1514
5420.42 12.3692
5420.51 12.6070
5420.60 12.8653
5420.70 13.1478
5420.79 13.4489
5420.88 13.7751
5420.98 14.1196
5421.07 14.4894
5421.16 14.8762
5421.26 15.2831
5421.35 15.7090
5421.50 16.4227
5421.64 17.1746
5421.79 17.9561
5421.94 18.7569
5422.24 20.3670
5422.38 21.1487
5422.53 21.8900
5422.66 22.4817
5422.78 23.0239
5422.91 23.5169
5423.03 23.9447
5423.16 24.3276
5423.29 24.6226
5423.43 24.8364
5423.52 24.9148
5423.58 24.9445
5423.65 24.9553
5423.67 24.9525
5423.73 24.9306
5423.80 24.8807
5423.88 24.7978
5424.00 24.5936
5424.10 24.3809
5424.19 24.1225
5424.29 23.8172
5424.38 23.4744
5424.48 23.0940
5424.57 22.6796
5424.69 22.1328
5424.80 21.5477
5424.92 20.9316
5425.03 20.2975
5425.50 17.6568
5425.66 16.7367
5425.82 15.8560
5425.91 15.4296
5425.99 15.0161
5426.07 14.6164
5426.15 14.2361
5426.23 13.8665
5426.31 13.5130
5426.40 13.1760
5426.48 12.8595
5426.56 12.5559
5426.64 12.2725
5426.72 12.0022
5426.80 11.7514
5426.89 11.5135
5426.97 11.2914
5427.05 11.0845
5427.13 10.8945
5427.21 10.7163
5427.29 10.5534
5427.38 10.4013
5427.46 10.2630
5427.54 10.1343
5427.62 10.0163
5427.70 9.90840
5427.78 9.81101
5427.95 9.64010
5428.11 9.49854
5428.23 9.40831
5428.35 9.33093
5428.48 9.26347
5428.60 9.20557
5428.72 9.15494
5428.84 9.11126
5428.97 9.07277
5429.09 9.03923
5429.33 8.98286
5429.58 8.93730
5429.82 8.89910
5430.07 8.86587
5430.31 8.83601
5430.56 8.80846
5431.05 8.75777
5431.54 8.71073
5432.03 8.66607
5433.01 8.58190
5433.99 8.50313
5434.97 8.42882
5435.95 8.35845
5437.15 8.27700
5438.34 8.20021
5440.74 8.05867
5443.13 7.93116
5445.53 7.81583
5447.27 7.73871
5449.66 7.64119
5452.06 7.55286
5454.45 7.47332
5456.85 7.40260
5459.24 7.34137
5460.44 7.31478
5461.64 7.29136
5462.84 7.27159
5464.03 7.25632
5465.23 7.24667
5466.43 7.24442
5467.14 7.24766
5467.84 7.25529
5468.55 7.26853
5469.26 7.28901
5469.97 7.31927
5470.67 7.36295
5471.03 7.39167
5471.38 7.42639
5471.74 7.46879
5472.09 7.52114
5472.44 7.58766
5472.80 7.67466
5473.15 7.79310
5473.33 7.86955
5473.51 7.96179
5473.68 8.07426
5473.86 8.21265
5474.04 8.38427
5474.21 8.59832
5474.39 8.86627
5474.57 9.20225
5474.66 9.40216
5474.74 9.62338
5474.83 9.87063
5474.92 10.1468
5475.02 10.4845
5475.11 10.8603
5475.21 11.2818
5475.30 11.7538
5475.40 12.2871
5475.49 12.8759
5475.59 13.5308
5475.68 14.2573
5475.78 15.0702
5475.87 15.9582
5475.97 16.9352
5476.06 18.0068
5476.16 19.1915
5476.25 20.4697
5476.35 21.8580
5476.44 23.3609
5476.51 24.4570
5476.57 25.6095
5476.64 26.8190
5476.70 28.0664
5476.77 29.3908
5476.83 30.7734
5476.90 32.2142
5476.96 33.6891
5477.09 36.8542
5477.22 40.2110
5477.35 43.7687
5477.48 47.5077
5477.63 52.0492
5477.78 56.7201
5478.08 66.3298
5478.28 72.8583
5478.49 79.0681
5478.64 83.3251
5478.79 87.1991
5478.92 90.3580
5479.06 93.0796
5479.21 95.5742
5479.36 97.4124
5479.50 98.5831
5479.59 98.9368
5479.67 99.0835
5479.69 99.0880
5479.76 98.9847
5479.84 98.7088
5479.96 97.8900
5480.00 97.5109
5480.11 96.2203
5480.20 94.8903
5480.30 93.3475
5480.41 91.1577
5480.52 88.6961
5480.63 85.9486
5480.74 82.9691
5480.95 77.0604
5481.15 70.7466
5481.60 56.3175
5481.82 49.3347
5481.93 45.9911
5482.04 42.8004
5482.16 39.7207
5482.27 36.7938
5482.38 34.0291
5482.49 31.4554
5482.58 29.4504
5482.68 27.5624
5482.77 25.7910
5482.86 24.1524
5482.95 22.6084
5483.04 21.1898
5483.13 19.8620
5483.22 18.6499
5483.32 17.5225
5483.41 16.4996
5483.50 15.5537
5483.59 14.7005
5483.68 13.9159
5483.77 13.2118
5483.87 12.5676
5483.96 11.9924
5484.03 11.5502
5484.11 11.1508
5484.19 10.7857
5484.26 10.4522
5484.34 10.1443
5484.41 9.86752
5484.57 9.38650
5484.72 8.98677
5484.87 8.65958
5485.02 8.38845
5485.18 8.16660
5485.33 7.98231
5485.48 7.83072
5485.63 7.70378
5485.79 7.59822
5485.94 7.50861
5486.09 7.43290
5486.40 7.31117
5486.72 7.21239
5487.05 7.13519
5487.37 7.07221
5487.70 7.01964
5488.02 6.97450
5488.35 6.93533
5489.00 6.86990
5489.65 6.81712
5490.30 6.77332
5490.95 6.73616
5491.60 6.70409
5492.25 6.67591
5492.91 6.65086
5494.21 6.60788
5495.51 6.57187
5496.81 6.54085
5498.11 6.51351
5499.41 6.48915
5500.72 6.46729
5502.02 6.44772
5503.64 6.42631
5505.27 6.40857
5506.90 6.39525
5507.71 6.39069
5508.53 6.38795
5509.34 6.38752
5510.15 6.39010
5510.97 6.39673
5511.78 6.40897
5512.59 6.42943
5513.00 6.44403
5513.41 6.46265
5513.81 6.48680
5514.22 6.51881
5514.63 6.56296
5515.03 6.62714
5515.22 6.66658
5515.40 6.71505
5515.58 6.77561
5515.77 6.85207
5515.95 6.94940
5516.13 7.07400
5516.32 7.23403
5516.50 7.43974
5516.59 7.56430
5516.68 7.70379
5516.77 7.86330
5516.87 8.04154
5516.96 8.24484
5517.05 8.47132
5517.14 8.72877
5517.23 9.01453
5517.32 9.33804
5517.41 9.69557
5517.51 10.0985
5517.60 10.5416
5517.69 11.0385
5517.78 11.5821
5517.87 12.1882
5517.96 12.8475
5518.05 13.5370
5518.14 14.2785
5518.22 15.0924
5518.31 15.9629
5518.40 16.9127
5518.48 17.9224
5518.57 19.0177
5518.66 20.1748
5518.74 21.4219
5518.83 22.7311
5518.92 24.1328
5519.00 25.5943
5519.09 27.1484
5519.17 28.7575
5519.26 30.4362
5519.35 32.1812
5519.45 34.3309
5519.55 36.5590
5519.75 41.1849
5520.16 50.8197
5520.38 56.0419
5520.50 58.5439
5520.61 60.9374
5520.76 63.9833
5520.91 66.6941
5521.02 68.4549
5521.14 69.9776
5521.29 71.6790
5521.40 72.6111
5521.51 73.2597
5521.64 73.6616
5521.70 73.7122
5521.83 73.5330
5521.92 73.1840
5522.02 72.5620
5522.10 71.9125
5522.18 71.1362
5522.34 69.1750
5522.47 67.3242
5522.59 65.2334
5522.75 62.1853
5522.91 58.8342
5523.06 55.5773
5523.20 52.2154
5523.49 45.3354
5523.72 39.8850
5523.84 37.2602
5523.96 34.7195
5524.07 32.2578
5524.19 29.9299
5524.30 27.7243
5524.42 25.6483
5524.52 23.9338
5524.62 22.3249
5524.73 20.8223
5524.83 19.4384
5524.93 18.1441
5525.03 16.9510
5525.13 15.8559
5525.23 14.8642
5525.34 13.9517
5525.44 13.1239
5525.54 12.3758
5525.64 11.7083
5525.74 11.1030
5525.84 10.5664
5525.95 10.0829
5526.05 9.65696
5526.15 9.27526
5526.25 8.93764
5526.35 8.63970
5526.45 8.37974
5526.56 8.14881
5526.66 7.94613
5526.76 7.76845
5526.86 7.61425
5526.96 7.47782
5527.07 7.35839
5527.27 7.16301
5527.47 7.01236
5527.67 6.89532
5527.88 6.80295
5528.08 6.72972
5528.29 6.67007
5528.49 6.62106
5528.90 6.54434
5529.30 6.48645
5529.77 6.43426
5530.23 6.39198
5530.70 6.35663
5531.16 6.32644
5532.09 6.27719
5533.02 6.23830
5533.95 6.20644
5534.88 6.17959
5535.81 6.15645
5536.74 6.13621
5538.14 6.10997
5539.53 6.08774
5540.93 6.06907
5541.62 6.06115
5542.32 6.05436
5543.02 6.04902
5543.72 6.04582
5544.06 6.04550
5544.41 6.04658
5544.76 6.04998
5545.11 6.05733
5545.36 6.06662
5545.60 6.08121
5545.85 6.10385
5546.10 6.13852
5546.22 6.16216
5546.35 6.19089
5546.47 6.22623
5546.59 6.26883
5546.72 6.32082
5546.84 6.38294
5546.96 6.45806
5547.09 6.54698
5547.21 6.65343
5547.33 6.77817
5547.46 6.92593
5547.58 7.09720
5547.70 7.29783
5547.83 7.52772
5547.95 7.79387
5548.07 8.09522
5548.20 8.43985
5548.32 8.82519
5548.45 9.26028
5548.57 9.74047
5548.69 10.2755
5548.82 10.8580
5548.94 11.4979
5549.06 12.1848
5549.15 12.6832
5549.23 13.2044
5549.31 13.7478
5549.40 14.3053
5549.56 15.4832
5549.73 16.7242
5550.40 21.9068
5550.54 22.9209
5550.68 23.8783
5550.81 24.7622
5550.95 25.5567
5551.10 26.3150
5551.26 26.9235
5551.34 27.1808
5551.42 27.3899
5551.51 27.5803
5551.59 27.6866
5551.67 27.7436
5551.71 27.7563
5551.71 27.7566
5551.72 27.7569
5551.73 27.7567
5551.75 27.7542
5551.79 27.7418
5551.84 27.7053
5551.90 27.6338
5552.00 27.4625
5552.08 27.2697
5552.16 27.0306
5552.30 26.4933
5552.45 25.8303
5552.59 25.0462
5552.73 24.1678
5552.87 23.2002
5553.02 22.1750
5553.32 19.8569
5553.62 17.5000
5553.77 16.3503
5553.92 15.2503
5554.08 14.2045
5554.15 13.7019
5554.23 13.2227
5554.35 12.4868
5554.47 11.8042
5554.59 11.1701
5554.71 10.5850
5554.83 10.0443
5554.95 9.55608
5555.07 9.11412
5555.19 8.71644
5555.31 8.35788
5555.43 8.04175
5555.55 7.76210
5555.67 7.51603
5555.79 7.30061
5555.91 7.11295
5556.03 6.95022
5556.15 6.80973
5556.27 6.68800
5556.39 6.58465
5556.51 6.49641
5556.63 6.42129
5556.75 6.35701
5556.87 6.30300
5556.99 6.25727
5557.11 6.21857
5557.23 6.18554
5557.35 6.15780
5557.59 6.11414
5557.83 6.08215
5558.07 6.05818
5558.38 6.03552
5558.68 6.01833
5558.98 6.00459
5559.28 5.99314
5559.89 5.97436
5560.49 5.95909
5561.10 5.94601
5561.71 5.93453
5562.92 5.91483
5564.13 5.89808
5565.34 5.88331
5566.55 5.86995
5567.76 5.85764
5569.33 5.84282
5570.89 5.82895
5574.03 5.80326
5577.16 5.77954
5580.30 5.75722
5583.43 5.73597
5586.56 5.71558
5592.83 5.67687
5597.96 5.64683
5603.09 5.61797
5613.34 5.56320
5623.60 5.51163
5633.86 5.46265
5645.25 5.41073
5650.95 5.38564
5656.65 5.36109
5662.35 5.33710
5668.05 5.31374
5670.90 5.30236
5673.74 5.29124
5676.59 5.28046
5679.44 5.27025
5681.72 5.26272
5682.93 5.25907
5684.14 5.25580
5685.36 5.25306
5686.57 5.25110
5687.78 5.25036
5688.38 5.25069
5688.99 5.25172
5689.59 5.25379
5690.20 5.25761
5690.50 5.26067
5690.80 5.26503
5691.11 5.27152
5691.41 5.28142
5691.66 5.29375
5691.91 5.31175
5692.03 5.32377
5692.16 5.33822
5692.28 5.35587
5692.41 5.37705
5692.53 5.40281
5692.66 5.43383
5692.78 5.47107
5692.90 5.51522
5693.03 5.56820
5693.15 5.63049
5693.28 5.70458
5693.40 5.79086
5693.53 5.89247
5693.65 6.01060
5693.78 6.14719
5693.90 6.30287
5694.03 6.48215
5694.15 6.68410
5694.28 6.91385
5694.40 7.16947
5694.52 7.45662
5694.65 7.77462
5694.77 8.12443
5694.90 8.50335
5695.02 8.91753
5695.15 9.35978
5695.27 9.83609
5695.40 10.3370
5695.55 10.9859
5695.70 11.6629
5695.85 12.3692
5696.00 13.0865
5696.31 14.5293
5696.46 15.2305
5696.61 15.8946
5696.74 16.4464
5696.88 16.9498
5697.01 17.4037
5697.14 17.7937
5697.27 18.0989
5697.39 18.3380
5697.53 18.5209
5697.62 18.5998
5697.67 18.6252
5697.73 18.6417
5697.76 18.6427
5697.82 18.6329
5697.87 18.6102
5697.93 18.5688
5698.03 18.4603
5698.13 18.3136
5698.23 18.1281
5698.31 17.9244
5698.40 17.6929
5698.49 17.4301
5698.58 17.1441
5698.69 16.7445
5698.80 16.3146
5698.91 15.8516
5699.02 15.3688
5699.24 14.3475
5699.46 13.2914
5699.70 12.1492
5699.82 11.5928
5699.94 11.0569
5700.06 10.5361
5700.18 10.0383
5700.30 9.56597
5700.42 9.12472
5700.54 8.70844
5700.66 8.32177
5700.78 7.96498
5700.90 7.64049
5701.02 7.34229
5701.14 7.07443
5701.26 6.83124
5701.38 6.61538
5701.47 6.46322
5701.56 6.32614
5701.65 6.20165
5701.74 6.08896
5701.84 5.98725
5701.93 5.89574
5702.02 5.81364
5702.11 5.74021
5702.30 5.61583
5702.48 5.51847
5702.67 5.44253
5702.85 5.38378
5703.03 5.33843
5703.22 5.30398
5703.40 5.27773
5703.59 5.25773
5703.77 5.24244
5703.95 5.23069
5704.14 5.22156
5704.32 5.21436
5704.69 5.20386
5705.06 5.19658
5705.43 5.19109
5705.80 5.18666
5706.53 5.17968
5707.27 5.17426
5707.86 5.17070
5708.45 5.16773
5709.04 5.16535
5709.63 5.16378
5709.94 5.16348
5710.25 5.16384
5710.57 5.16527
5710.88 5.16845
5711.04 5.17104
5711.19 5.17452
5711.35 5.17917
5711.51 5.18523
5711.66 5.19312
5711.82 5.20317
5711.98 5.21599
5712.13 5.23199
5712.29 5.25202
5712.44 5.27654
5712.60 5.30665
5712.76 5.34280
5712.91 5.38636
5713.07 5.43765
5713.23 5.49821
5713.38 5.56809
5713.54 5.64893
5713.70 5.74026
5713.85 5.84364
5714.01 5.95789
5714.17 6.08429
5714.32 6.22073
5714.48 6.36804
5714.64 6.52306
5714.79 6.68603
5714.95 6.85385
5715.26 7.19244
5715.42 7.35832
5715.58 7.51623
5715.73 7.66484
5715.89 7.79897
5716.02 7.89747
5716.15 7.98301
5716.28 8.05414
5716.40 8.10929
5716.50 8.13889
5716.59 8.15977
5716.69 8.17246
5716.75 8.17484
5716.76 8.17485
5716.80 8.17400
5716.83 8.17199
5716.91 8.16246
5717.07 8.12374
5717.24 8.05385
5717.41 7.95739
5717.52 7.87998
5717.63 7.79375
5717.74 7.69908
5717.85 7.59708
5718.07 7.37577
5718.29 7.13930
5718.63 6.76878
5718.80 6.58775
5718.97 6.41371
5719.14 6.24912
5719.31 6.09586
5719.48 5.95525
5719.65 5.82803
5719.82 5.71449
5719.99 5.61447
5720.16 5.52746
5720.33 5.45269
5720.50 5.38920
5720.67 5.33590
5720.84 5.29165
5721.01 5.25549
5721.17 5.22794
5721.33 5.20537
5721.48 5.18703
5721.64 5.17222
5721.80 5.16035
5721.96 5.15089
5722.11 5.14338
5722.27 5.13749
5722.43 5.13281
5722.58 5.12913
5722.90 5.12396
5723.21 5.12070
5723.52 5.11861
5724.20 5.11615
5724.88 5.11507
5726.24 5.11509
5727.60 5.11766
5728.96 5.12334
5730.32 5.13346
5731.68 5.15028
5732.36 5.16236
5733.04 5.17787
5733.72 5.19797
5734.40 5.22435
5734.92 5.25066
5735.44 5.28436
5735.97 5.32901
5736.49 5.39137
5736.75 5.43347
5737.01 5.48649
5737.27 5.55566
5737.54 5.64762
5737.80 5.77369
5737.93 5.85398
5738.06 5.94816
5738.19 6.06059
5738.32 6.19294
5738.45 6.35122
5738.58 6.53756
5738.71 6.76012
5738.84 7.02358
5738.97 7.33475
5739.10 7.69813
5739.23 8.12758
5739.37 8.62958
5739.50 9.21387
5739.63 9.88520
5739.69 10.2643
5739.76 10.6646
5739.82 11.0999
5739.89 11.5583
5739.95 12.0553
5740.02 12.5772
5740.08 13.1327
5740.15 13.7230
5740.22 14.3592
5740.28 15.0233
5740.35 15.7369
5740.41 16.4793
5740.48 17.2744
5740.54 18.0989
5740.61 18.9653
5740.67 19.8742
5740.74 20.8859
5740.81 21.9462
5740.88 23.0553
5740.95 24.1958
5741.02 25.4010
5741.08 26.6353
5741.22 29.2583
5741.36 32.0750
5741.50 35.0288
5741.63 38.1186
5741.77 41.3185
5742.06 48.2600
5742.35 55.1702
5742.55 59.9634
5742.66 62.2345
5742.76 64.3654
5742.91 67.0831
5743.05 69.4840
5743.14 70.7332
5743.22 71.8468
5743.36 73.3929
5743.51 74.5083
5743.64 75.1278
5743.77 75.3322
5743.90 75.1485
5744.02 74.6544
5744.13 73.8641
5744.25 72.7745
5744.36 71.4833
5744.47 69.9716
5744.58 68.1455
5744.70 66.1046
5744.89 62.3513
5745.07 58.2296
5745.35 51.8319
5745.62 45.2471
5745.85 39.7538
5745.96 37.1102
5746.08 34.5508
5746.19 32.0901
5746.31 29.7399
5746.42 27.5097
5746.54 25.4066
5746.65 23.5179
5746.76 21.7520
5746.87 20.1093
5746.92 19.3339
5746.98 18.5889
5747.03 17.8739
5747.09 17.1886
5747.20 15.9050
5747.31 14.7338
5747.42 13.6792
5747.53 12.7162
5747.64 11.8489
5747.75 11.0709
5747.86 10.3758
5747.97 9.75704
5748.08 9.20817
5748.19 8.72292
5748.30 8.29892
5748.40 7.93873
5748.51 7.62110
5748.61 7.34162
5748.72 7.09835
5748.82 6.88286
5748.93 6.69415
5749.03 6.52905
5749.13 6.38597
5749.24 6.25961
5749.34 6.14911
5749.55 5.96848
5749.76 5.82924
5749.97 5.72092
5750.18 5.63524
5750.39 5.56706
5750.60 5.51157
5750.81 5.46556
5751.23 5.39324
5751.65 5.33854
5752.17 5.28524
5752.69 5.24318
5753.22 5.20879
5753.74 5.18004
5754.26 5.15559
5754.78 5.13451
5755.83 5.09992
5756.88 5.07256
5757.92 5.05025
5758.97 5.03150
5760.02 5.01538
5761.36 4.99757
5762.69 4.98213
5764.03 4.96844
5765.37 4.95609
5768.05 4.93422
5770.73 4.91486
5773.41 4.89704
5776.09 4.88029
5778.77 4.86427
5781.45 4.84875
5786.80 4.81858
5790.32 4.79913
5793.83 4.77984
5797.35 4.76073
5800.87 4.74188
5804.38 4.72352
5806.14 4.71468
5807.90 4.70622
5809.66 4.69828
5811.41 4.69115
5813.17 4.68532
5814.93 4.68161
5816.27 4.68104
5817.27 4.68255
5818.28 4.68651
5819.28 4.69416
5820.29 4.70758
5820.79 4.71759
5821.29 4.73081
5821.79 4.74871
5822.30 4.77404
5822.55 4.79121
5822.80 4.81281
5823.05 4.84082
5823.30 4.87810
5823.55 4.92891
5823.80 4.99946
5824.05 5.09865
5824.18 5.16301
5824.31 5.23898
5824.47 5.36413
5824.64 5.52064
5824.81 5.71805
5824.98 5.96292
5825.06 6.10760
5825.14 6.26856
5825.23 6.44732
5825.31 6.64301
5825.39 6.86201
5825.48 7.10384
5825.56 7.37031
5825.65 7.65967
5825.73 7.98078
5825.81 8.33227
5825.90 8.71611
5825.98 9.12908
5826.06 9.58304
5826.15 10.0751
5826.23 10.6072
5826.32 11.1738
5826.40 11.7902
5826.48 12.4514
5826.57 13.1585
5826.65 13.9034
5826.73 14.7047
5826.82 15.5440
5826.90 16.4416
5826.98 17.3761
5827.06 18.2486
5827.13 19.1452
5827.20 20.0766
5827.28 21.0417
5827.42 23.0816
5827.57 25.2232
5827.72 27.4772
5827.86 29.7901
5828.16 34.5422
5828.45 39.2185
5828.60 41.4424
5828.74 43.5183
5828.92 45.8144
5829.01 46.8465
5829.10 47.7909
5829.21 48.8699
5829.33 49.7769
5829.45 50.5593
5829.57 51.0702
5829.68 51.3711
5829.79 51.4844
5829.80 51.4853
5829.82 51.4812
5829.85 51.4674
5829.90 51.4089
5830.00 51.1832
5830.10 50.7969
5830.21 50.2034
5830.31 49.5057
5830.41 48.6692
5830.56 47.2209
5830.70 45.5266
5830.82 43.9848
5830.94 42.3362
5831.06 40.5892
5831.18 38.7647
5831.38 35.5493
5831.59 32.2703
5831.79 29.0194
5831.99 25.8912
5832.10 24.2335
5832.21 22.6511
5832.32 21.1358
5832.43 19.6936
5832.54 18.3287
5832.65 17.0441
5832.76 15.8417
5832.87 14.7221
5832.98 13.6759
5833.09 12.7207
5833.20 11.8445
5833.31 11.0447
5833.42 10.3179
5833.53 9.66046
5833.64 9.06834
5833.75 8.53730
5833.82 8.23342
5833.89 7.95078
5833.96 7.68829
5834.03 7.44487
5834.16 7.01105
5834.30 6.64356
5834.44 6.32927
5834.58 6.06560
5834.71 5.84207
5834.85 5.65596
5834.99 5.49920
5835.13 5.36848
5835.27 5.25961
5835.40 5.16959
5835.54 5.09399
5835.68 5.03133
5835.95 4.93434
5836.23 4.86482
5836.50 4.81399
5836.78 4.77540
5837.05 4.74504
5837.60 4.69950
5838.15 4.66606
5838.60 4.64449
5839.04 4.62623
5839.92 4.59678
5840.80 4.57456
5841.24 4.56600
5841.68 4.55964
5842.05 4.55691
5842.41 4.55824
5842.60 4.56131
5842.78 4.56668
5842.96 4.57518
5843.15 4.58773
5843.33 4.60576
5843.51 4.63068
5843.70 4.66481
5843.88 4.71022
5844.06 4.77035
5844.25 4.84798
5844.43 4.94792
5844.61 5.07343
5844.77 5.20455
5844.93 5.36110
5845.08 5.54619
5845.24 5.76287
5845.39 6.01399
5845.55 6.30206
5845.63 6.46060
5845.71 6.62908
5845.78 6.80765
5845.86 6.99640
5845.94 7.19535
5846.02 7.40448
5846.10 7.62368
5846.17 7.85279
5846.33 8.33961
5846.49 8.86193
5846.64 9.41535
5846.80 9.99407
5847.11 11.1972
5847.34 12.0880
5847.57 12.9405
5847.68 13.3442
5847.80 13.7255
5847.91 14.0798
5848.03 14.4002
5848.12 14.6240
5848.20 14.8232
5848.29 14.9992
5848.38 15.1505
5848.46 15.2760
5848.55 15.3748
5848.65 15.4542
5848.71 15.4822
5848.77 15.5002
5848.80 15.5037
5848.81 15.5039
5848.83 15.5037
5848.84 15.5023
5848.88 15.4964
5848.95 15.4704
5849.04 15.4086
5849.12 15.3307
5849.20 15.2318
5849.35 14.9673
5849.51 14.6250
5849.60 14.3909
5849.70 14.1343
5849.88 13.5655
5850.06 12.9300
5850.25 12.2532
5850.74 10.3298
5850.87 9.85643
5850.99 9.39936
5851.12 8.95479
5851.24 8.53278
5851.37 8.12891
5851.49 7.75146
5851.62 7.39564
5851.74 7.06791
5851.86 6.76327
5851.99 6.48649
5852.11 6.23261
5852.24 6.00491
5852.34 5.83014
5852.45 5.67113
5852.55 5.52706
5852.66 5.39707
5852.76 5.28023
5852.87 5.17561
5852.97 5.08229
5853.08 5.00008
5853.18 4.92651
5853.29 4.86153
5853.50 4.75409
5853.71 4.67166
5853.92 4.60920
5854.13 4.56169
5854.34 4.52580
5854.55 4.49864
5854.75 4.47801
5854.96 4.46198
5855.17 4.44937
5855.38 4.43920
5855.59 4.43083
5856.01 4.41742
5856.43 4.40675
5857.27 4.38937
5858.11 4.37467
5858.95 4.36149
5859.79 4.34930
5860.63 4.33785
5862.31 4.31655
5863.30 4.30475
5864.30 4.29363
5865.30 4.28329
5866.29 4.27407
5867.29 4.26668
5867.79 4.26418
5868.28 4.26319
5868.78 4.26511
5869.03 4.26810
5869.28 4.27336
5869.53 4.28204
5869.78 4.29586
5870.03 4.31729
5870.15 4.33197
5870.28 4.34986
5870.49 4.38953
5870.70 4.44440
5870.91 4.51925
5871.12 4.61938
5871.22 4.68146
5871.33 4.75269
5871.43 4.83409
5871.54 4.92678
5871.64 5.03188
5871.75 5.15060
5871.85 5.28414
5871.95 5.43224
5872.06 5.59895
5872.16 5.78414
5872.27 5.98895
5872.37 6.21447
5872.48 6.46167
5872.58 6.73142
5872.69 7.02440
5872.79 7.33797
5872.90 7.67845
5873.00 8.04295
5873.11 8.43121
5873.21 8.84267
5873.32 9.27642
5873.42 9.73119
5873.53 10.2054
5873.63 10.6922
5873.78 11.3950
5873.92 12.1140
5874.21 13.5794
5874.50 15.0178
5874.64 15.6939
5874.79 16.3274
5874.90 16.7831
5875.01 17.1971
5875.12 17.5689
5875.23 17.8941
5875.35 18.1843
5875.47 18.4133
5875.61 18.5994
5875.68 18.6595
5875.74 18.6941
5875.81 18.7059
5875.81 18.7060
5875.82 18.7060
5875.82 18.7058
5875.83 18.7052
5875.85 18.7031
5875.88 18.6948
5875.94 18.6697
5876.01 18.6093
5876.13 18.4659
5876.23 18.2789
5876.34 18.0439
5876.44 17.7736
5876.54 17.4626
5876.64 17.1141
5876.74 16.7353
5876.87 16.2200
5876.99 15.6653
5877.12 15.0786
5877.24 14.4728
5877.74 11.9483
5877.91 11.0907
5878.08 10.2678
5878.17 9.87086
5878.26 9.49118
5878.34 9.12512
5878.43 8.77352
5878.52 8.43322
5878.60 8.11256
5878.69 7.80444
5878.78 7.51618
5878.86 7.24117
5878.95 6.98570
5879.03 6.74640
5879.12 6.52305
5879.21 6.31301
5879.29 6.12074
5879.38 5.94136
5879.47 5.77849
5879.55 5.62787
5879.64 5.49242
5879.73 5.36982
5879.81 5.25956
5879.90 5.16006
5879.98 5.07311
5880.07 4.99706
5880.16 4.93150
5880.24 4.87547
5880.33 4.82996
5880.50 4.76740
5880.66 4.74279
5880.81 4.74753
5880.96 4.78225
5881.12 4.84782
5881.27 4.94718
5881.42 5.08180
5881.58 5.25690
5881.73 5.47419
5881.87 5.72206
5882.02 6.01594
5882.09 6.18137
5882.16 6.35977
5882.23 6.55163
5882.31 6.75741
5882.38 6.97754
5882.45 7.21242
5882.52 7.46244
5882.59 7.72791
5882.67 8.00910
5882.74 8.30625
5882.81 8.61949
5882.88 8.94892
5882.95 9.29454
5883.03 9.65626
5883.10 10.0339
5883.17 10.4272
5883.24 10.8359
5883.31 11.2593
5883.46 12.1482
5883.60 13.0879
5883.75 14.0705
5884.03 16.1165
5884.24 17.6483
5884.45 19.1525
5884.67 20.5791
5884.77 21.2503
5884.88 21.8769
5884.97 22.4112
5885.07 22.9043
5885.16 23.3521
5885.26 23.7510
5885.37 24.1306
5885.47 24.4402
5885.59 24.7019
5885.67 24.8398
5885.73 24.9007
5885.80 24.9560
5885.81 24.9607
5885.82 24.9619
5885.83 24.9653
5885.84 24.9680
5885.86 24.9715
5885.90 24.9707
5885.97 24.9430
5886.05 24.8694
5886.18 24.6723
5886.28 24.4353
5886.39 24.1349
5886.49 23.7752
5886.60 23.3611
5886.70 22.8979
5886.81 22.3912
5887.03 21.1875
5887.26 19.8739
5887.71 17.1562
5887.89 16.1096
5888.07 15.1177
5888.25 14.1946
5888.43 13.3497
5888.54 12.8780
5888.65 12.4367
5888.76 12.0253
5888.86 11.6465
5888.97 11.2917
5889.08 10.9631
5889.19 10.6586
5889.30 10.3786
5889.39 10.1602
5889.61 9.66445
5889.71 9.46715
5889.79 9.31282
5889.82 9.26569
5889.83 9.24138
5889.86 9.17653
5889.90 9.11436
5889.98 8.96388
5890.16 8.65668
5890.42 8.23251
5890.67 7.81812
5891.11 7.12594
5891.54 6.45421
5891.76 6.13485
5891.97 5.83448
5892.19 5.55437
5892.30 5.42407
5892.40 5.30023
5892.52 5.17151
5892.64 5.05204
5892.76 4.94078
5892.88 4.83770
5893.00 4.74190
5893.11 4.65481
5893.23 4.57531
5893.35 4.50306
5893.47 4.43718
5893.59 4.37835
5893.71 4.32556
5893.82 4.27836
5894.06 4.19890
5894.30 4.13643
5894.53 4.08747
5894.77 4.04949
5895.00 4.01978
5895.24 3.99628
5895.48 3.97732
5895.71 3.96180
5895.95 3.94868
5896.19 3.93728
5896.66 3.91777
5897.13 3.90090
5898.08 3.87086
5899.02 3.84330
5899.97 3.81710
5901.54 3.77505
5903.12 3.73395
5904.69 3.69297
5906.27 3.65162
5909.42 3.56627
5912.57 3.47579
5916.03 3.36829
5919.50 3.25046
5922.97 3.11999
5926.43 2.97434
5929.74 2.81823
5931.39 2.73291
5933.05 2.64210
5934.70 2.54530
5936.35 2.44193
5938.01 2.33139
5939.66 2.21299
5941.40 2.07962
5943.13 1.93581
5944.86 1.78073
5945.73 1.69868
5946.59 1.61364
5947.54 1.51719
5948.49 1.41711
5949.43 1.31339
5950.38 1.20623
5951.32 1.09600
5952.27 0.983349
5953.21 0.869292
5954.16 0.755398
5954.83 0.676006
5955.49 0.599189
5956.16 0.526342
5956.83 0.459885
5957.17 0.429863
5957.50 0.402620
5957.84 0.378706
5958.17 0.358824
5958.51 0.343616
5958.84 0.334053
5959.18 0.331204
5959.51 0.336313
5959.73 0.344589
5959.95 0.357323
5960.16 0.375055
5960.38 0.398273
5960.63 0.433924
5960.89 0.479639
5961.15 0.536932
5961.40 0.607581
5961.62 0.679466
5961.84 0.763921
5962.05 0.862659
5962.27 0.977096
5962.49 1.11060
5962.70 1.26461
5962.81 1.35131
5962.92 1.44374
5963.03 1.54313
5963.14 1.65003
5963.24 1.76609
5963.35 1.88983
5963.46 2.02294
5963.57 2.16616
5963.68 2.32180
5963.79 2.48788
5963.89 2.66676
5964.00 2.85951
5964.11 3.06928
5964.22 3.29354
5964.33 3.53554
5964.43 3.79682
5964.54 4.08181
5964.65 4.38714
5964.76 4.71739
5964.87 5.07480
5964.93 5.30040
5965.00 5.53695
5965.06 5.78502
5965.12 6.04523
5965.19 6.31821
5965.25 6.60466
5965.32 6.90528
5965.38 7.22083
5965.44 7.55210
5965.51 7.89992
5965.57 8.26517
5965.64 8.64875
5965.70 9.05164
5965.76 9.47485
5965.83 9.91942
5965.89 10.3865
5966.00 11.2369
5966.11 12.1531
5966.22 13.1488
5966.32 14.2308
5966.43 15.4175
5966.54 16.6947
5966.65 18.0809
5966.76 19.5845
5966.87 21.2299
5966.97 22.9961
5967.08 24.9252
5967.19 26.9914
5967.30 29.2430
5967.41 31.6483
5967.52 34.2370
5967.62 37.0184
5967.73 40.0305
5967.84 43.2267
5967.95 46.6419
5968.06 50.2834
5968.17 54.1947
5968.27 58.3093
5968.38 62.6659
5968.49 67.2670
5968.60 72.1593
5968.71 77.2518
5968.82 82.5850
5968.92 88.1533
5969.03 94.0035
5969.14 100.018
5969.36 112.640
5969.57 125.997
5969.79 139.783
5970.01 153.898
5970.22 167.949
5970.46 183.332
5970.71 197.911
5970.83 204.761
5970.95 211.243
5971.07 217.306
5971.19 222.856
5971.35 229.576
5971.52 235.261
5971.68 239.829
5971.84 243.214
5972.00 245.377
5972.14 246.219
5972.27 246.238
5972.40 245.442
5972.53 243.864
5972.67 241.510
5972.80 238.452
5972.93 234.690
5973.06 230.331
5973.21 225.013
5973.35 219.159
5973.63 206.004
5973.91 191.512
5974.20 176.368
5974.48 160.714
5974.63 153.026
5974.77 145.487
5974.92 138.091
5975.06 130.981
5975.21 124.135
5975.35 117.577
5975.49 111.283
5975.64 105.352
5975.78 99.7435
5975.93 94.4602
5976.07 89.4986
5976.21 84.8523
5976.36 80.5118
5976.50 76.4655
5976.61 73.6930
5976.71 71.0642
5976.92 66.2144
5977.13 61.8677
5977.34 57.9755
5977.55 54.4904
5977.76 51.3674
5977.97 48.5651
5978.18 46.0569
5978.33 44.4634
5978.47 42.9882
5978.61 41.6109
5978.76 40.3230
5979.05 37.9783
5979.34 35.9174
5979.62 34.0824
5979.91 32.4503
5980.20 30.9805
5980.49 29.6592
5980.78 28.4575
5981.07 27.3673
5981.36 26.3674
5981.64 25.4532
5981.93 24.6087
5982.22 23.8316
5982.51 23.1094
5982.80 22.4411
5983.32 21.3381
5983.85 20.3642
5984.37 19.4951
5984.90 18.7179
5985.42 18.0163
5985.94 17.3824
5986.47 16.8059
5986.99 16.2795
5987.57 15.7506
5988.15 15.2681
5988.72 14.8263
5989.30 14.4203
5990.45 13.7001
5991.61 13.0810
5992.34 12.7303
5993.08 12.4090
5993.81 12.1135
5994.55 11.8417
5995.28 11.5935
5995.65 11.4800
5996.01 11.3753
5996.38 11.2816
5996.75 11.2020
5997.12 11.1403
5997.30 11.1176
5997.48 11.1010
5997.80 11.0884
5998.11 11.0978
5998.43 11.1309
5998.74 11.1878
5999.06 11.2680
5999.37 11.3686
5999.69 11.4864
6000.00 11.6154
6000.00 12.6183
7200.00 12.0090
7800.00 11.7621
8500.00 11.5103
10000.0 11.0699
12500.0 10.5366
14000.0 10.2952
15000.0 10.1575
17000.0 9.92448
20000.0 9.65291
25000.0 9.33276
30000.0 9.11253
35000.0 8.95264
40000.0 8.83191
45000.0 8.73796
50000.0 8.66301
60000.0 8.55138
67500.0 8.48982
72000.0 8.45910
85000.0 8.38821
99999.9 8.32733
100000 8.09300
150000 7.94730
200000 7.82250
300000 7.59000
400000 7.50300
500000 7.39000
600000 7.27600
620000 7.24700
639000 7.21950
640000 7.21867
660000 7.18901
680000 7.16035
700000 7.13169
800000 6.98740
874000 6.87984
874096 6.87971
1.00000E+06 6.69700
1.20000E+06 6.44240
1.40000E+06 6.18380
1.50000E+06 6.05450
1.52000E+06 6.02912
1.52008E+06 6.02896
1.60000E+06 5.92596
1.62000E+06 5.90069
1.62000E+06 5.90068
1.74000E+06 5.74916
1.74012E+06 5.74893
1.80000E+06 5.67323
1.93000E+06 5.51413
1.93088E+06 5.51260
2.00000E+06 5.42762
2.17000E+06 5.23975
2.17010E+06 5.23961
2.18000E+06 5.22877
2.18019E+06 5.22847
2.22000E+06 5.18535
2.26000E+06 5.14066
2.29700E+06 5.09991
2.29728E+06 5.09960
2.39000E+06 4.99752
2.39014E+06 4.99729
2.50000E+06 4.87633
2.50026E+06 4.87581
3.00000E+06 4.44274
3.50000E+06 4.16541
4.00000E+06 4.00882
4.50000E+06 3.95152
5.00000E+06 3.95770
5.96700E+06 4.02733
5.96747E+06 4.02735
6.00000E+06 4.02900
6.25600E+06 4.06634
6.25655E+06 4.06642
7.00000E+06 4.17399
8.00000E+06 4.26759
8.21600E+06 4.29107
8.21670E+06 4.29115
9.00000E+06 4.37556
9.28700E+06 4.39454
9.28782E+06 4.39460
1.00000E+07 4.44170
1.04300E+07 4.45294
1.04306E+07 4.45286
1.10000E+07 4.46690
1.20000E+07 4.49277
1.30000E+07 4.43723
1.40000E+07 4.38095
1.50000E+07 4.31854
1.56000E+07 4.28005
1.56015E+07 4.27995
1.60000E+07 4.25505
1.70000E+07 4.18758
1.72900E+07 4.16840
1.72912E+07 4.16832
1.80000E+07 4.12117
1.84300E+07 4.08685
1.84317E+07 4.08671
1.90000E+07 4.04072
2.00000E+07 3.95946
