B-11(n,tot) ENDFB-8.0
Energy(eV) XS(b)
1.00000E-05 84.4464
1.03125E-05 83.1607
1.06250E-05 81.9322
1.09375E-05 80.7568
1.12500E-05 79.6308
1.15625E-05 78.5508
1.18750E-05 77.5137
1.21875E-05 76.5168
1.25000E-05 75.5576
1.28122E-05 74.6346
1.31244E-05 73.7447
1.34366E-05 72.8861
1.37489E-05 72.0569
1.43733E-05 70.4805
1.49977E-05 69.0037
1.50000E-05 68.9985
1.50073E-05 68.9817
1.50147E-05 68.9649
1.50293E-05 68.9314
1.50586E-05 68.8646
1.51172E-05 68.7316
1.52344E-05 68.4679
1.54688E-05 67.9494
1.59375E-05 66.9471
1.64063E-05 65.9881
1.68750E-05 65.0694
1.68859E-05 65.0485
1.69243E-05 64.9750
1.69627E-05 64.9018
1.70394E-05 64.7562
1.71930E-05 64.4678
1.75000E-05 63.9025
1.81250E-05 62.7965
1.87500E-05 61.7464
1.93750E-05 60.7477
2.00000E-05 59.7962
2.09375E-05 58.4498
2.09443E-05 58.4403
2.09699E-05 58.4048
2.09955E-05 58.3694
2.10467E-05 58.2988
2.11492E-05 58.1582
2.13540E-05 57.8802
2.17638E-05 57.3361
2.25832E-05 56.2927
2.34027E-05 55.3047
2.42222E-05 54.3674
2.50416E-05 53.4765
2.58611E-05 52.6284
2.66805E-05 51.8199
2.75000E-05 51.0478
2.84281E-05 50.2140
2.93563E-05 49.4203
3.02844E-05 48.6634
3.12125E-05 47.9406
3.21406E-05 47.2494
3.30688E-05 46.5877
3.39969E-05 45.9533
3.49250E-05 45.3444
3.50000E-05 45.2963
3.52344E-05 45.1469
3.54688E-05 44.9989
3.59375E-05 44.7074
3.68750E-05 44.1412
3.78125E-05 43.5962
3.87500E-05 43.0712
3.96875E-05 42.5650
4.06250E-05 42.0765
4.25000E-05 41.1486
4.43750E-05 40.2804
4.62500E-05 39.4657
4.81250E-05 38.6993
5.00000E-05 37.9767
5.15625E-05 37.4049
5.31250E-05 36.8587
5.46875E-05 36.3362
5.62500E-05 35.8358
5.78125E-05 35.3558
5.93750E-05 34.8951
6.09375E-05 34.4522
6.25000E-05 34.0262
6.40625E-05 33.6160
6.56250E-05 33.2206
6.71875E-05 32.8391
6.87500E-05 32.4708
7.18750E-05 31.7708
7.50000E-05 31.1152
7.81250E-05 30.4997
8.12500E-05 29.9203
8.43750E-05 29.3736
8.75000E-05 28.8568
9.06250E-05 28.3670
9.37500E-05 27.9022
9.68750E-05 27.4603
0.000100000 27.0394
0.000103125 26.6380
0.000106250 26.2546
0.000109375 25.8879
0.000112500 25.5367
0.000115625 25.2000
0.000118750 24.8768
0.000121875 24.5663
0.000125000 24.2676
0.000128122 23.9803
0.000131244 23.7035
0.000134366 23.4364
0.000137489 23.1787
0.000143733 22.6888
0.000149977 22.2303
0.000150000 22.2287
0.000150073 22.2235
0.000150147 22.2183
0.000150293 22.2079
0.000150586 22.1872
0.000151172 22.1459
0.000152344 22.0641
0.000154688 21.9032
0.000159375 21.5924
0.000164063 21.2952
0.000168750 21.0107
0.000168859 21.0042
0.000169243 20.9815
0.000169627 20.9588
0.000170394 20.9137
0.000171930 20.8245
0.000175000 20.6495
0.000181250 20.3075
0.000187500 19.9830
0.000193750 19.6745
0.000200000 19.3809
0.000209375 18.9659
0.000209443 18.9630
0.000209699 18.9521
0.000209955 18.9411
0.000210467 18.9194
0.000211492 18.8761
0.000213540 18.7905
0.000217638 18.6230
0.000225832 18.3020
0.000234027 17.9984
0.000242222 17.7106
0.000250416 17.4374
0.000258611 17.1775
0.000266805 16.9301
0.000275000 16.6940
0.000284281 16.4393
0.000293563 16.1971
0.000302844 15.9665
0.000312125 15.7464
0.000321406 15.5363
0.000330688 15.3353
0.000339969 15.1428
0.000349250 14.9583
0.000350000 14.9437
0.000352344 14.8985
0.000354688 14.8537
0.000359375 14.7655
0.000368750 14.5943
0.000378125 14.4297
0.000387500 14.2714
0.000396875 14.1188
0.000406250 13.9718
0.000425000 13.6930
0.000443750 13.4327
0.000462500 13.1890
0.000481250 12.9603
0.000500000 12.7451
0.000515625 12.5752
0.000531250 12.4132
0.000546875 12.2584
0.000562500 12.1105
0.000578125 11.9690
0.000593750 11.8333
0.000609375 11.7031
0.000625000 11.5781
0.000640625 11.4580
0.000656250 11.3424
0.000671875 11.2311
0.000687500 11.1238
0.000718750 10.9205
0.000750000 10.7307
0.000781250 10.5532
0.000812500 10.3867
0.000843750 10.2302
0.000875000 10.0827
0.000906250 9.94347
0.000937500 9.81178
0.000968750 9.68700
0.00100000 9.56859
0.00103125 9.45604
0.00106250 9.34891
0.00109375 9.24680
0.00112500 9.14935
0.00115625 9.05625
0.00118750 8.96718
0.00121875 8.88189
0.00125000 8.80013
0.00128122 8.72175
0.00131244 8.64647
0.00134366 8.57410
0.00137489 8.50447
0.00143733 8.37282
0.00149977 8.25039
0.00150000 8.24995
0.00150073 8.24857
0.00150147 8.24718
0.00150293 8.24442
0.00150586 8.23890
0.00151172 8.22793
0.00152344 8.20619
0.00154688 8.16354
0.00159375 8.08143
0.00164063 8.00328
0.00168750 7.92883
0.00168859 7.92714
0.00169243 7.92120
0.00169627 7.91529
0.00170394 7.90353
0.00171930 7.88029
0.00175000 7.83484
0.00181250 7.74639
0.00187500 7.66300
0.00193750 7.58423
0.00200000 7.50971
0.00209375 7.40516
0.00209443 7.40443
0.00209699 7.40169
0.00209955 7.39895
0.00210467 7.39350
0.00211492 7.38266
0.00213540 7.36126
0.00217638 7.31950
0.00225832 7.23996
0.00234027 7.16530
0.00242222 7.09508
0.00250416 7.02890
0.00258611 6.96644
0.00266805 6.90739
0.00275000 6.85147
0.00284281 6.79161
0.00293563 6.73515
0.00302844 6.68180
0.00312125 6.63131
0.00321406 6.58346
0.00330688 6.53805
0.00339969 6.49489
0.00349250 6.45383
0.00350000 6.45060
0.00352344 6.44058
0.00354688 6.43069
0.00359375 6.41125
0.00368750 6.37374
0.00378125 6.33794
0.00387500 6.30374
0.00396875 6.27104
0.00406250 6.23973
0.00425000 6.18098
0.00443750 6.12687
0.00462500 6.07688
0.00481250 6.03056
0.00500000 5.98753
0.00515625 5.95393
0.00531250 5.92222
0.00546875 5.89223
0.00562500 5.86384
0.00578125 5.83692
0.00593750 5.81136
0.00609375 5.78706
0.00625000 5.76393
0.00640625 5.74189
0.00656250 5.72087
0.00671875 5.70079
0.00687500 5.68160
0.00718750 5.64566
0.00750000 5.61264
0.00781250 5.58220
0.00812500 5.55406
0.00843750 5.52796
0.00875000 5.50370
0.00906250 5.48108
0.00937500 5.45996
0.00968750 5.44018
0.0100000 5.42162
0.0103076 5.40444
0.0106151 5.38825
0.0109227 5.37297
0.0112303 5.35851
0.0112500 5.35761
0.0113281 5.35408
0.0114063 5.35059
0.0115625 5.34375
0.0118750 5.33062
0.0121875 5.31816
0.0125000 5.30632
0.0131250 5.28432
0.0137500 5.26430
0.0143750 5.24603
0.0150000 5.22926
0.0156250 5.21384
0.0162500 5.19960
0.0168750 5.18641
0.0175000 5.17416
0.0181231 5.16278
0.0187462 5.15216
0.0187500 5.15210
0.0187598 5.15194
0.0187695 5.15178
0.0187891 5.15146
0.0188281 5.15082
0.0189063 5.14955
0.0190625 5.14703
0.0193750 5.14213
0.0200000 5.13279
0.0206625 5.12350
0.0213250 5.11479
0.0219875 5.10660
0.0226500 5.09889
0.0239750 5.08474
0.0253000 5.07207
0.0261684 5.06446
0.0270367 5.05733
0.0279051 5.05065
0.0287734 5.04437
0.0305102 5.03288
0.0322469 5.02263
0.0339836 5.01342
0.0357203 5.00510
0.0374570 4.99755
0.0391938 4.99067
0.0405445 4.98572
0.0418953 4.98110
0.0445969 4.97268
0.0472984 4.96521
0.0500000 4.95856
0.0531250 4.95170
0.0562500 4.94559
0.0593750 4.94013
0.0625000 4.93521
0.0656250 4.93076
0.0687500 4.92671
0.0718750 4.92302
0.0750000 4.91962
0.0781250 4.91650
0.0812500 4.91362
0.0843750 4.91095
0.0875000 4.90847
0.0937500 4.90400
0.100000 4.90009
0.106250 4.89664
0.112500 4.89356
0.118750 4.89081
0.125000 4.88833
0.131244 4.88609
0.137489 4.88405
0.143733 4.88219
0.149977 4.88048
0.150000 4.88047
0.150073 4.88045
0.150147 4.88044
0.150293 4.88040
0.150586 4.88032
0.151172 4.88017
0.152344 4.87987
0.154688 4.87928
0.159375 4.87816
0.168750 4.87610
0.168859 4.87608
0.169243 4.87600
0.169627 4.87592
0.170394 4.87576
0.171929 4.87545
0.175000 4.87485
0.187500 4.87259
0.200000 4.87062
0.209375 4.86929
0.209443 4.86928
0.209699 4.86925
0.209955 4.86921
0.210467 4.86914
0.211492 4.86901
0.213540 4.86874
0.217638 4.86821
0.225832 4.86722
0.242222 4.86544
0.258611 4.86389
0.275000 4.86251
0.293563 4.86114
0.312125 4.85993
0.330688 4.85886
0.349250 4.85789
0.350000 4.85786
0.352344 4.85774
0.354688 4.85763
0.359375 4.85741
0.368750 4.85699
0.387500 4.85620
0.406250 4.85548
0.425000 4.85483
0.462500 4.85368
0.500000 4.85270
0.531250 4.85199
0.562500 4.85136
0.593750 4.85079
0.625000 4.85028
0.687500 4.84939
0.750000 4.84865
0.812500 4.84803
0.875000 4.84749
0.937500 4.84702
1.00000 4.84661
1.06250 4.84625
1.12500 4.84592
1.25000 4.84537
1.37489 4.84492
1.49977 4.84454
1.50000 4.84454
1.50073 4.84453
1.50147 4.84453
1.50293 4.84453
1.50586 4.84452
1.51172 4.84450
1.52344 4.84447
1.54688 4.84441
1.59375 4.84429
1.68750 4.84407
1.68859 4.84407
1.75000 4.84394
1.87500 4.84370
2.00000 4.84349
2.09375 4.84334
2.09443 4.84334
2.09699 4.84334
2.09955 4.84333
2.10467 4.84333
2.11492 4.84331
2.13540 4.84328
2.17638 4.84323
2.25832 4.84312
2.42222 4.84293
2.58611 4.84276
2.75000 4.84261
2.93563 4.84246
3.12125 4.84233
3.49250 4.84211
3.50000 4.84211
3.52344 4.84209
3.54688 4.84208
3.59375 4.84206
3.68750 4.84201
3.87500 4.84192
4.25000 4.84177
4.62500 4.84165
5.00000 4.84154
5.62500 4.84139
6.25000 4.84127
6.87500 4.84117
7.50000 4.84108
8.75000 4.84095
10.0000 4.84085
11.2500 4.84077
12.5000 4.84071
13.7500 4.84065
15.0000 4.84061
15.0025 4.84061
15.0123 4.84061
15.0220 4.84061
15.0416 4.84061
15.0806 4.84061
15.1586 4.84060
15.3147 4.84060
15.6269 4.84059
16.2513 4.84057
17.5000 4.84054
20.0000 4.84048
22.5000 4.84044
25.0000 4.84040
27.5000 4.84038
30.0000 4.84035
32.5000 4.84033
35.0000 4.84031
37.5000 4.84030
40.0000 4.84028
42.5000 4.84027
45.0000 4.84026
47.5000 4.84025
50.0000 4.84024
56.2500 4.84022
62.5000 4.84020
68.6749 4.84019
68.7500 4.84019
68.9453 4.84019
69.1406 4.84019
69.5313 4.84019
70.3125 4.84019
71.8750 4.84018
75.0000 4.84018
87.5000 4.84016
100.000 4.84015
118.750 4.84013
118.841 4.84013
125.000 4.84012
150.000 4.84011
175.000 4.84010
200.000 4.84009
225.000 4.84008
250.000 4.84008
275.000 4.84007
300.000 4.84007
325.000 4.84007
350.000 4.84006
375.000 4.84006
400.000 4.84006
425.000 4.84006
450.000 4.84005
475.000 4.84005
500.000 4.84005
562.500 4.84005
625.000 4.84004
750.000 4.84004
875.000 4.84004
1000.00 4.84003
1250.00 4.84003
1437.10 4.84003
1437.50 4.84003
1500.00 4.84003
1750.00 4.84003
2000.00 4.84002
2250.00 4.84002
2500.00 4.84002
2750.00 4.84002
3000.00 4.84002
3250.00 4.84002
3500.00 4.84002
3750.00 4.84002
4000.00 4.84002
4250.00 4.84002
4500.00 4.84002
4750.00 4.84001
5000.00 4.84001
5625.00 4.84001
6250.00 4.84001
7500.00 4.84001
8750.00 4.84001
10000.0 4.84002
10689.6 4.84362
11379.3 4.84724
12068.9 4.85086
12758.5 4.85447
13491.3 4.85832
14224.1 4.86216
14956.9 4.86601
15689.6 4.86985
16653.7 4.87491
17617.8 4.87998
18581.9 4.88505
19064.0 4.88758
19546.0 4.89432
19570.8 4.91742
19595.6 4.94467
19620.4 4.97216
19645.2 5.01145
19670.0 5.07006
19694.8 5.13006
19719.6 5.19430
19732.0 5.24556
19744.4 5.31835
19759.9 5.41877
19775.4 5.51991
19790.9 5.62107
19806.3 5.72218
19821.8 5.82338
19837.3 5.92494
19845.0 5.97905
19852.8 6.05045
19856.6 6.10318
19860.5 6.17498
19864.4 6.27047
19868.2 6.39083
19872.2 6.53921
19876.2 6.70603
19884.2 7.07170
19892.2 7.45212
19900.1 7.83531
19908.1 8.22485
19912.1 8.43240
19916.1 8.66560
19918.1 8.80103
19920.1 8.95417
19922.0 9.13138
19924.0 9.33885
19926.0 9.58416
19928.0 9.87062
19930.0 10.2040
19932.0 10.5875
19934.0 11.0338
19936.1 11.5331
19938.1 12.0829
19940.2 12.6763
19942.2 13.3153
19944.2 13.9907
19946.3 14.7090
19948.3 15.4665
19950.3 16.2792
19952.4 17.1538
19954.4 18.1204
19956.4 19.1970
19957.5 19.7914
19958.5 20.4274
19959.5 21.1098
19960.5 21.8357
19961.5 22.6242
19962.5 23.4727
19963.6 24.3854
19964.6 25.3560
19966.0 26.8171
19967.4 28.4066
19968.8 30.1514
19970.2 32.0280
19971.6 34.0624
19972.9 36.2217
19974.3 38.5137
19975.7 40.9295
19977.1 43.4766
19978.5 46.1048
19981.3 51.6085
19986.9 62.8296
19988.5 65.9748
19990.2 68.9002
19991.8 71.5505
19993.4 73.8505
19995.1 75.7288
19996.7 77.1229
19998.4 77.9839
20000.0 78.2807
20001.5 78.0391
20003.1 77.3048
20004.6 76.1016
20006.1 74.4788
20007.6 72.4631
20009.2 70.1364
20010.7 67.5278
20012.2 64.7320
20015.3 58.7178
20018.3 52.5478
20021.4 46.5249
20022.9 43.6352
20024.4 40.8823
20026.1 37.9477
20027.8 35.2042
20029.6 32.6660
20031.3 30.3418
20033.0 28.2339
20034.7 26.3391
20036.4 24.6485
20038.1 23.1562
20039.8 21.8268
20041.5 20.6492
20043.2 19.6017
20044.9 18.6625
20046.6 17.8116
20048.4 17.0313
20050.1 16.3067
20051.8 15.6303
20054.8 14.4921
20057.9 13.4515
20061.0 12.4998
20062.5 12.0617
20064.1 11.6536
20065.6 11.2718
20067.1 10.9201
20068.7 10.5992
20070.2 10.3108
20071.8 10.0503
20073.3 9.81965
20074.8 9.61389
20076.4 9.43322
20079.4 9.13016
20082.5 8.88966
20085.6 8.68925
20088.7 8.51397
20100.9 7.89248
20112.3 7.33613
20123.7 6.79855
20129.3 6.56089
20135.0 6.36703
20137.9 6.29041
20140.7 6.22745
20146.4 6.13673
20152.1 6.07794
20157.7 6.03432
20169.1 5.95882
20191.8 5.81159
20210.8 5.68847
20229.8 5.56543
20248.8 5.44250
20267.8 5.33021
20277.3 5.29357
20286.8 5.27206
20305.8 5.24309
20343.8 5.18804
20371.3 5.15523
20398.9 5.13560
20426.5 5.11681
20454.0 5.10063
20519.6 5.09699
20585.1 5.09597
20716.2 5.09391
20978.4 5.08981
21502.7 5.08160
22027.1 5.07340
22551.4 5.06519
22922.7 5.05939
23612.7 5.04861
24202.7 5.03938
24792.7 5.03016
25382.7 5.02095
25972.8 5.01173
26170.9 5.00863
26869.5 4.99772
27416.9 4.98917
27872.2 4.98206
28481.3 4.97254
28896.0 4.96607
29310.7 4.95971
30140.1 4.95061
31798.8 4.93239
31873.5 4.93157
32177.1 4.92824
32480.6 4.92491
33087.8 4.91824
34302.1 4.90491
36730.6 4.87825
37052.5 4.87471
37861.7 4.86583
38670.9 4.85694
40289.4 4.83917
43526.3 4.80363
50000.0 4.73256
58374.3 4.64980
66748.7 4.60143
67456.0 4.59734
69474.4 4.58568
71492.7 4.57402
75529.4 4.55071
75592.0 4.55034
75740.3 4.54949
75888.6 4.54863
76185.3 4.54692
76778.5 4.54349
77965.0 4.53664
80338.0 4.52293
85084.0 4.49551
94576.0 4.44068
95225.6 4.43693
100000 4.40937
110000 4.36740
120000 4.32178
125000 4.29540
125544 4.29253
130000 4.26902
135000 4.24264
140000 4.21627
150000 4.16603
160000 4.11581
170000 4.07416
180000 4.03253
190000 3.99921
200000 3.98082
210000 3.97518
220000 3.96953
239010 3.91998
240000 3.91542
250000 3.86002
260000 3.80459
270000 3.74321
280000 3.68182
300000 3.57001
320000 3.46188
340000 3.48032
360000 3.53011
370000 3.54725
380000 3.56469
385000 3.67000
390000 3.82955
395000 4.03786
400000 4.29033
405000 4.63628
410000 5.11573
415000 5.80156
420000 6.54903
425000 7.02407
430000 7.23795
435000 6.88424
440000 6.31936
445000 5.58073
450000 5.04038
455000 4.60303
460000 4.26035
465000 4.01016
470000 3.81009
470050 3.80827
470205 3.80283
470359 3.79740
470669 3.78656
471288 3.76486
472525 3.72148
475000 3.63482
480000 3.49011
484924 3.37612
485000 3.37443
485313 3.36835
485625 3.36235
486250 3.35035
487500 3.32635
490000 3.27843
495000 3.20326
500000 3.15007
520000 3.00090
540000 2.88405
560000 2.77855
580000 2.68151
600000 2.59359
620000 2.51323
640000 2.46123
660000 2.38662
680000 2.29248
700000 2.22002
720000 2.16216
740000 2.08793
760000 2.01275
780000 1.94335
800000 1.88002
820000 1.83099
840000 1.80292
860000 1.77666
880000 1.73914
900000 1.68003
920000 1.64069
940000 1.63526
960000 1.64460
980000 1.68784
990000 1.65153
1.00000E+06 1.61498
1.00200E+06 1.60171
1.00400E+06 1.58638
1.00600E+06 1.55432
1.00800E+06 1.33914
1.01000E+06 1.22817
1.01199E+06 1.18136
1.01200E+06 1.18100
1.01400E+06 1.06600
1.01600E+06 1.14023
1.01800E+06 1.29542
1.02000E+06 1.49523
1.02200E+06 1.62408
1.02400E+06 1.75800
1.02600E+06 1.85576
1.02800E+06 1.89080
1.03000E+06 1.91286
1.03331E+06 1.92439
1.04000E+06 1.94773
1.04959E+06 1.94091
1.05000E+06 1.94062
1.06197E+06 1.99683
1.08082E+06 2.08532
1.10000E+06 2.17537
1.12419E+06 2.34004
1.14000E+06 2.44767
1.15000E+06 2.54806
1.16000E+06 2.69856
1.16148E+06 2.72032
1.18000E+06 2.99319
1.20000E+06 3.39401
1.22000E+06 3.97235
1.22426E+06 4.08076
1.24000E+06 4.48188
1.24277E+06 4.55446
1.25000E+06 4.74417
1.25500E+06 4.87713
1.26000E+06 4.99569
1.26500E+06 5.03924
1.27000E+06 5.00000
1.27106E+06 4.98252
1.27500E+06 4.91759
1.28000E+06 4.83188
1.28500E+06 4.74478
1.29000E+06 4.66020
1.30000E+06 4.49195
1.31210E+06 4.22403
1.32000E+06 4.04903
1.32278E+06 3.99640
1.33219E+06 3.81796
1.34000E+06 3.66997
1.34049E+06 3.66249
1.35000E+06 3.51576
1.35512E+06 3.44571
1.36000E+06 3.37900
1.36621E+06 3.30804
1.37458E+06 3.21231
1.38000E+06 3.15028
1.38723E+06 3.08893
1.40000E+06 2.98057
1.42436E+06 2.84409
1.45000E+06 2.70041
1.46169E+06 2.65999
1.50000E+06 2.52750
1.55000E+06 2.42465
1.60000E+06 2.33554
1.61217E+06 2.32202
1.63369E+06 2.29812
1.65000E+06 2.28000
1.65002E+06 2.28001
1.66238E+06 2.28400
1.68108E+06 2.29005
1.70000E+06 2.29616
1.71219E+06 2.34494
1.72000E+06 2.37618
1.72293E+06 2.39427
1.73238E+06 2.45269
1.74000E+06 2.49979
1.74069E+06 2.50704
1.74800E+06 2.58380
1.75000E+06 2.60486
1.76000E+06 2.75540
1.76085E+06 2.75236
1.77056E+06 2.71776
1.77787E+06 2.69168
1.78000E+06 2.68411
1.78890E+06 2.61876
1.80000E+06 2.53731
1.80609E+06 2.47081
1.81182E+06 2.40826
1.81721E+06 2.34944
1.82000E+06 2.31903
1.82228E+06 2.31336
1.82704E+06 2.30153
1.83601E+06 2.27926
1.84000E+06 2.26933
1.84389E+06 2.25597
1.85000E+06 2.23494
1.85081E+06 2.23193
1.85689E+06 2.20930
1.86222E+06 2.18943
1.86690E+06 2.17200
1.87512E+06 2.14139
1.88131E+06 2.11835
1.89063E+06 2.08364
1.90000E+06 2.04876
1.92452E+06 2.03403
1.94312E+06 2.02286
1.95000E+06 2.01873
1.97136E+06 1.99068
2.00000E+06 1.95305
2.05000E+06 1.87258
2.10000E+06 1.84297
2.15000E+06 1.84125
2.20000E+06 1.79496
2.22406E+06 1.79801
2.24533E+06 1.80071
2.25000E+06 1.80130
2.26410E+06 1.81751
2.28066E+06 1.83655
2.29525E+06 1.85332
2.30000E+06 1.85878
2.31935E+06 1.93533
2.31935E+06 1.93535
2.32000E+06 1.93840
2.32100E+06 1.94482
2.34000E+06 2.06722
2.34050E+06 2.07004
2.35000E+06 2.12346
2.35524E+06 2.16341
2.36000E+06 2.19977
2.37751E+06 2.35746
2.38000E+06 2.37985
2.40000E+06 2.54188
2.40155E+06 2.55381
2.40305E+06 2.56537
2.40450E+06 2.57659
2.40591E+06 2.58745
2.40728E+06 2.59799
2.40860E+06 2.60821
2.40988E+06 2.61811
2.41113E+06 2.62770
2.41233E+06 2.63701
2.41350E+06 2.64603
2.41463E+06 2.65478
2.41573E+06 2.66325
2.41679E+06 2.67146
2.41782E+06 2.67943
2.41882E+06 2.68715
2.41979E+06 2.69463
2.42000E+06 2.69625
2.42073E+06 2.69675
2.42164E+06 2.69739
2.42252E+06 2.69801
2.42337E+06 2.69861
2.42413E+06 2.69915
2.42420E+06 2.69920
2.42581E+06 2.70034
2.42731E+06 2.70141
2.42872E+06 2.70243
2.43005E+06 2.70339
2.43129E+06 2.70431
2.43246E+06 2.70517
2.43355E+06 2.70598
2.43457E+06 2.70676
2.43553E+06 2.70749
2.43644E+06 2.70819
2.43728E+06 2.70884
2.43887E+06 2.71010
2.44000E+06 2.71101
2.44026E+06 2.71029
2.44147E+06 2.70690
2.44254E+06 2.70394
2.44347E+06 2.70137
2.44510E+06 2.69691
2.44545E+06 2.69596
2.44632E+06 2.69359
2.44724E+06 2.69112
2.44862E+06 2.68746
2.45000E+06 2.68385
2.45620E+06 2.64606
2.46000E+06 2.62289
2.46163E+06 2.61393
2.46425E+06 2.59950
2.46639E+06 2.58775
2.47057E+06 2.56485
2.47789E+06 2.52476
2.48000E+06 2.51327
2.48340E+06 2.49215
2.48754E+06 2.46650
2.49376E+06 2.42805
2.49751E+06 2.40497
2.50000E+06 2.38964
2.50620E+06 2.36782
2.51000E+06 2.35449
2.51163E+06 2.35121
2.52000E+06 2.33456
2.52117E+06 2.34134
2.52275E+06 2.35057
2.52835E+06 2.38324
2.53000E+06 2.39295
2.53374E+06 2.42910
2.54000E+06 2.48975
2.54184E+06 2.52519
2.54186E+06 2.52547
2.55000E+06 2.68236
2.55500E+06 2.74641
2.55800E+06 2.82816
2.56000E+06 2.93508
2.56300E+06 3.03495
2.56700E+06 2.92693
2.57000E+06 2.90734
2.57076E+06 2.89468
2.57488E+06 2.82576
2.58000E+06 2.74018
2.59000E+06 2.55541
2.60000E+06 2.39689
2.60620E+06 2.30362
2.61000E+06 2.24654
2.61207E+06 2.23399
2.61708E+06 2.20360
2.62000E+06 2.18600
2.62344E+06 2.16423
2.62527E+06 2.15261
2.63143E+06 2.11375
2.63414E+06 2.09674
2.64000E+06 2.05991
2.64070E+06 2.05779
2.64421E+06 2.04725
2.65000E+06 2.02989
2.65369E+06 2.01974
2.66000E+06 2.00240
2.66261E+06 1.99754
2.67099E+06 1.98192
2.67888E+06 1.96723
2.68000E+06 1.96514
2.68629E+06 1.95945
2.69326E+06 1.95315
2.70000E+06 1.94707
2.70638E+06 1.93988
2.71791E+06 1.92690
2.72489E+06 1.91904
2.72804E+06 1.91550
2.73693E+06 1.90552
2.74473E+06 1.89676
2.75000E+06 1.89084
2.75845E+06 1.88950
2.76878E+06 1.88786
2.77655E+06 1.88663
2.78825E+06 1.88477
2.80000E+06 1.88290
2.85000E+06 1.88850
2.89828E+06 1.88961
2.90000E+06 1.88965
2.95000E+06 1.78991
3.00000E+06 1.74420
3.05000E+06 1.67774
3.10000E+06 1.64216
3.15000E+06 1.61662
3.20000E+06 1.57109
3.22490E+06 1.55636
3.24887E+06 1.54233
3.25000E+06 1.54166
3.27490E+06 1.52364
3.30000E+06 1.50571
3.32358E+06 1.50943
3.32491E+06 1.50964
3.35000E+06 1.51391
3.37491E+06 1.50498
3.40000E+06 1.49633
3.42000E+06 1.52071
3.42491E+06 1.52757
3.44000E+06 1.54923
3.45000E+06 1.55711
3.46000E+06 1.56442
3.47491E+06 1.58344
3.48000E+06 1.59013
3.50000E+06 1.62898
3.52000E+06 1.65921
3.53000E+06 1.66981
3.54000E+06 1.67288
3.55000E+06 1.66992
3.56000E+06 1.66575
3.57491E+06 1.66018
3.58000E+06 1.65838
3.60000E+06 1.65424
3.62000E+06 1.64477
3.64000E+06 1.61919
3.64899E+06 1.61061
3.65000E+06 1.60964
3.66000E+06 1.60308
3.68000E+06 1.59069
3.68617E+06 1.58730
3.70000E+06 1.57970
3.74265E+06 1.55777
3.75000E+06 1.55399
3.80000E+06 1.52398
3.85000E+06 1.50300
3.89872E+06 1.46891
3.90000E+06 1.46801
3.95000E+06 1.43159
4.00000E+06 1.38188
4.05000E+06 1.30743
4.10000E+06 1.28258
4.15000E+06 1.27666
4.20000E+06 1.30182
4.25000E+06 1.30448
4.30000E+06 1.31234
4.31000E+06 1.30915
4.32000E+06 1.30680
4.33000E+06 1.30673
4.34000E+06 1.30825
4.35000E+06 1.31076
4.36000E+06 1.31437
4.37000E+06 1.31916
4.38000E+06 1.32530
4.39000E+06 1.33375
4.40000E+06 1.34293
4.41000E+06 1.35019
4.42000E+06 1.35505
4.42452E+06 1.35673
4.43000E+06 1.35876
4.44000E+06 1.36262
4.44608E+06 1.36581
4.45000E+06 1.36787
4.46000E+06 1.37604
4.46504E+06 1.38358
4.47000E+06 1.39102
4.48000E+06 1.40889
4.49000E+06 1.42072
4.49840E+06 1.42169
4.50000E+06 1.42188
4.51000E+06 1.43577
4.52000E+06 1.47762
4.52359E+06 1.49519
4.53000E+06 1.52657
4.54000E+06 1.68894
4.54257E+06 1.70927
4.55000E+06 1.76803
4.56000E+06 1.69395
4.57000E+06 1.61235
4.57120E+06 1.60836
4.58000E+06 1.57897
4.59000E+06 1.57882
4.60000E+06 1.62898
4.61000E+06 1.66802
4.62000E+06 1.70033
4.63000E+06 1.72433
4.64000E+06 1.74511
4.64921E+06 1.75849
4.65000E+06 1.75965
4.66000E+06 1.76752
4.67000E+06 1.77171
4.68000E+06 1.77026
4.69000E+06 1.76426
4.70000E+06 1.75718
4.71000E+06 1.74961
4.72000E+06 1.73954
4.72400E+06 1.73753
4.73000E+06 1.73451
4.74000E+06 1.74905
4.75000E+06 1.77591
4.76000E+06 1.80495
4.77000E+06 1.82558
4.78000E+06 1.82697
4.79000E+06 1.81309
4.80000E+06 1.79500
4.81000E+06 1.82444
4.82000E+06 1.87000
4.83000E+06 1.88026
4.84000E+06 1.85236
4.84924E+06 1.81512
4.85000E+06 1.81205
4.85213E+06 1.80349
4.86000E+06 1.77377
4.87000E+06 1.73602
4.88000E+06 1.70174
4.88650E+06 1.68714
4.89000E+06 1.67927
4.90000E+06 1.66998
4.90622E+06 1.66687
4.91000E+06 1.66517
4.91167E+06 1.66471
4.91463E+06 1.66405
4.91645E+06 1.66365
4.92000E+06 1.66301
4.92063E+06 1.66283
4.92796E+06 1.66122
4.93000E+06 1.66094
4.93346E+06 1.66055
4.93759E+06 1.66036
4.94000E+06 1.66045
4.94379E+06 1.66115
4.95000E+06 1.66298
4.95713E+06 1.66512
4.96000E+06 1.66598
4.97000E+06 1.67194
4.97494E+06 1.67439
4.98000E+06 1.67703
4.99000E+06 1.67876
5.00000E+06 1.67974
5.01000E+06 1.67962
5.01227E+06 1.67944
5.01245E+06 1.67943
5.02000E+06 1.67910
5.02181E+06 1.67879
5.02380E+06 1.67851
5.03000E+06 1.67764
5.03464E+06 1.67724
5.03589E+06 1.67713
5.04000E+06 1.67692
5.04482E+06 1.67795
5.05000E+06 1.67905
5.06000E+06 1.68157
5.06245E+06 1.68221
5.06396E+06 1.68263
5.07000E+06 1.68432
5.07181E+06 1.68483
5.08000E+06 1.68729
5.08077E+06 1.68751
5.08589E+06 1.68901
5.09000E+06 1.69034
5.09552E+06 1.69212
5.10000E+06 1.69356
5.10847E+06 1.69504
5.11000E+06 1.69530
5.11245E+06 1.69599
5.11982E+06 1.69851
5.12000E+06 1.69857
5.12182E+06 1.69969
5.12885E+06 1.70440
5.12977E+06 1.70507
5.13000E+06 1.70524
5.13941E+06 1.71304
5.14000E+06 1.71358
5.14724E+06 1.71851
5.15000E+06 1.72039
5.16000E+06 1.73529
5.16038E+06 1.73780
5.16246E+06 1.75151
5.17000E+06 1.80181
5.18000E+06 1.85406
5.18015E+06 1.85369
5.18119E+06 1.85113
5.19000E+06 1.83023
5.20000E+06 1.74592
5.21000E+06 1.74409
5.22000E+06 1.72604
5.23000E+06 1.71000
5.24000E+06 1.72414
5.25000E+06 1.75237
5.26000E+06 1.78453
5.26246E+06 1.79272
5.27000E+06 1.81827
5.28000E+06 1.84991
5.28119E+06 1.85324
5.29000E+06 1.87830
5.29906E+06 1.90344
5.30000E+06 1.90606
5.31000E+06 1.93257
5.31246E+06 1.93920
5.32000E+06 1.96000
5.33000E+06 1.98101
5.33120E+06 1.97835
5.34000E+06 1.95927
5.35000E+06 1.91114
5.36000E+06 1.86372
5.36246E+06 1.85219
5.37000E+06 1.81698
5.38000E+06 1.76897
5.38120E+06 1.76291
5.39000E+06 1.71849
5.40000E+06 1.66390
5.41000E+06 1.60885
5.42000E+06 1.55833
5.42460E+06 1.53885
5.43000E+06 1.51600
5.44000E+06 1.47999
5.44622E+06 1.45854
5.45000E+06 1.44552
5.46000E+06 1.40826
5.46521E+06 1.38728
5.47000E+06 1.36802
5.48000E+06 1.32764
5.48027E+06 1.32656
5.48188E+06 1.32018
5.49000E+06 1.28803
5.50000E+06 1.24826
5.50156E+06 1.24165
5.50306E+06 1.23524
5.50452E+06 1.22903
5.50594E+06 1.22302
5.50731E+06 1.21719
5.50864E+06 1.21154
5.50993E+06 1.20607
5.51000E+06 1.20576
5.51118E+06 1.20639
5.51118E+06 1.20639
5.51239E+06 1.20703
5.51356E+06 1.20766
5.51469E+06 1.20826
5.51579E+06 1.20885
5.51686E+06 1.20941
5.51789E+06 1.20996
5.51889E+06 1.21050
5.51986E+06 1.21101
5.52000E+06 1.21109
5.52174E+06 1.22225
5.52350E+06 1.23355
5.52515E+06 1.24415
5.52670E+06 1.25410
5.52816E+06 1.26343
5.52952E+06 1.27217
5.53000E+06 1.27526
5.53080E+06 1.28066
5.53200E+06 1.28877
5.53312E+06 1.29639
5.53325E+06 1.29727
5.53417E+06 1.30352
5.53516E+06 1.31021
5.53701E+06 1.32276
5.53864E+06 1.33375
5.54000E+06 1.34299
5.54005E+06 1.34340
5.54130E+06 1.35268
5.54238E+06 1.36081
5.54334E+06 1.36793
5.54500E+06 1.38038
5.54625E+06 1.38973
5.54812E+06 1.40374
5.54986E+06 1.41673
5.55000E+06 1.41777
5.55156E+06 1.43002
5.55306E+06 1.44190
5.55452E+06 1.45341
5.55594E+06 1.46455
5.55731E+06 1.47536
5.55864E+06 1.48583
5.55993E+06 1.49598
5.56000E+06 1.49655
5.56118E+06 1.50551
5.56239E+06 1.51472
5.56356E+06 1.52364
5.56469E+06 1.53229
5.56579E+06 1.54067
5.56686E+06 1.54879
5.56789E+06 1.55665
5.56889E+06 1.56428
5.57000E+06 1.57273
5.57083E+06 1.57849
5.57265E+06 1.59111
5.57435E+06 1.60294
5.57487E+06 1.60655
5.57595E+06 1.61404
5.57745E+06 1.62445
5.57886E+06 1.63421
5.58000E+06 1.64212
5.58018E+06 1.64322
5.58142E+06 1.65087
5.58258E+06 1.65804
5.58366E+06 1.66477
5.58468E+06 1.67107
5.58660E+06 1.68290
5.58827E+06 1.69325
5.58973E+06 1.70231
5.59000E+06 1.70396
5.59102E+06 1.70908
5.59214E+06 1.71474
5.59410E+06 1.72465
5.59558E+06 1.73208
5.59668E+06 1.73765
5.59834E+06 1.74602
5.60000E+06 1.75439
5.60156E+06 1.75986
5.60306E+06 1.76516
5.60452E+06 1.77031
5.60594E+06 1.77529
5.60731E+06 1.78011
5.60864E+06 1.78479
5.60993E+06 1.78932
5.61000E+06 1.78957
5.61118E+06 1.79224
5.61230E+06 1.79479
5.61239E+06 1.79499
5.61356E+06 1.79766
5.61469E+06 1.80024
5.61579E+06 1.80274
5.61792E+06 1.80758
5.61992E+06 1.81213
5.62000E+06 1.81230
5.62180E+06 1.81449
5.62356E+06 1.81664
5.62385E+06 1.81699
5.62521E+06 1.81865
5.62675E+06 1.82054
5.62820E+06 1.82231
5.62956E+06 1.82397
5.63000E+06 1.82450
5.63084E+06 1.82455
5.63203E+06 1.82461
5.63316E+06 1.82467
5.63470E+06 1.82475
5.63526E+06 1.82478
5.63710E+06 1.82488
5.63871E+06 1.82496
5.64000E+06 1.82503
5.64012E+06 1.82489
5.64135E+06 1.82339
5.64243E+06 1.82209
5.64432E+06 1.81980
5.64489E+06 1.81912
5.64574E+06 1.81809
5.64787E+06 1.81552
5.65000E+06 1.81295
5.65156E+06 1.80974
5.65306E+06 1.80664
5.65446E+06 1.80376
5.65452E+06 1.80363
5.65594E+06 1.80071
5.65731E+06 1.79789
5.65864E+06 1.79515
5.65993E+06 1.79250
5.66000E+06 1.79235
5.66118E+06 1.78989
5.66239E+06 1.78735
5.66473E+06 1.78245
5.66693E+06 1.77784
5.66899E+06 1.77352
5.67000E+06 1.77140
5.67092E+06 1.76946
5.67245E+06 1.76623
5.67274E+06 1.76564
5.67444E+06 1.76205
5.67603E+06 1.75869
5.67753E+06 1.75554
5.67893E+06 1.75258
5.68000E+06 1.75032
5.68024E+06 1.74978
5.68147E+06 1.74705
5.68379E+06 1.74191
5.68581E+06 1.73742
5.68758E+06 1.73349
5.68824E+06 1.73203
5.68913E+06 1.73005
5.69000E+06 1.72812
5.69049E+06 1.72678
5.69287E+06 1.72025
5.69465E+06 1.71535
5.69599E+06 1.71168
5.69799E+06 1.70616
5.70000E+06 1.70065
5.70156E+06 1.69628
5.70209E+06 1.69478
5.70306E+06 1.69206
5.70452E+06 1.68796
5.70594E+06 1.68400
5.70868E+06 1.67630
5.71000E+06 1.67262
5.71126E+06 1.66974
5.71367E+06 1.66421
5.71424E+06 1.66291
5.71594E+06 1.65903
5.71806E+06 1.65417
5.72000E+06 1.64972
5.72005E+06 1.64966
5.72192E+06 1.64735
5.72367E+06 1.64517
5.72489E+06 1.64366
5.72531E+06 1.64314
5.72685E+06 1.64123
5.72829E+06 1.63944
5.73000E+06 1.63732
5.73100E+06 1.63743
5.73337E+06 1.63767
5.73545E+06 1.63789
5.73727E+06 1.63808
5.73886E+06 1.63824
5.74000E+06 1.63836
5.74025E+06 1.63858
5.74269E+06 1.64071
5.74358E+06 1.64149
5.74451E+06 1.64231
5.74726E+06 1.64471
5.75000E+06 1.64712
5.75311E+06 1.65142
5.75603E+06 1.65547
5.75763E+06 1.65769
5.75877E+06 1.65927
5.76000E+06 1.66098
5.76134E+06 1.66334
5.76375E+06 1.66761
5.76601E+06 1.67161
5.76813E+06 1.67537
5.76819E+06 1.67549
5.77000E+06 1.67870
5.77011E+06 1.67893
5.77198E+06 1.68263
5.77372E+06 1.68610
5.77700E+06 1.69264
5.77987E+06 1.69837
5.78000E+06 1.69863
5.78238E+06 1.70349
5.78408E+06 1.70695
5.78458E+06 1.70799
5.78651E+06 1.71193
5.78988E+06 1.71886
5.79000E+06 1.71912
5.79241E+06 1.72373
5.79430E+06 1.72739
5.79715E+06 1.73290
5.80000E+06 1.73845
5.80311E+06 1.74338
5.80603E+06 1.74804
5.80877E+06 1.75243
5.81000E+06 1.75442
5.81134E+06 1.75670
5.81375E+06 1.76083
5.81827E+06 1.76865
5.82000E+06 1.77168
5.82222E+06 1.77555
5.82569E+06 1.78165
5.82872E+06 1.78705
5.83000E+06 1.78935
5.83138E+06 1.79163
5.83603E+06 1.79946
5.83952E+06 1.80546
5.84000E+06 1.80630
5.84214E+06 1.80880
5.84607E+06 1.81353
5.85000E+06 1.81845
5.85623E+06 1.81535
5.86000E+06 1.81358
5.86168E+06 1.81123
5.86646E+06 1.80468
5.87000E+06 1.79991
5.87064E+06 1.79884
5.87797E+06 1.78679
5.88000E+06 1.78355
5.88347E+06 1.77843
5.88760E+06 1.77250
5.89000E+06 1.76917
5.89379E+06 1.76396
5.90000E+06 1.75583
5.91000E+06 1.74048
5.92000E+06 1.72460
5.92495E+06 1.71630
5.93000E+06 1.70795
5.94000E+06 1.69013
5.95000E+06 1.67194
5.96000E+06 1.65423
5.97000E+06 1.63807
5.98000E+06 1.62394
5.99000E+06 1.61172
6.00000E+06 1.60118
6.01000E+06 1.59215
6.02000E+06 1.58446
6.02464E+06 1.58143
6.03000E+06 1.57794
6.04000E+06 1.57242
6.04629E+06 1.56968
6.05000E+06 1.56805
6.06000E+06 1.56673
6.06529E+06 1.56816
6.07000E+06 1.56943
6.08000E+06 1.57687
6.08197E+06 1.57942
6.09000E+06 1.58983
6.10000E+06 1.60780
6.11000E+06 1.62720
6.11126E+06 1.62979
6.12000E+06 1.64767
6.13000E+06 1.66910
6.13333E+06 1.67651
6.14000E+06 1.69136
6.14993E+06 1.71415
6.15000E+06 1.71431
6.16000E+06 1.73781
6.17000E+06 1.76171
6.17491E+06 1.77358
6.18000E+06 1.78588
6.19000E+06 1.81406
6.20000E+06 1.84000
6.21000E+06 1.85045
6.22000E+06 1.84563
6.22465E+06 1.83857
6.23000E+06 1.83046
6.24000E+06 1.80991
6.24631E+06 1.79618
6.25000E+06 1.78814
6.26000E+06 1.76425
6.26532E+06 1.75298
6.27000E+06 1.74304
6.27495E+06 1.73375
6.28000E+06 1.72457
6.28199E+06 1.72108
6.29000E+06 1.70704
6.29663E+06 1.69620
6.30000E+06 1.69068
6.31000E+06 1.67567
6.32000E+06 1.66242
6.32231E+06 1.65957
6.33000E+06 1.65009
6.34000E+06 1.63879
6.34164E+06 1.63714
6.35000E+06 1.62873
6.35618E+06 1.62341
6.36000E+06 1.62012
6.37000E+06 1.61225
6.37805E+06 1.60602
6.38000E+06 1.60451
6.39000E+06 1.59690
6.40000E+06 1.58946
6.41000E+06 1.58215
6.42000E+06 1.57496
6.43000E+06 1.56784
6.44000E+06 1.56079
6.45000E+06 1.55382
6.46000E+06 1.54709
6.47000E+06 1.54086
6.48000E+06 1.53503
6.49000E+06 1.52946
6.49923E+06 1.52447
6.50000E+06 1.52405
6.51000E+06 1.51915
6.52000E+06 1.51548
6.53000E+06 1.51370
6.54000E+06 1.51443
6.55000E+06 1.51820
6.56000E+06 1.52356
6.57000E+06 1.52959
6.58000E+06 1.53587
6.59000E+06 1.54200
6.60000E+06 1.54789
6.61000E+06 1.55429
6.62000E+06 1.55904
6.63000E+06 1.55878
6.64000E+06 1.54978
6.65000E+06 1.53813
6.66000E+06 1.52981
6.67000E+06 1.52263
6.68000E+06 1.51584
6.69000E+06 1.50950
6.70000E+06 1.50515
6.71000E+06 1.50614
6.72000E+06 1.51514
6.73000E+06 1.53000
6.74000E+06 1.53327
6.75000E+06 1.54521
6.76000E+06 1.55957
6.77000E+06 1.57744
6.78000E+06 1.58697
6.79000E+06 1.55259
6.80000E+06 1.52707
6.81000E+06 1.51084
6.82000E+06 1.50051
6.83000E+06 1.49729
6.84000E+06 1.49831
6.85000E+06 1.50393
6.86000E+06 1.51091
6.87000E+06 1.51838
6.88000E+06 1.52582
6.89000E+06 1.53264
6.90000E+06 1.53856
6.91000E+06 1.54441
6.92000E+06 1.54989
6.93000E+06 1.55441
6.94000E+06 1.55743
6.95000E+06 1.55835
6.96000E+06 1.55679
6.97000E+06 1.55351
6.98000E+06 1.54951
6.99000E+06 1.54576
7.00000E+06 1.54324
7.02469E+06 1.54212
7.04637E+06 1.54114
7.05000E+06 1.54097
7.06539E+06 1.53021
7.09881E+06 1.50684
7.10000E+06 1.50601
7.12397E+06 1.49994
7.14290E+06 1.49514
7.15000E+06 1.49334
7.17139E+06 1.49830
7.20000E+06 1.50493
7.22470E+06 1.49829
7.23850E+06 1.49458
7.24638E+06 1.48776
7.25000E+06 1.48463
7.26541E+06 1.48062
7.28210E+06 1.47627
7.30000E+06 1.47161
7.30310E+06 1.47144
7.30611E+06 1.47127
7.30903E+06 1.47110
7.31140E+06 1.47097
7.31186E+06 1.47094
7.31459E+06 1.47078
7.31725E+06 1.47063
7.31982E+06 1.47049
7.32231E+06 1.47034
7.32473E+06 1.47021
7.32707E+06 1.47007
7.32934E+06 1.46994
7.33153E+06 1.46982
7.33345E+06 1.46971
7.33366E+06 1.46970
7.33573E+06 1.46958
7.33973E+06 1.46935
7.34348E+06 1.46914
7.34700E+06 1.46894
7.35000E+06 1.46877
7.35003E+06 1.46876
7.35030E+06 1.46874
7.35340E+06 1.46844
7.35630E+06 1.46817
7.35903E+06 1.46791
7.36070E+06 1.46775
7.36158E+06 1.46776
7.36398E+06 1.46780
7.36622E+06 1.46784
7.36833E+06 1.46788
7.37228E+06 1.46795
7.37497E+06 1.46799
7.37574E+06 1.46801
7.37877E+06 1.46806
7.38142E+06 1.46811
7.38374E+06 1.46815
7.38780E+06 1.46822
7.39085E+06 1.46827
7.39314E+06 1.46831
7.39657E+06 1.46837
7.40000E+06 1.46843
7.40088E+06 1.46879
7.40171E+06 1.46912
7.40248E+06 1.46944
7.40310E+06 1.46969
7.40321E+06 1.46973
7.40389E+06 1.47001
7.40452E+06 1.47027
7.40512E+06 1.47051
7.40568E+06 1.47074
7.40611E+06 1.47091
7.40621E+06 1.47095
7.40670E+06 1.47115
7.40716E+06 1.47134
7.40803E+06 1.47169
7.40879E+06 1.47200
7.40903E+06 1.47210
7.40945E+06 1.47227
7.41003E+06 1.47251
7.41054E+06 1.47272
7.41143E+06 1.47308
7.41186E+06 1.47325
7.41210E+06 1.47335
7.41260E+06 1.47355
7.41335E+06 1.47386
7.41410E+06 1.47416
7.41459E+06 1.47435
7.41477E+06 1.47442
7.41543E+06 1.47467
7.41609E+06 1.47492
7.41674E+06 1.47516
7.41725E+06 1.47536
7.41739E+06 1.47541
7.41803E+06 1.47565
7.41866E+06 1.47589
7.41930E+06 1.47613
7.41982E+06 1.47633
7.41992E+06 1.47637
7.42055E+06 1.47661
7.42116E+06 1.47684
7.42178E+06 1.47708
7.42231E+06 1.47728
7.42238E+06 1.47731
7.42299E+06 1.47753
7.42359E+06 1.47776
7.42418E+06 1.47799
7.42473E+06 1.47820
7.42477E+06 1.47821
7.42594E+06 1.47865
7.42707E+06 1.47908
7.42709E+06 1.47909
7.42822E+06 1.47952
7.42934E+06 1.47995
7.42934E+06 1.47995
7.43044E+06 1.48036
7.43152E+06 1.48077
7.43154E+06 1.48078
7.43259E+06 1.48118
7.43363E+06 1.48158
7.43467E+06 1.48197
7.43568E+06 1.48235
7.43580E+06 1.48240
7.43668E+06 1.48273
7.43767E+06 1.48311
7.43864E+06 1.48348
7.43959E+06 1.48384
7.43979E+06 1.48391
7.44053E+06 1.48419
7.44146E+06 1.48455
7.44237E+06 1.48489
7.44327E+06 1.48523
7.44354E+06 1.48534
7.44415E+06 1.48557
7.44502E+06 1.48590
7.44588E+06 1.48622
7.44672E+06 1.48654
7.44706E+06 1.48667
7.44755E+06 1.48686
7.44837E+06 1.48717
7.44917E+06 1.48747
7.44996E+06 1.48777
7.45000E+06 1.48779
7.45036E+06 1.48781
7.45074E+06 1.48783
7.45151E+06 1.48787
7.45226E+06 1.48791
7.45301E+06 1.48796
7.45345E+06 1.48798
7.45374E+06 1.48800
7.45446E+06 1.48804
7.45517E+06 1.48808
7.45587E+06 1.48811
7.45635E+06 1.48814
7.45655E+06 1.48815
7.45723E+06 1.48819
7.45790E+06 1.48823
7.45855E+06 1.48826
7.45907E+06 1.48829
7.45920E+06 1.48830
7.45984E+06 1.48834
7.46046E+06 1.48837
7.46108E+06 1.48841
7.46162E+06 1.48844
7.46168E+06 1.48844
7.46228E+06 1.48847
7.46346E+06 1.48854
7.46402E+06 1.48857
7.46460E+06 1.48860
7.46570E+06 1.48867
7.46626E+06 1.48870
7.46677E+06 1.48873
7.46781E+06 1.48879
7.46881E+06 1.48885
7.46978E+06 1.48890
7.47047E+06 1.48894
7.47073E+06 1.48896
7.47164E+06 1.48901
7.47252E+06 1.48906
7.47338E+06 1.48911
7.47415E+06 1.48916
7.47421E+06 1.48916
7.47502E+06 1.48921
7.47579E+06 1.48926
7.47655E+06 1.48931
7.47728E+06 1.48935
7.47738E+06 1.48936
7.47799E+06 1.48940
7.47868E+06 1.48944
7.47934E+06 1.48948
7.47999E+06 1.48952
7.48020E+06 1.48954
7.48061E+06 1.48957
7.48122E+06 1.48961
7.48239E+06 1.48969
7.48268E+06 1.48971
7.48349E+06 1.48976
7.48452E+06 1.48984
7.48549E+06 1.48991
7.48639E+06 1.48998
7.48700E+06 1.49003
7.48724E+06 1.49005
7.48804E+06 1.49012
7.48879E+06 1.49018
7.48949E+06 1.49024
7.49014E+06 1.49030
7.49025E+06 1.49031
7.49076E+06 1.49036
7.49191E+06 1.49048
7.49269E+06 1.49056
7.49292E+06 1.49059
7.49381E+06 1.49069
7.49458E+06 1.49078
7.49526E+06 1.49087
7.49634E+06 1.49101
7.49644E+06 1.49103
7.49733E+06 1.49116
7.49800E+06 1.49126
7.49900E+06 1.49143
7.50000E+06 1.49162
7.50311E+06 1.48932
7.50611E+06 1.48709
7.50621E+06 1.48702
7.50903E+06 1.48495
7.51186E+06 1.48287
7.51204E+06 1.48273
7.51460E+06 1.48086
7.51725E+06 1.47892
7.51751E+06 1.47874
7.51982E+06 1.47706
7.52232E+06 1.47525
7.52264E+06 1.47501
7.52473E+06 1.47350
7.52707E+06 1.47182
7.52715E+06 1.47176
7.52745E+06 1.47155
7.52934E+06 1.47019
7.53154E+06 1.46862
7.53168E+06 1.46852
7.53196E+06 1.46832
7.53367E+06 1.46711
7.53573E+06 1.46565
7.53593E+06 1.46551
7.53620E+06 1.46532
7.53773E+06 1.46425
7.53967E+06 1.46289
7.53992E+06 1.46271
7.54017E+06 1.46254
7.54343E+06 1.46027
7.54366E+06 1.46011
7.54389E+06 1.45995
7.54695E+06 1.45784
7.54717E+06 1.45769
7.54739E+06 1.45754
7.55000E+06 1.45577
7.55026E+06 1.45571
7.55046E+06 1.45565
7.55335E+06 1.45493
7.55355E+06 1.45488
7.55395E+06 1.45478
7.55626E+06 1.45423
7.55644E+06 1.45419
7.55899E+06 1.45359
7.55916E+06 1.45355
7.55969E+06 1.45343
7.56154E+06 1.45302
7.56170E+06 1.45298
7.56394E+06 1.45249
7.56471E+06 1.45232
7.56619E+06 1.45201
7.56648E+06 1.45196
7.56830E+06 1.45158
7.56912E+06 1.45142
7.57028E+06 1.45119
7.57066E+06 1.45112
7.57297E+06 1.45068
7.57399E+06 1.45051
7.57432E+06 1.45045
7.57634E+06 1.45009
7.57723E+06 1.44995
7.57753E+06 1.44991
7.58008E+06 1.44951
7.58033E+06 1.44947
7.58225E+06 1.44918
7.58256E+06 1.44914
7.58474E+06 1.44886
7.58525E+06 1.44880
7.58665E+06 1.44862
7.58668E+06 1.44862
7.58893E+06 1.44838
7.58998E+06 1.44827
7.59001E+06 1.44827
7.59170E+06 1.44813
7.59249E+06 1.44807
7.59500E+06 1.44788
7.59585E+06 1.44784
7.59624E+06 1.44782
7.60000E+06 1.44767
7.60311E+06 1.44820
7.60611E+06 1.44871
7.60903E+06 1.44921
7.61235E+06 1.44977
7.61469E+06 1.45017
7.61999E+06 1.45107
7.62394E+06 1.45174
7.62488E+06 1.45190
7.62497E+06 1.45191
7.62963E+06 1.45271
7.63401E+06 1.45346
7.63483E+06 1.45360
7.63812E+06 1.45416
7.64197E+06 1.45481
7.64359E+06 1.45509
7.64505E+06 1.45534
7.64559E+06 1.45543
7.64898E+06 1.45602
7.64984E+06 1.45616
7.65000E+06 1.45619
7.65216E+06 1.45722
7.65464E+06 1.45841
7.65514E+06 1.45864
7.66073E+06 1.46131
7.66365E+06 1.46271
7.66563E+06 1.46365
7.66992E+06 1.46570
7.67174E+06 1.46657
7.67367E+06 1.46749
7.67696E+06 1.46906
7.68056E+06 1.47079
7.68271E+06 1.47182
7.68703E+06 1.47389
7.69027E+06 1.47544
7.69513E+06 1.47777
7.69539E+06 1.47789
7.70000E+06 1.48010
7.70621E+06 1.48531
7.70839E+06 1.48713
7.71204E+06 1.49020
7.71751E+06 1.49479
7.71978E+06 1.49669
7.72264E+06 1.49909
7.72488E+06 1.50097
7.72745E+06 1.50313
7.72976E+06 1.50507
7.73197E+06 1.50693
7.73620E+06 1.51048
7.74000E+06 1.51368
7.74017E+06 1.51386
7.74390E+06 1.51775
7.74726E+06 1.52127
7.74984E+06 1.52396
7.75000E+06 1.52413
7.75089E+06 1.52526
7.75701E+06 1.53305
7.76000E+06 1.53685
7.76041E+06 1.53752
7.76235E+06 1.54063
7.76237E+06 1.54067
7.76707E+06 1.54824
7.77029E+06 1.55344
7.77117E+06 1.55486
7.77837E+06 1.56646
7.78000E+06 1.56909
7.78377E+06 1.57684
7.78513E+06 1.57963
7.78783E+06 1.58517
7.79391E+06 1.59767
7.80000E+06 1.61019
7.80621E+06 1.62838
7.81204E+06 1.64544
7.81235E+06 1.64635
7.81751E+06 1.66145
7.82000E+06 1.66874
7.82395E+06 1.68147
7.82777E+06 1.69380
7.83484E+06 1.71659
7.83677E+06 1.72280
7.84000E+06 1.73323
7.84464E+06 1.74173
7.84506E+06 1.74250
7.84984E+06 1.75126
7.85000E+06 1.75155
7.85154E+06 1.74599
7.85466E+06 1.73475
7.85758E+06 1.72419
7.86000E+06 1.71546
7.86817E+06 1.68076
7.87268E+06 1.66159
7.87611E+06 1.64699
7.88000E+06 1.63047
7.88208E+06 1.62811
7.88848E+06 1.62081
7.89103E+06 1.61791
7.90000E+06 1.60770
7.90234E+06 1.60255
7.91243E+06 1.58029
7.91448E+06 1.57577
7.92000E+06 1.56360
7.92333E+06 1.56883
7.92512E+06 1.57165
7.93444E+06 1.58629
7.94000E+06 1.59503
7.94242E+06 1.59675
7.95000E+06 1.60213
7.95078E+06 1.60196
7.95300E+06 1.60149
7.95301E+06 1.60148
7.95678E+06 1.59799
7.96000E+06 1.59500
7.96306E+06 1.59175
7.97836E+06 1.57547
7.98000E+06 1.57373
7.98151E+06 1.57218
8.00000E+06 1.55317
8.02000E+06 1.53292
8.02488E+06 1.52815
8.04000E+06 1.51341
8.05000E+06 1.50446
8.06000E+06 1.49632
8.06235E+06 1.49491
8.08000E+06 1.48435
8.09938E+06 1.47673
8.10000E+06 1.47649
8.14985E+06 1.45298
8.15000E+06 1.45290
8.20000E+06 1.42478
8.24985E+06 1.39919
8.25000E+06 1.39912
8.30000E+06 1.37941
8.30910E+06 1.37638
8.34985E+06 1.36424
8.35000E+06 1.36420
8.40000E+06 1.35115
8.44985E+06 1.34052
8.45000E+06 1.34049
8.50000E+06 1.33641
8.52000E+06 1.33715
8.54000E+06 1.33804
8.54985E+06 1.33867
8.55000E+06 1.33868
8.56000E+06 1.33981
8.58000E+06 1.34341
8.60000E+06 1.34863
8.62000E+06 1.35830
8.64000E+06 1.38631
8.64986E+06 1.40257
8.65000E+06 1.40281
8.66000E+06 1.41751
8.68000E+06 1.43133
8.70000E+06 1.42717
8.70880E+06 1.42374
8.72000E+06 1.41927
8.74000E+06 1.41138
8.74986E+06 1.40771
8.75000E+06 1.40766
8.76000E+06 1.40419
8.78000E+06 1.39709
8.80000E+06 1.38973
8.80155E+06 1.38916
8.80308E+06 1.38860
8.80459E+06 1.38805
8.80607E+06 1.38751
8.80753E+06 1.38697
8.80897E+06 1.38645
8.81039E+06 1.38593
8.81178E+06 1.38542
8.81315E+06 1.38491
8.81450E+06 1.38442
8.81583E+06 1.38393
8.81714E+06 1.38345
8.81843E+06 1.38298
8.81970E+06 1.38252
8.82000E+06 1.38240
8.82095E+06 1.38208
8.82218E+06 1.38165
8.82339E+06 1.38123
8.82458E+06 1.38082
8.82575E+06 1.38041
8.82691E+06 1.38001
8.82805E+06 1.37961
8.82917E+06 1.37922
8.83027E+06 1.37884
8.83135E+06 1.37846
8.83242E+06 1.37809
8.83347E+06 1.37773
8.83451E+06 1.37737
8.83553E+06 1.37702
8.83653E+06 1.37667
8.83752E+06 1.37632
8.83849E+06 1.37599
8.83945E+06 1.37565
8.84000E+06 1.37546
8.84039E+06 1.37534
8.84132E+06 1.37504
8.84224E+06 1.37474
8.84314E+06 1.37445
8.84402E+06 1.37417
8.84577E+06 1.37360
8.84746E+06 1.37306
8.84909E+06 1.37253
8.84986E+06 1.37228
8.85000E+06 1.37224
8.85068E+06 1.37203
8.85222E+06 1.37157
8.85371E+06 1.37112
8.85515E+06 1.37069
8.85655E+06 1.37027
8.85790E+06 1.36986
8.85921E+06 1.36946
8.86000E+06 1.36923
8.86049E+06 1.36910
8.86172E+06 1.36878
8.86291E+06 1.36846
8.86407E+06 1.36816
8.86519E+06 1.36787
8.86628E+06 1.36759
8.86733E+06 1.36731
8.86835E+06 1.36704
8.86933E+06 1.36679
8.87029E+06 1.36654
8.87122E+06 1.36630
8.87212E+06 1.36606
8.87386E+06 1.36561
8.87549E+06 1.36518
8.87702E+06 1.36479
8.87845E+06 1.36441
8.87980E+06 1.36407
8.88000E+06 1.36401
8.88106E+06 1.36381
8.88224E+06 1.36358
8.88335E+06 1.36336
8.88439E+06 1.36316
8.88537E+06 1.36298
8.88628E+06 1.36280
8.88799E+06 1.36247
8.88949E+06 1.36219
8.89081E+06 1.36194
8.89195E+06 1.36172
8.89296E+06 1.36154
8.89384E+06 1.36137
8.89538E+06 1.36109
8.89653E+06 1.36088
8.89827E+06 1.36056
8.90000E+06 1.36026
8.90311E+06 1.35966
8.90612E+06 1.35909
8.90904E+06 1.35853
8.91187E+06 1.35800
8.91461E+06 1.35749
8.91727E+06 1.35700
8.91984E+06 1.35653
8.92233E+06 1.35608
8.92475E+06 1.35564
8.92709E+06 1.35523
8.92936E+06 1.35483
8.93156E+06 1.35445
8.93369E+06 1.35409
8.93782E+06 1.35340
8.94170E+06 1.35277
8.94533E+06 1.35221
8.94874E+06 1.35170
8.95000E+06 1.35152
8.95193E+06 1.35134
8.95493E+06 1.35107
8.95774E+06 1.35085
8.96037E+06 1.35066
8.96285E+06 1.35050
8.96516E+06 1.35037
8.96734E+06 1.35026
8.97141E+06 1.35012
8.97498E+06 1.35006
8.97810E+06 1.35006
8.98084E+06 1.35011
8.98323E+06 1.35020
8.98742E+06 1.35045
8.99056E+06 1.35074
8.99292E+06 1.35102
8.99646E+06 1.35154
9.00000E+06 1.35222
9.04986E+06 1.34934
9.05000E+06 1.34933
9.10000E+06 1.34525
9.14986E+06 1.34058
9.15000E+06 1.34056
9.20000E+06 1.33626
9.24987E+06 1.33337
9.25000E+06 1.33336
9.30000E+06 1.33502
9.34460E+06 1.33831
9.35000E+06 1.33874
9.40000E+06 1.34171
9.40155E+06 1.34172
9.40309E+06 1.34172
9.40459E+06 1.34173
9.40608E+06 1.34173
9.40754E+06 1.34173
9.40897E+06 1.34174
9.41039E+06 1.34174
9.41178E+06 1.34175
9.41315E+06 1.34175
9.41451E+06 1.34175
9.41584E+06 1.34176
9.41714E+06 1.34176
9.41843E+06 1.34177
9.41970E+06 1.34177
9.42095E+06 1.34177
9.42218E+06 1.34178
9.42339E+06 1.34178
9.42459E+06 1.34178
9.42576E+06 1.34179
9.42691E+06 1.34179
9.42805E+06 1.34179
9.42917E+06 1.34180
9.43028E+06 1.34180
9.43136E+06 1.34180
9.43243E+06 1.34181
9.43348E+06 1.34181
9.43452E+06 1.34181
9.43554E+06 1.34182
9.43654E+06 1.34182
9.43753E+06 1.34182
9.43850E+06 1.34183
9.43946E+06 1.34183
9.44040E+06 1.34183
9.44133E+06 1.34183
9.44225E+06 1.34184
9.44314E+06 1.34184
9.44403E+06 1.34184
9.44490E+06 1.34184
9.44576E+06 1.34185
9.44661E+06 1.34185
9.44827E+06 1.34185
9.44961E+06 1.34186
9.44988E+06 1.34186
9.45000E+06 1.34186
9.45144E+06 1.34194
9.45296E+06 1.34203
9.45442E+06 1.34211
9.45585E+06 1.34219
9.45722E+06 1.34227
9.45750E+06 1.34228
9.45856E+06 1.34249
9.45985E+06 1.34274
9.46110E+06 1.34299
9.46231E+06 1.34323
9.46349E+06 1.34346
9.46463E+06 1.34368
9.46573E+06 1.34389
9.46680E+06 1.34410
9.46784E+06 1.34431
9.46884E+06 1.34450
9.46981E+06 1.34469
9.47075E+06 1.34488
9.47167E+06 1.34506
9.47255E+06 1.34523
9.47341E+06 1.34540
9.47507E+06 1.34572
9.47662E+06 1.34603
9.47808E+06 1.34631
9.47945E+06 1.34658
9.48073E+06 1.34683
9.48194E+06 1.34707
9.48307E+06 1.34729
9.48412E+06 1.34750
9.48511E+06 1.34769
9.48604E+06 1.34787
9.48692E+06 1.34804
9.48698E+06 1.34806
9.48855E+06 1.34836
9.48998E+06 1.34864
9.49123E+06 1.34889
9.49233E+06 1.34910
9.49329E+06 1.34929
9.49413E+06 1.34946
9.49559E+06 1.34974
9.49670E+06 1.34996
9.49835E+06 1.35028
9.50000E+06 1.35061
9.50155E+06 1.35155
9.50309E+06 1.35248
9.50459E+06 1.35339
9.50608E+06 1.35429
9.50754E+06 1.35517
9.50897E+06 1.35604
9.51039E+06 1.35690
9.51178E+06 1.35774
9.51316E+06 1.35857
9.51451E+06 1.35939
9.51584E+06 1.36020
9.51715E+06 1.36099
9.51843E+06 1.36177
9.51970E+06 1.36254
9.52095E+06 1.36330
9.52218E+06 1.36404
9.52339E+06 1.36478
9.52459E+06 1.36550
9.52576E+06 1.36621
9.52807E+06 1.36761
9.53031E+06 1.36897
9.53248E+06 1.37029
9.53458E+06 1.37156
9.53662E+06 1.37280
9.53860E+06 1.37400
9.54051E+06 1.37517
9.54236E+06 1.37629
9.54332E+06 1.37688
9.54416E+06 1.37739
9.54590E+06 1.37845
9.54758E+06 1.37948
9.54922E+06 1.38048
9.55000E+06 1.38095
9.55080E+06 1.38185
9.55233E+06 1.38357
9.55382E+06 1.38523
9.55526E+06 1.38684
9.55666E+06 1.38841
9.55801E+06 1.38993
9.55932E+06 1.39140
9.56059E+06 1.39282
9.56181E+06 1.39421
9.56301E+06 1.39555
9.56531E+06 1.39815
9.56748E+06 1.40060
9.56951E+06 1.40290
9.57141E+06 1.40506
9.57319E+06 1.40710
9.57487E+06 1.40901
9.57644E+06 1.41081
9.57791E+06 1.41250
9.57929E+06 1.41409
9.58058E+06 1.41559
9.58179E+06 1.41700
9.58407E+06 1.41965
9.58606E+06 1.42199
9.58780E+06 1.42406
9.58932E+06 1.42587
9.59066E+06 1.42747
9.59299E+06 1.43030
9.59474E+06 1.43245
9.59606E+06 1.43407
9.59803E+06 1.43654
9.60000E+06 1.43905
9.60311E+06 1.44236
9.60914E+06 1.44883
9.61479E+06 1.45496
9.62000E+06 1.46069
9.62009E+06 1.46079
9.62507E+06 1.46636
9.62974E+06 1.47166
9.63411E+06 1.47670
9.63822E+06 1.48149
9.64000E+06 1.48360
9.64207E+06 1.48605
9.64568E+06 1.49039
9.64906E+06 1.49453
9.65000E+06 1.49569
9.65224E+06 1.49855
9.65820E+06 1.50634
9.66000E+06 1.50877
9.66341E+06 1.51392
9.66798E+06 1.52100
9.67198E+06 1.52735
9.67547E+06 1.53304
9.68000E+06 1.54064
9.68160E+06 1.54354
9.68620E+06 1.55220
9.68965E+06 1.55889
9.69482E+06 1.56928
9.69949E+06 1.57907
9.70000E+06 1.58015
9.72000E+06 1.61739
9.73750E+06 1.63818
9.74000E+06 1.63795
9.75000E+06 1.63082
9.75309E+06 1.62634
9.76000E+06 1.61652
9.76870E+06 1.59043
9.77652E+06 1.56786
9.78000E+06 1.55792
9.80000E+06 1.49512
9.80078E+06 1.49386
9.80155E+06 1.49261
9.80231E+06 1.49137
9.80307E+06 1.49015
9.80383E+06 1.48893
9.80458E+06 1.48772
9.80532E+06 1.48652
9.80605E+06 1.48533
9.80678E+06 1.48415
9.80823E+06 1.48180
9.80966E+06 1.47949
9.81107E+06 1.47722
9.81245E+06 1.47498
9.81381E+06 1.47278
9.81515E+06 1.47061
9.81647E+06 1.46847
9.81777E+06 1.46637
9.81905E+06 1.46430
9.82000E+06 1.46277
9.82031E+06 1.46240
9.82155E+06 1.46093
9.82277E+06 1.45948
9.82397E+06 1.45805
9.82478E+06 1.45709
9.82491E+06 1.45695
9.82516E+06 1.45667
9.82632E+06 1.45538
9.82747E+06 1.45411
9.82860E+06 1.45286
9.82971E+06 1.45163
9.83081E+06 1.45041
9.83188E+06 1.44922
9.83294E+06 1.44805
9.83399E+06 1.44689
9.83502E+06 1.44576
9.83603E+06 1.44464
9.83702E+06 1.44353
9.83801E+06 1.44245
9.83897E+06 1.44138
9.83992E+06 1.44033
9.84000E+06 1.44024
9.84086E+06 1.43941
9.84178E+06 1.43852
9.84269E+06 1.43764
9.84358E+06 1.43678
9.84446E+06 1.43593
9.84532E+06 1.43509
9.84618E+06 1.43426
9.84651E+06 1.43394
9.84701E+06 1.43345
9.84784E+06 1.43266
9.84865E+06 1.43187
9.84945E+06 1.43110
9.85000E+06 1.43057
9.85024E+06 1.43036
9.85102E+06 1.42970
9.85178E+06 1.42904
9.85253E+06 1.42840
9.85327E+06 1.42776
9.85473E+06 1.42652
9.85614E+06 1.42531
9.85751E+06 1.42415
9.85883E+06 1.42303
9.86000E+06 1.42204
9.86012E+06 1.42197
9.86136E+06 1.42114
9.86238E+06 1.42047
9.86257E+06 1.42036
9.86373E+06 1.41969
9.86487E+06 1.41905
9.86596E+06 1.41843
9.86702E+06 1.41784
9.86805E+06 1.41728
9.86905E+06 1.41674
9.87001E+06 1.41622
9.87095E+06 1.41572
9.87186E+06 1.41525
9.87274E+06 1.41480
9.87359E+06 1.41437
9.87441E+06 1.41397
9.87521E+06 1.41358
9.87598E+06 1.41322
9.87673E+06 1.41287
9.87819E+06 1.41223
9.87955E+06 1.41166
9.88000E+06 1.41149
9.88082E+06 1.41139
9.88202E+06 1.41128
9.88314E+06 1.41122
9.88420E+06 1.41120
9.88466E+06 1.41120
9.88518E+06 1.41121
9.88611E+06 1.41126
9.88698E+06 1.41134
9.88779E+06 1.41145
9.88855E+06 1.41158
9.88998E+06 1.41192
9.89123E+06 1.41233
9.89233E+06 1.41278
9.89329E+06 1.41325
9.89413E+06 1.41374
9.89486E+06 1.41423
9.89615E+06 1.41523
9.89711E+06 1.41611
9.89855E+06 1.41768
9.90000E+06 1.41959
9.91337E+06 1.41796
9.93496E+06 1.41534
9.95000E+06 1.41352
9.96743E+06 1.41232
9.97890E+06 1.41153
1.00000E+07 1.41120
1.00270E+07 1.41191
1.00361E+07 1.41244
1.00441E+07 1.41291
1.00500E+07 1.41325
1.00510E+07 1.41346
1.00572E+07 1.41470
1.00625E+07 1.41579
1.00719E+07 1.41769
1.00789E+07 1.41911
1.00842E+07 1.42018
1.00921E+07 1.42179
1.00995E+07 1.42330
1.01000E+07 1.42340
1.01062E+07 1.42826
1.01121E+07 1.43283
1.01131E+07 1.43367
1.01175E+07 1.43711
1.01278E+07 1.44516
1.01368E+07 1.45222
1.01447E+07 1.45840
1.01500E+07 1.46257
1.01516E+07 1.46313
1.01576E+07 1.46529
1.01682E+07 1.46908
1.01761E+07 1.47192
1.01821E+07 1.47405
1.01850E+07 1.47509
1.01911E+07 1.47276
1.02000E+07 1.46933
1.02031E+07 1.46654
1.02061E+07 1.46382
1.02062E+07 1.46374
1.02091E+07 1.46112
1.02121E+07 1.45850
1.02121E+07 1.45847
1.02150E+07 1.45585
1.02179E+07 1.45329
1.02207E+07 1.45075
1.02230E+07 1.44868
1.02235E+07 1.44826
1.02262E+07 1.44581
1.02289E+07 1.44339
1.02316E+07 1.44102
1.02326E+07 1.44007
1.02342E+07 1.43868
1.02367E+07 1.43637
1.02393E+07 1.43409
1.02410E+07 1.43254
1.02418E+07 1.43186
1.02442E+07 1.42967
1.02466E+07 1.42750
1.02470E+07 1.42721
1.02484E+07 1.42595
1.02490E+07 1.42536
1.02500E+07 1.42448
1.02514E+07 1.42368
1.02537E+07 1.42231
1.02548E+07 1.42164
1.02559E+07 1.42097
1.02582E+07 1.41965
1.02626E+07 1.41705
1.02661E+07 1.41498
1.02668E+07 1.41453
1.02710E+07 1.41209
1.02746E+07 1.40998
1.02750E+07 1.40972
1.02789E+07 1.40744
1.02809E+07 1.40623
1.02826E+07 1.40522
1.02863E+07 1.40307
1.02898E+07 1.40099
1.02905E+07 1.40061
1.02932E+07 1.39897
1.02966E+07 1.39702
1.02995E+07 1.39527
1.02998E+07 1.39513
1.03000E+07 1.39499
1.03029E+07 1.39362
1.03059E+07 1.39219
1.03088E+07 1.39080
1.03117E+07 1.38946
1.03125E+07 1.38909
1.03144E+07 1.38815
1.03171E+07 1.38689
1.03197E+07 1.38567
1.03222E+07 1.38448
1.03234E+07 1.38393
1.03246E+07 1.38334
1.03269E+07 1.38223
1.03292E+07 1.38116
1.03329E+07 1.37941
1.03336E+07 1.37907
1.03378E+07 1.37712
1.03413E+07 1.37547
1.03416E+07 1.37529
1.03453E+07 1.37358
1.03486E+07 1.37203
1.03487E+07 1.37198
1.03500E+07 1.37136
1.03519E+07 1.37061
1.03549E+07 1.36942
1.03550E+07 1.36938
1.03577E+07 1.36831
1.03603E+07 1.36727
1.03628E+07 1.36629
1.03651E+07 1.36537
1.03662E+07 1.36494
1.03695E+07 1.36365
1.03733E+07 1.36215
1.03747E+07 1.36162
1.03766E+07 1.36084
1.03796E+07 1.35970
1.03821E+07 1.35870
1.03866E+07 1.35695
1.03873E+07 1.35665
1.03899E+07 1.35564
1.03925E+07 1.35466
1.03962E+07 1.35319
1.04000E+07 1.35172
1.04031E+07 1.35066
1.04061E+07 1.34961
1.04092E+07 1.34858
1.04121E+07 1.34757
1.04125E+07 1.34744
1.04150E+07 1.34657
1.04179E+07 1.34560
1.04207E+07 1.34463
1.04234E+07 1.34373
1.04235E+07 1.34369
1.04290E+07 1.34184
1.04329E+07 1.34050
1.04340E+07 1.34014
1.04343E+07 1.34007
1.04394E+07 1.33873
1.04413E+07 1.33824
1.04444E+07 1.33744
1.04486E+07 1.33635
1.04492E+07 1.33620
1.04500E+07 1.33599
1.04539E+07 1.33563
1.04584E+07 1.33520
1.04614E+07 1.33491
1.04628E+07 1.33479
1.04671E+07 1.33440
1.04711E+07 1.33405
1.04712E+07 1.33403
1.04752E+07 1.33369
1.04783E+07 1.33342
1.04791E+07 1.33336
1.04828E+07 1.33305
1.04865E+07 1.33275
1.04891E+07 1.33253
1.04900E+07 1.33246
1.04934E+07 1.33220
1.04967E+07 1.33195
1.04995E+07 1.33174
1.05000E+07 1.33170
1.05000E+07 1.33170
1.05031E+07 1.33233
1.05061E+07 1.33295
1.05090E+07 1.33355
1.05118E+07 1.33413
1.05125E+07 1.33426
1.05173E+07 1.33529
1.05225E+07 1.33638
1.05234E+07 1.33656
1.05273E+07 1.33742
1.05318E+07 1.33840
1.05329E+07 1.33863
1.05361E+07 1.33935
1.05401E+07 1.34025
1.05438E+07 1.34109
1.05473E+07 1.34188
1.05496E+07 1.34240
1.05500E+07 1.34249
1.05506E+07 1.34264
1.05537E+07 1.34344
1.05566E+07 1.34420
1.05620E+07 1.34561
1.05622E+07 1.34567
1.05667E+07 1.34689
1.05709E+07 1.34800
1.05716E+07 1.34821
1.05745E+07 1.34901
1.05777E+07 1.34991
1.05833E+07 1.35147
1.05858E+07 1.35218
1.05875E+07 1.35266
1.05906E+07 1.35359
1.05953E+07 1.35498
1.06000E+07 1.35637
1.06062E+07 1.35788
1.06122E+07 1.35935
1.06125E+07 1.35941
1.06180E+07 1.36083
1.06234E+07 1.36219
1.06237E+07 1.36227
1.06291E+07 1.36374
1.06344E+07 1.36516
1.06396E+07 1.36655
1.06425E+07 1.36734
1.06445E+07 1.36793
1.06494E+07 1.36932
1.06500E+07 1.36951
1.06540E+07 1.37051
1.06568E+07 1.37120
1.06586E+07 1.37166
1.06630E+07 1.37281
1.06672E+07 1.37394
1.06676E+07 1.37404
1.06755E+07 1.37626
1.06832E+07 1.37846
1.06838E+07 1.37863
1.06905E+07 1.38069
1.06973E+07 1.38281
1.07000E+07 1.38367
1.07037E+07 1.38471
1.07097E+07 1.38642
1.07153E+07 1.38805
1.07206E+07 1.38959
1.07249E+07 1.39088
1.07255E+07 1.39107
1.07302E+07 1.39256
1.07345E+07 1.39397
1.07427E+07 1.39666
1.07436E+07 1.39699
1.07498E+07 1.39919
1.07500E+07 1.39925
1.07561E+07 1.40140
1.07577E+07 1.40198
1.07616E+07 1.40346
1.07664E+07 1.40533
1.07748E+07 1.40868
1.07788E+07 1.41036
1.07811E+07 1.41134
1.07858E+07 1.41349
1.07929E+07 1.41679
1.08000E+07 1.42021
1.08062E+07 1.42231
1.08122E+07 1.42434
1.08124E+07 1.42441
1.08180E+07 1.42634
1.08237E+07 1.42828
1.08240E+07 1.42840
1.08249E+07 1.42871
1.08291E+07 1.43029
1.08344E+07 1.43227
1.08396E+07 1.43419
1.08445E+07 1.43605
1.08459E+07 1.43655
1.08494E+07 1.43790
1.08500E+07 1.43814
1.08540E+07 1.43934
1.08624E+07 1.44183
1.08631E+07 1.44207
1.08650E+07 1.44269
1.08716E+07 1.44493
1.08796E+07 1.44764
1.08818E+07 1.44838
1.08871E+07 1.45023
1.08941E+07 1.45269
1.08965E+07 1.45353
1.09000E+07 1.45479
1.09007E+07 1.45493
1.09069E+07 1.45621
1.09094E+07 1.45673
1.09127E+07 1.45746
1.09181E+07 1.45867
1.09232E+07 1.45980
1.09280E+07 1.46087
1.09320E+07 1.46175
1.09370E+07 1.46295
1.09448E+07 1.46485
1.09489E+07 1.46583
1.09499E+07 1.46608
1.09500E+07 1.46611
1.09517E+07 1.46616
1.09577E+07 1.46633
1.09617E+07 1.46644
1.09630E+07 1.46651
1.09722E+07 1.46695
1.09792E+07 1.46728
1.09808E+07 1.46735
1.09844E+07 1.46761
1.09922E+07 1.46818
1.10000E+07 1.46875
1.10062E+07 1.46757
1.10122E+07 1.46644
1.10180E+07 1.46534
1.10237E+07 1.46427
1.10291E+07 1.46323
1.10344E+07 1.46223
1.10447E+07 1.46028
1.10500E+07 1.45928
1.10544E+07 1.45813
1.10634E+07 1.45572
1.10719E+07 1.45346
1.10799E+07 1.45135
1.10873E+07 1.44936
1.10943E+07 1.44750
1.11000E+07 1.44599
1.11009E+07 1.44576
1.11071E+07 1.44425
1.11129E+07 1.44283
1.11183E+07 1.44150
1.11285E+07 1.43900
1.11374E+07 1.43681
1.11452E+07 1.43489
1.11500E+07 1.43371
1.11520E+07 1.43337
1.11580E+07 1.43237
1.11633E+07 1.43149
1.11724E+07 1.42994
1.11793E+07 1.42879
1.11897E+07 1.42705
1.12000E+07 1.42531
1.12062E+07 1.42435
1.12122E+07 1.42342
1.12239E+07 1.42161
1.12348E+07 1.41991
1.12450E+07 1.41832
1.12500E+07 1.41755
1.12547E+07 1.41683
1.12637E+07 1.41545
1.12722E+07 1.41416
1.12801E+07 1.41295
1.12876E+07 1.41181
1.12946E+07 1.41074
1.13000E+07 1.40991
1.13011E+07 1.40974
1.13073E+07 1.40883
1.13188E+07 1.40712
1.13289E+07 1.40562
1.13378E+07 1.40431
1.13456E+07 1.40316
1.13500E+07 1.40250
1.13524E+07 1.40217
1.13642E+07 1.40049
1.13732E+07 1.39923
1.13799E+07 1.39829
1.13899E+07 1.39687
1.14000E+07 1.39545
1.14124E+07 1.39395
1.14240E+07 1.39254
1.14350E+07 1.39122
1.14452E+07 1.38997
1.14500E+07 1.38939
1.14548E+07 1.38892
1.14638E+07 1.38803
1.14723E+07 1.38719
1.14802E+07 1.38641
1.14877E+07 1.38567
1.15000E+07 1.38446
1.15017E+07 1.38434
1.15139E+07 1.38348
1.15246E+07 1.38273
1.15340E+07 1.38207
1.15423E+07 1.38149
1.15500E+07 1.38095
1.15567E+07 1.38071
1.15675E+07 1.38032
1.15756E+07 1.38003
1.15878E+07 1.37959
1.16000E+07 1.37915
1.16124E+07 1.37921
1.16240E+07 1.37927
1.16350E+07 1.37933
1.16452E+07 1.37938
1.16500E+07 1.37941
1.16548E+07 1.37957
1.16729E+07 1.38016
1.16887E+07 1.38068
1.17000E+07 1.38106
1.17025E+07 1.38117
1.17062E+07 1.38134
1.17062E+07 1.38134
1.17147E+07 1.38180
1.17253E+07 1.38238
1.17439E+07 1.38340
1.17500E+07 1.38373
1.17579E+07 1.38425
1.17684E+07 1.38495
1.17842E+07 1.38600
1.18000E+07 1.38706
1.18016E+07 1.38718
1.18031E+07 1.38730
1.18061E+07 1.38754
1.18091E+07 1.38777
1.18121E+07 1.38800
1.18150E+07 1.38823
1.18179E+07 1.38845
1.18207E+07 1.38867
1.18235E+07 1.38889
1.18248E+07 1.38899
1.18262E+07 1.38910
1.18289E+07 1.38931
1.18316E+07 1.38952
1.18342E+07 1.38973
1.18368E+07 1.38993
1.18393E+07 1.39013
1.18418E+07 1.39032
1.18443E+07 1.39051
1.18466E+07 1.39069
1.18467E+07 1.39070
1.18491E+07 1.39089
1.18500E+07 1.39096
1.18514E+07 1.39107
1.18537E+07 1.39125
1.18560E+07 1.39142
1.18582E+07 1.39160
1.18604E+07 1.39176
1.18626E+07 1.39193
1.18647E+07 1.39210
1.18656E+07 1.39217
1.18668E+07 1.39226
1.18689E+07 1.39242
1.18709E+07 1.39257
1.18729E+07 1.39273
1.18749E+07 1.39288
1.18769E+07 1.39303
1.18788E+07 1.39318
1.18807E+07 1.39333
1.18824E+07 1.39346
1.18825E+07 1.39347
1.18843E+07 1.39361
1.18861E+07 1.39375
1.18879E+07 1.39389
1.18896E+07 1.39402
1.18914E+07 1.39416
1.18931E+07 1.39429
1.18947E+07 1.39441
1.18964E+07 1.39454
1.18970E+07 1.39459
1.18980E+07 1.39467
1.18996E+07 1.39479
1.19000E+07 1.39483
1.19011E+07 1.39490
1.19042E+07 1.39512
1.19072E+07 1.39532
1.19101E+07 1.39552
1.19129E+07 1.39572
1.19156E+07 1.39590
1.19182E+07 1.39609
1.19208E+07 1.39626
1.19227E+07 1.39639
1.19232E+07 1.39643
1.19256E+07 1.39660
1.19279E+07 1.39676
1.19302E+07 1.39692
1.19324E+07 1.39707
1.19345E+07 1.39722
1.19365E+07 1.39736
1.19385E+07 1.39750
1.19404E+07 1.39763
1.19420E+07 1.39774
1.19423E+07 1.39776
1.19441E+07 1.39789
1.19458E+07 1.39801
1.19475E+07 1.39813
1.19491E+07 1.39824
1.19500E+07 1.39830
1.19507E+07 1.39834
1.19538E+07 1.39851
1.19564E+07 1.39865
1.19567E+07 1.39866
1.19594E+07 1.39880
1.19619E+07 1.39894
1.19643E+07 1.39907
1.19665E+07 1.39919
1.19686E+07 1.39930
1.19706E+07 1.39941
1.19724E+07 1.39951
1.19741E+07 1.39960
1.19757E+07 1.39969
1.19782E+07 1.39982
1.19788E+07 1.39986
1.19814E+07 1.40000
1.19838E+07 1.40013
1.19858E+07 1.40025
1.19876E+07 1.40035
1.19891E+07 1.40043
1.19918E+07 1.40059
1.19939E+07 1.40071
1.19969E+07 1.40088
1.20000E+07 1.40106
1.20124E+07 1.40154
1.20248E+07 1.40202
1.20357E+07 1.40244
1.20466E+07 1.40286
1.20550E+07 1.40320
1.20561E+07 1.40320
1.20740E+07 1.40331
1.20848E+07 1.40338
1.20897E+07 1.40341
1.21034E+07 1.40351
1.21135E+07 1.40358
1.21275E+07 1.40369
1.21350E+07 1.40374
1.21456E+07 1.40383
1.21592E+07 1.40395
1.21675E+07 1.40403
1.21796E+07 1.40414
1.22000E+07 1.40435
1.22248E+07 1.40458
1.22466E+07 1.40480
1.22567E+07 1.40490
1.22567E+07 1.40490
1.22657E+07 1.40493
1.22684E+07 1.40494
1.22824E+07 1.40499
1.23012E+07 1.40507
1.23117E+07 1.40513
1.23337E+07 1.40526
1.23502E+07 1.40536
1.23505E+07 1.40537
1.23751E+07 1.40557
1.24000E+07 1.40579
1.24062E+07 1.40584
1.24122E+07 1.40589
1.24180E+07 1.40593
1.24237E+07 1.40597
1.24248E+07 1.40598
1.24292E+07 1.40602
1.24345E+07 1.40606
1.24396E+07 1.40610
1.24446E+07 1.40614
1.24466E+07 1.40616
1.24494E+07 1.40618
1.24497E+07 1.40618
1.24541E+07 1.40623
1.24632E+07 1.40631
1.24717E+07 1.40639
1.24797E+07 1.40647
1.24848E+07 1.40652
1.24871E+07 1.40654
1.24871E+07 1.40654
1.24942E+07 1.40663
1.25000E+07 1.40669
1.25008E+07 1.40670
1.25036E+07 1.40672
1.25069E+07 1.40673
1.25127E+07 1.40675
1.25135E+07 1.40675
1.25182E+07 1.40676
1.25233E+07 1.40678
1.25281E+07 1.40680
1.25351E+07 1.40682
1.25370E+07 1.40683
1.25434E+07 1.40685
1.25449E+07 1.40686
1.25518E+07 1.40690
1.25578E+07 1.40694
1.25630E+07 1.40697
1.25675E+07 1.40699
1.25677E+07 1.40699
1.25757E+07 1.40705
1.25818E+07 1.40709
1.25909E+07 1.40715
1.26000E+07 1.40721
1.26016E+07 1.40721
1.26031E+07 1.40722
1.26046E+07 1.40722
1.26061E+07 1.40723
1.26062E+07 1.40723
1.26076E+07 1.40724
1.26091E+07 1.40724
1.26106E+07 1.40725
1.26121E+07 1.40726
1.26122E+07 1.40726
1.26135E+07 1.40726
1.26150E+07 1.40727
1.26164E+07 1.40728
1.26178E+07 1.40728
1.26180E+07 1.40728
1.26193E+07 1.40729
1.26221E+07 1.40730
1.26237E+07 1.40731
1.26248E+07 1.40731
1.26275E+07 1.40732
1.26292E+07 1.40733
1.26302E+07 1.40733
1.26329E+07 1.40735
1.26345E+07 1.40735
1.26354E+07 1.40736
1.26380E+07 1.40737
1.26396E+07 1.40737
1.26405E+07 1.40738
1.26430E+07 1.40739
1.26446E+07 1.40740
1.26454E+07 1.40740
1.26478E+07 1.40741
1.26497E+07 1.40742
1.26502E+07 1.40742
1.26525E+07 1.40743
1.26542E+07 1.40744
1.26548E+07 1.40745
1.26571E+07 1.40746
1.26593E+07 1.40747
1.26615E+07 1.40749
1.26633E+07 1.40750
1.26636E+07 1.40750
1.26658E+07 1.40751
1.26678E+07 1.40753
1.26699E+07 1.40754
1.26718E+07 1.40755
1.26719E+07 1.40755
1.26739E+07 1.40756
1.26759E+07 1.40757
1.26778E+07 1.40758
1.26797E+07 1.40760
1.26798E+07 1.40760
1.26816E+07 1.40761
1.26834E+07 1.40762
1.26852E+07 1.40763
1.26870E+07 1.40764
1.26871E+07 1.40764
1.26873E+07 1.40764
1.26888E+07 1.40765
1.26905E+07 1.40766
1.26922E+07 1.40767
1.26939E+07 1.40768
1.26943E+07 1.40769
1.26955E+07 1.40770
1.26972E+07 1.40771
1.26988E+07 1.40772
1.27003E+07 1.40773
1.27009E+07 1.40773
1.27019E+07 1.40774
1.27034E+07 1.40775
1.27049E+07 1.40776
1.27064E+07 1.40777
1.27070E+07 1.40777
1.27079E+07 1.40778
1.27093E+07 1.40779
1.27121E+07 1.40780
1.27128E+07 1.40781
1.27149E+07 1.40782
1.27175E+07 1.40784
1.27183E+07 1.40784
1.27201E+07 1.40786
1.27226E+07 1.40787
1.27234E+07 1.40788
1.27246E+07 1.40789
1.27250E+07 1.40789
1.27273E+07 1.40791
1.27296E+07 1.40793
1.27318E+07 1.40794
1.27329E+07 1.40795
1.27339E+07 1.40796
1.27360E+07 1.40798
1.27380E+07 1.40799
1.27399E+07 1.40801
1.27413E+07 1.40802
1.27418E+07 1.40803
1.27434E+07 1.40804
1.27436E+07 1.40804
1.27453E+07 1.40806
1.27470E+07 1.40807
1.27486E+07 1.40809
1.27487E+07 1.40809
1.27503E+07 1.40810
1.27519E+07 1.40812
1.27534E+07 1.40813
1.27548E+07 1.40814
1.27550E+07 1.40814
1.27576E+07 1.40817
1.27603E+07 1.40819
1.27606E+07 1.40820
1.27628E+07 1.40822
1.27651E+07 1.40824
1.27673E+07 1.40826
1.27693E+07 1.40828
1.27705E+07 1.40829
1.27712E+07 1.40829
1.27730E+07 1.40831
1.27747E+07 1.40833
1.27763E+07 1.40834
1.27778E+07 1.40835
1.27778E+07 1.40835
1.27805E+07 1.40838
1.27830E+07 1.40840
1.27834E+07 1.40841
1.27851E+07 1.40842
1.27870E+07 1.40844
1.27886E+07 1.40846
1.27914E+07 1.40849
1.27917E+07 1.40849
1.27936E+07 1.40851
1.27952E+07 1.40852
1.27976E+07 1.40855
1.28000E+07 1.40857
1.28062E+07 1.40850
1.28122E+07 1.40843
1.28180E+07 1.40837
1.28237E+07 1.40830
1.28292E+07 1.40824
1.28345E+07 1.40819
1.28396E+07 1.40813
1.28398E+07 1.40813
1.28446E+07 1.40808
1.28494E+07 1.40803
1.28497E+07 1.40803
1.28541E+07 1.40799
1.28586E+07 1.40794
1.28591E+07 1.40794
1.28630E+07 1.40790
1.28673E+07 1.40786
1.28678E+07 1.40786
1.28714E+07 1.40783
1.28754E+07 1.40780
1.28761E+07 1.40779
1.28793E+07 1.40777
1.28830E+07 1.40774
1.28838E+07 1.40774
1.28867E+07 1.40772
1.28902E+07 1.40770
1.28910E+07 1.40769
1.28936E+07 1.40768
1.28969E+07 1.40766
1.28978E+07 1.40766
1.28996E+07 1.40765
1.29034E+07 1.40764
1.29042E+07 1.40763
1.29094E+07 1.40762
1.29101E+07 1.40762
1.29150E+07 1.40762
1.29157E+07 1.40762
1.29203E+07 1.40762
1.29253E+07 1.40763
1.29262E+07 1.40764
1.29299E+07 1.40765
1.29343E+07 1.40768
1.29354E+07 1.40769
1.29384E+07 1.40771
1.29422E+07 1.40775
1.29435E+07 1.40776
1.29458E+07 1.40779
1.29492E+07 1.40784
1.29505E+07 1.40786
1.29556E+07 1.40794
1.29567E+07 1.40797
1.29611E+07 1.40806
1.29621E+07 1.40809
1.29660E+07 1.40819
1.29702E+07 1.40832
1.29716E+07 1.40836
1.29739E+07 1.40845
1.29787E+07 1.40864
1.29804E+07 1.40871
1.29853E+07 1.40895
1.29890E+07 1.40915
1.29893E+07 1.40917
1.29945E+07 1.40949
1.30000E+07 1.40989
1.30062E+07 1.40991
1.30182E+07 1.40996
1.30295E+07 1.41001
1.30401E+07 1.41005
1.30497E+07 1.41009
1.30501E+07 1.41009
1.30594E+07 1.41014
1.30681E+07 1.41018
1.30763E+07 1.41023
1.30840E+07 1.41027
1.30871E+07 1.41028
1.30912E+07 1.41031
1.30980E+07 1.41035
1.31044E+07 1.41039
1.31163E+07 1.41047
1.31267E+07 1.41054
1.31359E+07 1.41060
1.31434E+07 1.41065
1.31439E+07 1.41065
1.31509E+07 1.41071
1.31570E+07 1.41076
1.31677E+07 1.41085
1.31758E+07 1.41092
1.31879E+07 1.41102
1.32000E+07 1.41113
1.32124E+07 1.41120
1.32241E+07 1.41128
1.32350E+07 1.41135
1.32452E+07 1.41141
1.32497E+07 1.41144
1.32549E+07 1.41148
1.32639E+07 1.41156
1.32724E+07 1.41162
1.32803E+07 1.41169
1.32878E+07 1.41175
1.32880E+07 1.41175
1.33017E+07 1.41179
1.33140E+07 1.41183
1.33247E+07 1.41186
1.33247E+07 1.41186
1.33341E+07 1.41192
1.33423E+07 1.41196
1.33495E+07 1.41200
1.33621E+07 1.41207
1.33716E+07 1.41212
1.33858E+07 1.41220
1.34000E+07 1.41228
1.34124E+07 1.41235
1.34241E+07 1.41242
1.34350E+07 1.41248
1.34453E+07 1.41254
1.34549E+07 1.41260
1.34639E+07 1.41265
1.34808E+07 1.41275
1.34957E+07 1.41284
1.34996E+07 1.41286
1.35000E+07 1.41287
1.35087E+07 1.41291
1.35201E+07 1.41296
1.35300E+07 1.41300
1.35475E+07 1.41308
1.35606E+07 1.41315
1.35704E+07 1.41319
1.35852E+07 1.41326
1.36000E+07 1.41334
1.36124E+07 1.41338
1.36357E+07 1.41346
1.36562E+07 1.41353
1.36741E+07 1.41360
1.36897E+07 1.41365
1.36996E+07 1.41369
1.37035E+07 1.41371
1.37275E+07 1.41385
1.37456E+07 1.41395
1.37592E+07 1.41403
1.37796E+07 1.41416
1.38000E+07 1.41429
1.38248E+07 1.41438
1.38466E+07 1.41446
1.38848E+07 1.41461
1.39135E+07 1.41472
1.39351E+07 1.41482
1.39675E+07 1.41497
1.40000E+07 1.41513
1.40497E+07 1.41528
1.40872E+07 1.41541
1.41435E+07 1.41562
1.42000E+07 1.41584
1.42497E+07 1.41596
1.43247E+07 1.41617
1.44000E+07 1.41642
1.44030E+07 1.41643
1.44497E+07 1.41655
1.45000E+07 1.41669
1.45247E+07 1.41672
1.46000E+07 1.41687
1.46997E+07 1.41700
1.48000E+07 1.41717
1.48550E+07 1.41725
1.48997E+07 1.41727
1.50000E+07 1.41733
1.50997E+07 1.41732
1.52000E+07 1.41733
1.52997E+07 1.41724
1.54000E+07 1.41718
1.56000E+07 1.41687
1.58000E+07 1.41639
1.59330E+07 1.41601
1.60000E+07 1.41575
1.62000E+07 1.41494
1.64000E+07 1.41396
1.64190E+07 1.41386
1.66000E+07 1.41281
1.68000E+07 1.41149
1.70000E+07 1.41000
1.72000E+07 1.40843
1.74000E+07 1.40685
1.76000E+07 1.40526
1.78000E+07 1.40364
1.80000E+07 1.40196
1.82000E+07 1.40022
1.84000E+07 1.39841
1.86000E+07 1.39651
1.88000E+07 1.39451
1.90000E+07 1.39241
1.92000E+07 1.39019
1.94000E+07 1.38785
1.96000E+07 1.38537
1.98000E+07 1.38276
2.00000E+07 1.38000
