Te-128(n,tot) ENDFB-8.0
Energy(eV) XS(b)
1.00000E-05 32.8051
1.03125E-05 32.3154
1.06250E-05 31.8476
1.09375E-05 31.4001
1.12500E-05 30.9716
1.15625E-05 30.5607
1.18750E-05 30.1662
1.21875E-05 29.7872
1.25000E-05 29.4226
1.28125E-05 29.0715
1.31250E-05 28.7332
1.34375E-05 28.4068
1.37500E-05 28.0918
1.43750E-05 27.4931
1.50000E-05 26.9326
1.56250E-05 26.4065
1.62500E-05 25.9113
1.68750E-05 25.4442
1.75000E-05 25.0027
1.81250E-05 24.5845
1.87500E-05 24.1877
1.93750E-05 23.8105
2.00000E-05 23.4513
2.09375E-05 22.9435
2.18750E-05 22.4692
2.28125E-05 22.0248
2.37500E-05 21.6075
2.46875E-05 21.2145
2.56250E-05 20.8437
2.65625E-05 20.4931
2.75000E-05 20.1609
2.84375E-05 19.8455
2.93750E-05 19.5457
3.03125E-05 19.2602
3.12500E-05 18.9879
3.21875E-05 18.7279
3.31250E-05 18.4792
3.40625E-05 18.2411
3.50000E-05 18.0129
3.59375E-05 17.7938
3.68750E-05 17.5834
3.78125E-05 17.3810
3.87500E-05 17.1863
3.96875E-05 16.9986
4.06250E-05 16.8177
4.25000E-05 16.4745
4.43750E-05 16.1539
4.62500E-05 15.8536
4.81250E-05 15.5715
5.00000E-05 15.3060
5.15625E-05 15.0963
5.31250E-05 14.8962
5.46875E-05 14.7050
5.62500E-05 14.5222
5.78125E-05 14.3471
5.93750E-05 14.1792
6.09375E-05 14.0181
6.25000E-05 13.8633
6.40625E-05 13.7145
6.56250E-05 13.5712
6.71875E-05 13.4331
6.87500E-05 13.3000
7.18750E-05 13.0475
7.50000E-05 12.8117
7.81250E-05 12.5909
8.12500E-05 12.3836
8.43750E-05 12.1885
8.75000E-05 12.0045
9.06250E-05 11.8306
9.37500E-05 11.6660
9.68750E-05 11.5099
0.000100000 11.3616
0.000103125 11.2205
0.000106250 11.0860
0.000109375 10.9578
0.000112500 10.8353
0.000115625 10.7181
0.000118750 10.6059
0.000121875 10.4983
0.000125000 10.3951
0.000128125 10.2960
0.000131250 10.2007
0.000134375 10.1090
0.000137500 10.0206
0.000143750 9.85341
0.000150000 9.69760
0.000156250 9.55201
0.000162500 9.41562
0.000168750 9.28756
0.000175000 9.16705
0.000181250 9.05341
0.000187500 8.94604
0.000193750 8.84443
0.000200000 8.74809
0.000209375 8.61257
0.000218750 8.48678
0.000228125 8.36966
0.000237500 8.26031
0.000246875 8.15795
0.000256250 8.06191
0.000265625 7.97160
0.000275000 7.88651
0.000284375 7.80618
0.000293750 7.73020
0.000303125 7.65823
0.000312500 7.58993
0.000321875 7.52503
0.000331250 7.46328
0.000340625 7.40443
0.000350000 7.34829
0.000359375 7.29465
0.000368750 7.24337
0.000378125 7.19426
0.000387500 7.14721
0.000396875 7.10207
0.000406250 7.05872
0.000425000 6.97700
0.000443750 6.90126
0.000462500 6.83085
0.000481250 6.76521
0.000500000 6.70386
0.000515625 6.65569
0.000531250 6.60999
0.000546875 6.56657
0.000562500 6.52525
0.000578125 6.48587
0.000593750 6.44830
0.000609375 6.41241
0.000625000 6.37808
0.000640625 6.34522
0.000656250 6.31372
0.000671875 6.28350
0.000687500 6.25448
0.000718750 6.19974
0.000750000 6.14899
0.000781250 6.10179
0.000812500 6.05776
0.000843750 6.01658
0.000875000 5.97796
0.000906250 5.94167
0.000937500 5.90749
0.000968750 5.87522
0.00100000 5.84471
0.00103125 5.81581
0.00106250 5.78838
0.00109375 5.76231
0.00112500 5.73750
0.00115625 5.71385
0.00118750 5.69128
0.00121875 5.66970
0.00125000 5.64906
0.00128125 5.62929
0.00131250 5.61033
0.00134375 5.59213
0.00137500 5.57464
0.00143750 5.54163
0.00150000 5.51099
0.00156250 5.48246
0.00162500 5.45582
0.00168750 5.43086
0.00175000 5.40743
0.00181250 5.38539
0.00187500 5.36459
0.00193750 5.34495
0.00200000 5.32634
0.00209375 5.30021
0.00218750 5.27599
0.00228125 5.25345
0.00237500 5.23243
0.00246875 5.21276
0.00256250 5.19430
0.00265625 5.17694
0.00275000 5.16059
0.00284375 5.14513
0.00293750 5.13051
0.00303125 5.11665
0.00312500 5.10349
0.00321875 5.09097
0.00331250 5.07904
0.00340625 5.06766
0.00350000 5.05679
0.00359375 5.04639
0.00368750 5.03643
0.00378125 5.02689
0.00387500 5.01772
0.00396875 5.00892
0.00406250 5.00046
0.00425000 4.98446
0.00443750 4.96959
0.00462500 4.95572
0.00481250 4.94274
0.00500000 4.93057
0.00515625 4.92099
0.00531250 4.91187
0.00546875 4.90318
0.00562500 4.89489
0.00578125 4.88697
0.00593750 4.87939
0.00609375 4.87213
0.00625000 4.86516
0.00640625 4.85848
0.00656250 4.85205
0.00671875 4.84587
0.00687500 4.83992
0.00718750 4.82866
0.00750000 4.81816
0.00781250 4.80835
0.00812500 4.79915
0.00843750 4.79051
0.00875000 4.78237
0.00906250 4.77469
0.00937500 4.76742
0.00968750 4.76054
0.0100000 4.75400
0.0103125 4.74779
0.0106250 4.74187
0.0109375 4.73622
0.0112500 4.73083
0.0115625 4.72567
0.0118750 4.72073
0.0121875 4.71599
0.0125000 4.71145
0.0128125 4.70708
0.0131250 4.70288
0.0134375 4.69884
0.0137500 4.69494
0.0143750 4.68756
0.0150000 4.68067
0.0156250 4.67423
0.0162500 4.66818
0.0168750 4.66249
0.0175000 4.65713
0.0181250 4.65206
0.0187500 4.64726
0.0193750 4.64270
0.0200000 4.63838
0.0206625 4.63402
0.0213250 4.62988
0.0219875 4.62593
0.0226500 4.62217
0.0233125 4.61858
0.0239750 4.61515
0.0246375 4.61186
0.0253000 4.60871
0.0264578 4.60350
0.0276156 4.59864
0.0287734 4.59409
0.0299313 4.58982
0.0310891 4.58580
0.0322469 4.58201
0.0334047 4.57843
0.0345625 4.57503
0.0355274 4.57234
0.0364922 4.56975
0.0374570 4.56727
0.0384219 4.56489
0.0393867 4.56260
0.0403516 4.56039
0.0413164 4.55826
0.0422813 4.55621
0.0442109 4.55233
0.0461406 4.54869
0.0480703 4.54529
0.0500000 4.54209
0.0515625 4.53964
0.0531250 4.53730
0.0546875 4.53506
0.0562500 4.53292
0.0578125 4.53087
0.0593750 4.52890
0.0609375 4.52702
0.0625000 4.52520
0.0640625 4.52346
0.0656250 4.52178
0.0671875 4.52016
0.0687500 4.51860
0.0718750 4.51563
0.0750000 4.51286
0.0781250 4.51025
0.0812500 4.50780
0.0843750 4.50550
0.0875000 4.50331
0.0906250 4.50125
0.0937500 4.49929
0.0968750 4.49743
0.100000 4.49566
0.103125 4.49397
0.106250 4.49235
0.109375 4.49081
0.112500 4.48933
0.115625 4.48792
0.118750 4.48656
0.121875 4.48525
0.125000 4.48400
0.128125 4.48279
0.131250 4.48163
0.134375 4.48050
0.137500 4.47942
0.143750 4.47736
0.150000 4.47543
0.156250 4.47361
0.162500 4.47191
0.168750 4.47029
0.175000 4.46877
0.181250 4.46732
0.187500 4.46595
0.193750 4.46465
0.200000 4.46340
0.209375 4.46164
0.218750 4.45999
0.228125 4.45844
0.237500 4.45699
0.246875 4.45561
0.256250 4.45431
0.265625 4.45308
0.275000 4.45191
0.284375 4.45080
0.293750 4.44974
0.303125 4.44873
0.312500 4.44776
0.321875 4.44683
0.331250 4.44594
0.340625 4.44509
0.350000 4.44427
0.359375 4.44348
0.368750 4.44272
0.378125 4.44198
0.387500 4.44128
0.396875 4.44059
0.406250 4.43993
0.425000 4.43867
0.443750 4.43748
0.462500 4.43637
0.500000 4.43431
0.531250 4.43275
0.562500 4.43131
0.593750 4.42997
0.625000 4.42872
0.687500 4.42646
0.750000 4.42444
0.812500 4.42263
0.875000 4.42098
0.937500 4.41947
1.00000 4.41807
1.06250 4.41677
1.12500 4.41556
1.18750 4.41442
1.25000 4.41334
1.37500 4.41134
1.50000 4.40952
1.62500 4.40784
1.75000 4.40627
1.87500 4.40481
2.00000 4.40342
2.18750 4.40147
2.37500 4.39965
2.56250 4.39792
2.75000 4.39629
2.93750 4.39472
3.12500 4.39322
3.31250 4.39176
3.50000 4.39036
3.68750 4.38899
3.87500 4.38766
4.25000 4.38509
4.62500 4.38262
5.00000 4.38023
5.31250 4.37830
5.62500 4.37641
5.93750 4.37456
6.25000 4.37274
6.87500 4.36919
7.50000 4.36574
8.12500 4.36238
8.75000 4.35909
9.37500 4.35587
10.0000 4.35270
10.6250 4.34959
11.2500 4.34652
11.8750 4.34350
12.5000 4.34052
13.1250 4.33757
13.7500 4.33466
15.0000 4.32894
16.2500 4.32334
17.5000 4.31786
18.7500 4.31248
20.0000 4.30719
20.9375 4.30329
21.8750 4.29944
23.7500 4.29187
25.6250 4.28449
27.5000 4.27728
29.3750 4.27023
31.2500 4.26333
33.1250 4.25658
35.0000 4.24996
36.8750 4.24348
38.7500 4.23714
40.6250 4.23091
42.5000 4.22481
44.3750 4.21882
46.2500 4.21294
48.1250 4.20717
50.0000 4.20151
53.1250 4.19230
56.2500 4.18335
59.3750 4.17466
62.5000 4.16622
65.6250 4.15800
68.7500 4.15000
71.8750 4.14222
75.0000 4.13463
78.1250 4.12724
81.2500 4.12003
84.3750 4.11300
87.5000 4.10614
90.6250 4.09944
93.7500 4.09290
96.8750 4.08650
100.000 4.08025
106.250 4.06815
112.500 4.05657
118.750 4.04545
125.000 4.03476
131.250 4.02447
137.500 4.01456
143.750 4.00499
150.000 3.99574
156.250 3.98678
162.500 3.97810
168.750 3.96967
175.000 3.96147
187.500 3.94569
200.000 3.93061
210.408 3.91851
220.816 3.90672
231.224 3.89518
241.632 3.88380
255.510 3.86874
269.387 3.85360
276.326 3.84590
283.264 3.83808
290.203 3.83006
297.141 3.82182
301.767 3.81616
308.128 3.80810
314.488 3.79967
320.849 3.79078
324.029 3.78613
327.209 3.78134
330.823 3.77570
332.630 3.77280
334.437 3.76986
336.244 3.76688
338.051 3.76389
338.954 3.76241
339.858 3.76096
340.761 3.75956
341.665 3.75825
342.189 3.75757
342.713 3.75698
343.237 3.75653
343.761 3.75628
344.023 3.75627
344.285 3.75637
344.547 3.75662
344.809 3.75707
345.071 3.75781
345.333 3.75894
345.595 3.76066
345.726 3.76185
345.857 3.76333
346.001 3.76544
346.146 3.76822
346.290 3.77200
346.363 3.77444
346.435 3.77740
346.507 3.78107
346.580 3.78574
346.652 3.79183
346.724 3.79999
346.796 3.81124
346.833 3.81847
346.869 3.82702
346.905 3.83724
346.941 3.84939
346.977 3.86387
347.013 3.88109
347.045 3.89887
347.076 3.91942
347.108 3.94319
347.140 3.97056
347.171 4.00208
347.203 4.03797
347.235 4.07877
347.266 4.12489
347.298 4.17690
347.329 4.23483
347.361 4.29913
347.393 4.37002
347.424 4.44763
347.456 4.53195
347.487 4.62286
347.519 4.72009
347.548 4.81583
347.578 4.91616
347.607 5.02047
347.637 5.12761
347.754 5.56942
347.786 5.68570
347.817 5.79725
347.849 5.90273
347.880 6.00047
347.902 6.06171
347.923 6.11812
347.945 6.16925
347.966 6.21447
347.991 6.25932
348.016 6.29557
348.046 6.32768
348.077 6.34565
348.100 6.34975
348.131 6.34216
348.161 6.32013
348.187 6.29077
348.212 6.25203
348.240 6.19957
348.268 6.13740
348.293 6.07216
348.319 6.00032
348.344 5.92211
348.370 5.83898
348.414 5.68522
348.457 5.52339
348.545 5.19193
348.587 5.03807
348.629 4.89068
348.649 4.81995
348.670 4.75151
348.691 4.68553
348.712 4.62216
348.733 4.56124
348.753 4.50343
348.774 4.44850
348.795 4.39647
348.816 4.34735
348.837 4.30112
348.857 4.25775
348.878 4.21717
348.903 4.17321
348.927 4.13282
348.951 4.09586
348.975 4.06214
349.000 4.03148
349.024 4.00369
349.048 3.97857
349.073 3.95602
349.097 3.93565
349.121 3.91738
349.145 3.90101
349.170 3.88638
349.218 3.86168
349.267 3.84212
349.315 3.82658
349.364 3.81425
349.413 3.80443
349.461 3.79656
349.510 3.79018
349.558 3.78496
349.655 3.77698
349.729 3.77241
349.803 3.76873
349.951 3.76310
350.099 3.75894
350.247 3.75570
350.395 3.75310
350.543 3.75096
350.691 3.74915
350.839 3.74759
351.135 3.74503
351.431 3.74298
351.727 3.74126
352.023 3.73978
352.310 3.73851
352.597 3.73735
353.171 3.73526
353.744 3.73338
354.318 3.73162
354.891 3.72995
355.465 3.72833
356.612 3.72516
357.759 3.72202
358.906 3.71887
361.200 3.71242
362.384 3.70899
364.752 3.70185
368.008 3.69129
371.264 3.67970
374.521 3.66687
377.777 3.65252
381.033 3.63631
382.661 3.62736
384.289 3.61777
385.917 3.60745
387.545 3.59630
389.173 3.58421
390.801 3.57105
393.022 3.55108
394.132 3.54007
395.242 3.52829
396.352 3.51569
397.462 3.50206
398.572 3.48733
399.682 3.47136
401.310 3.44531
402.124 3.43094
402.938 3.41553
403.752 3.39898
404.566 3.38114
405.380 3.36184
406.194 3.34092
406.823 3.32349
407.452 3.30483
408.081 3.28480
408.710 3.26326
409.340 3.24003
409.969 3.21494
410.598 3.18766
411.227 3.15790
411.634 3.13717
412.041 3.11516
412.448 3.09175
412.855 3.06679
413.262 3.04014
413.669 3.01160
414.076 2.98099
414.483 2.94806
414.816 2.91919
415.149 2.88843
415.482 2.85559
415.815 2.82044
416.148 2.78274
416.481 2.74225
416.814 2.69861
417.147 2.65144
417.350 2.62070
417.554 2.58837
417.757 2.55435
417.961 2.51851
418.164 2.48071
418.368 2.44080
418.571 2.39861
418.775 2.35399
418.960 2.31112
419.145 2.26596
419.330 2.21832
419.515 2.16806
419.700 2.11504
419.792 2.08744
419.885 2.05910
419.977 2.03001
420.070 2.00016
420.162 1.96953
420.255 1.93813
420.357 1.90269
420.458 1.86638
420.560 1.82917
420.662 1.79119
420.764 1.75246
420.865 1.71318
420.967 1.67347
421.069 1.63367
421.171 1.59404
421.222 1.57446
421.273 1.55513
421.323 1.53614
421.374 1.51759
421.425 1.49962
421.476 1.48240
421.527 1.46604
421.578 1.45078
421.629 1.43689
421.680 1.42471
421.730 1.41455
421.781 1.40692
421.832 1.40241
421.883 1.40180
421.943 1.40753
421.973 1.41367
422.003 1.42245
422.033 1.43437
422.063 1.44990
422.094 1.46981
422.124 1.49478
422.154 1.52597
422.184 1.56453
422.214 1.61196
422.244 1.66987
422.274 1.74089
422.304 1.82728
422.319 1.87768
422.334 1.93294
422.349 1.99393
422.364 2.06121
422.385 2.16668
422.406 2.28693
422.427 2.42460
422.447 2.58216
422.468 2.76239
422.479 2.86198
422.489 2.96844
422.499 3.08223
422.510 3.20384
422.520 3.33378
422.531 3.47259
422.541 3.62232
422.551 3.78073
422.562 3.94983
422.572 4.13032
422.583 4.32289
422.593 4.52831
422.603 4.74737
422.614 4.98090
422.624 5.22979
422.635 5.49495
422.645 5.77736
422.655 6.07803
422.666 6.39804
422.676 6.73849
422.687 7.10055
422.697 7.48545
422.706 7.85003
422.716 8.23059
422.725 8.63638
422.734 9.05969
422.743 9.51075
422.753 9.98094
422.762 10.4816
422.771 11.0032
422.780 11.5581
422.790 12.1357
422.799 12.7498
422.808 13.3886
422.817 14.0672
422.827 14.7725
422.836 15.5212
422.845 16.2986
422.856 17.2325
422.866 18.2086
422.876 19.2379
422.887 20.3225
422.897 21.4650
422.908 22.6676
422.918 23.9329
422.928 25.2633
422.939 26.6614
422.949 28.1298
422.960 29.6710
422.970 31.2879
422.980 32.9829
422.991 34.7590
423.001 36.6187
423.012 38.5648
423.024 41.0827
423.037 43.7195
423.050 46.4994
423.062 49.4272
423.075 52.5327
423.088 55.7723
423.101 59.1744
423.113 62.7435
423.126 66.5143
423.139 70.4321
423.152 74.5298
423.164 78.8113
423.177 83.2800
423.190 87.9394
423.202 92.7923
423.215 97.8414
423.228 103.131
423.241 108.581
423.266 120.086
423.291 132.453
423.317 145.583
423.342 159.566
423.368 174.271
423.393 189.717
423.419 205.862
423.444 222.716
423.469 240.079
423.520 276.272
423.622 351.236
423.666 383.162
423.710 413.660
423.735 430.452
423.761 446.320
423.786 461.245
423.812 474.971
423.837 487.430
423.863 498.501
423.897 511.192
423.923 518.605
423.948 524.294
423.980 529.001
424.000 530.450
424.003 530.573
424.012 530.808
424.021 530.808
424.039 530.113
424.070 526.862
424.101 521.098
424.131 512.872
424.160 502.899
424.189 490.969
424.220 476.494
424.251 460.302
424.287 439.178
424.323 416.376
424.384 374.866
424.445 331.610
424.506 288.311
424.536 267.216
424.567 246.695
424.593 229.509
424.620 212.942
424.646 197.058
424.672 181.966
424.699 167.593
424.725 154.073
424.751 141.320
424.778 129.438
424.793 122.902
424.808 116.640
424.824 110.650
424.839 104.965
424.854 99.5053
424.869 94.3372
424.885 89.3874
424.900 84.7143
424.915 80.2499
424.930 76.0188
424.946 72.0136
424.961 68.2508
424.976 64.6731
424.991 61.3195
425.007 58.1378
425.022 55.1616
425.041 51.6004
425.061 48.3285
425.080 45.3109
425.100 42.5314
425.119 39.9620
425.139 37.6137
425.158 35.4584
425.177 33.4819
425.197 31.6621
425.216 30.0048
425.236 28.4883
425.255 27.1011
425.275 25.8262
425.294 24.6669
425.313 23.6067
425.333 22.6371
425.348 21.9310
425.363 21.2725
425.379 20.6581
425.394 20.0883
425.409 19.5524
425.424 19.0516
425.440 18.5832
425.455 18.1475
425.470 17.7366
425.486 17.3512
425.501 16.9893
425.516 16.6515
425.531 16.3314
425.547 16.0317
425.562 15.7472
425.577 15.4802
425.592 15.2259
425.608 14.9851
425.623 14.7568
425.638 14.5413
425.669 14.1399
425.699 13.7747
425.730 13.4397
425.760 13.1329
425.791 12.8494
425.821 12.5863
425.852 12.3403
425.882 12.1110
425.913 11.8957
425.943 11.6929
425.974 11.5007
426.004 11.3193
426.035 11.1471
426.065 10.9834
426.127 10.6780
426.188 10.3994
426.249 10.1432
426.310 9.90721
426.368 9.69809
426.426 9.50324
426.485 9.32122
426.543 9.15075
426.601 8.99075
426.659 8.84028
426.718 8.69850
426.776 8.56491
426.834 8.43838
426.893 8.31859
426.951 8.20500
427.009 8.09734
427.067 7.99482
427.126 7.89724
427.242 7.71572
427.364 7.54265
427.486 7.38493
427.608 7.24066
427.731 7.10826
427.853 6.98638
427.975 6.87389
428.097 6.76981
428.219 6.67328
428.341 6.58357
428.463 6.50006
428.585 6.42217
428.707 6.34942
428.829 6.28140
428.952 6.21772
429.074 6.15808
429.196 6.10218
429.312 6.05207
429.429 6.00496
429.546 5.96068
429.662 5.91910
429.779 5.88003
429.895 5.84343
430.012 5.80912
430.128 5.77709
430.245 5.74720
430.361 5.71946
430.478 5.69379
430.594 5.67018
430.711 5.64860
430.828 5.62909
430.944 5.61164
431.061 5.59631
431.183 5.58257
431.305 5.57132
431.427 5.56267
431.549 5.55679
431.671 5.55386
431.793 5.55414
431.915 5.55793
432.038 5.56560
432.099 5.57104
432.160 5.57763
432.221 5.58546
432.282 5.59459
432.343 5.60514
432.404 5.61719
432.465 5.63089
432.526 5.64634
432.587 5.66373
432.648 5.68318
432.709 5.70495
432.770 5.72918
432.831 5.75622
432.892 5.78626
432.953 5.81973
433.014 5.85692
433.059 5.88662
433.103 5.91876
433.164 5.96740
433.225 6.02171
433.286 6.08272
433.347 6.15125
433.409 6.22885
433.439 6.27143
433.470 6.31690
433.500 6.36570
433.531 6.41784
433.561 6.47385
433.592 6.53416
433.622 6.59949
433.653 6.67000
433.683 6.74658
433.714 6.83003
433.744 6.92159
433.775 7.02175
433.805 7.13209
433.836 7.25411
433.866 7.39003
433.897 7.54101
433.927 7.70988
433.958 7.89942
433.973 8.00327
433.989 8.11358
434.004 8.23084
434.019 8.35472
434.034 8.48741
434.050 8.62778
434.065 8.77829
434.080 8.93765
434.102 9.18953
434.124 9.46626
434.147 9.77048
434.169 10.1050
434.191 10.4730
434.213 10.8778
434.235 11.3229
434.258 11.8122
434.280 12.3499
434.302 12.9404
434.324 13.5882
434.346 14.2982
434.369 15.0755
434.391 15.9255
434.413 16.8536
434.435 17.8654
434.451 18.6145
434.466 19.4079
434.481 20.2477
434.496 21.1296
434.512 22.0673
434.527 23.0503
434.542 24.0933
434.557 25.1845
434.573 26.3399
434.588 27.5543
434.603 28.8291
434.618 30.1570
434.634 31.5567
434.649 33.0112
434.664 34.5407
434.679 36.1261
434.709 39.3588
434.738 42.8274
434.767 46.5563
434.796 50.5170
434.825 54.7301
434.854 59.1564
434.883 63.7952
434.913 68.6276
434.943 73.8921
434.974 79.2944
435.035 90.4079
435.096 101.646
435.157 112.549
435.207 120.929
435.257 128.513
435.287 132.671
435.318 136.378
435.348 139.600
435.379 142.294
435.412 144.583
435.445 146.162
435.473 146.920
435.500 147.168
435.536 146.720
435.572 145.414
435.596 144.067
435.620 142.355
435.647 139.953
435.675 137.116
435.718 131.874
435.761 125.777
435.804 118.963
435.848 111.629
435.907 101.048
435.966 90.2122
436.009 82.2937
436.052 74.5816
436.095 67.1516
436.139 60.1284
436.160 56.7698
436.182 53.5484
436.203 50.4535
436.225 47.4894
436.247 44.6459
436.268 41.9511
436.290 39.3922
436.312 36.9690
436.331 34.8762
436.351 32.8939
436.371 31.0201
436.390 29.2611
436.410 27.5962
436.430 26.0393
436.449 24.5713
436.469 23.2033
436.489 21.9179
436.508 20.7241
436.528 19.6059
436.547 18.5705
436.567 17.6035
436.587 16.7107
436.606 15.8790
436.626 15.1129
436.648 14.3316
436.669 13.6190
436.691 12.9665
436.713 12.3697
436.734 11.8218
436.756 11.3237
436.777 10.8690
436.799 10.4540
436.821 10.0736
436.842 9.72808
436.864 9.41274
436.886 9.12480
436.907 8.86176
436.929 8.62128
436.950 8.40124
436.972 8.19970
437.000 7.96627
437.027 7.75755
437.055 7.56974
437.082 7.40027
437.110 7.24637
437.137 7.10719
437.165 6.98043
437.192 6.86460
437.220 6.75803
437.247 6.66037
437.275 6.57024
437.302 6.48678
437.330 6.40926
437.357 6.33705
437.385 6.26960
437.412 6.20641
437.456 6.11459
437.499 6.03114
437.542 5.95456
437.585 5.88429
437.629 5.81925
437.672 5.75912
437.715 5.70308
437.758 5.65095
437.802 5.60212
437.845 5.55646
437.888 5.51350
437.931 5.47317
437.975 5.43508
438.018 5.39920
438.061 5.36520
438.104 5.33307
438.191 5.27360
438.277 5.21984
438.364 5.17103
438.450 5.12650
438.537 5.08573
438.623 5.04826
438.710 5.01370
438.796 4.98177
438.879 4.95339
438.961 4.92690
439.044 4.90212
439.126 4.87890
439.209 4.85705
439.292 4.83649
439.374 4.81707
439.457 4.79872
439.539 4.78133
439.622 4.76483
439.704 4.74916
439.787 4.73426
439.870 4.72005
439.952 4.70650
440.117 4.68115
440.212 4.66762
440.306 4.65473
440.495 4.63064
440.683 4.60857
440.872 4.58824
441.061 4.56943
441.249 4.55197
441.438 4.53568
441.627 4.52043
441.800 4.50727
441.973 4.49481
442.146 4.48299
442.319 4.47175
442.492 4.46104
442.665 4.45083
442.838 4.44106
443.011 4.43171
443.357 4.41413
443.703 4.39788
444.049 4.38277
444.394 4.36867
444.662 4.35839
444.929 4.34859
445.197 4.33923
445.464 4.33030
445.731 4.32173
445.999 4.31351
446.533 4.29799
447.068 4.28357
447.603 4.27013
448.137 4.25755
448.672 4.24574
449.364 4.23147
450.056 4.21820
450.748 4.20582
451.440 4.19423
452.132 4.18335
452.823 4.17310
453.515 4.16342
454.207 4.15427
454.899 4.14559
455.591 4.13735
456.283 4.12951
456.975 4.12204
458.359 4.10809
459.743 4.09532
460.749 4.08670
462.133 4.07563
463.517 4.06536
464.901 4.05581
466.284 4.04690
467.668 4.03857
469.052 4.03076
470.436 4.02342
471.820 4.01649
473.833 4.00710
475.846 3.99842
478.362 3.98845
480.878 3.97932
483.394 3.97092
485.910 3.96317
489.433 3.95325
492.955 3.94425
496.478 3.93602
500.000 3.92847
504.736 3.91924
509.473 3.91089
514.209 3.90328
518.945 3.89630
520.667 3.89390
527.556 3.88494
534.445 3.87686
543.918 3.86692
553.390 3.85806
562.863 3.85007
572.335 3.84278
584.391 3.83435
596.447 3.82666
610.225 3.81864
629.170 3.80866
648.115 3.79961
667.060 3.79131
686.005 3.78359
717.006 3.77198
748.006 3.76131
766.951 3.75517
785.896 3.74924
804.841 3.74350
823.786 3.73793
832.398 3.73545
841.009 3.73300
849.620 3.73058
858.232 3.72819
866.843 3.72584
871.149 3.72468
875.454 3.72354
879.760 3.72241
884.066 3.72130
888.371 3.72021
892.677 3.71915
896.121 3.71834
899.566 3.71756
903.011 3.71684
906.455 3.71619
909.900 3.71564
911.622 3.71541
913.344 3.71524
915.066 3.71514
916.789 3.71511
918.511 3.71520
920.233 3.71542
921.633 3.71576
923.032 3.71626
924.431 3.71698
925.831 3.71804
927.230 3.71958
927.930 3.72059
928.629 3.72182
929.329 3.72331
930.029 3.72514
930.728 3.72739
931.428 3.73020
931.939 3.73271
932.451 3.73574
932.962 3.73941
933.473 3.74391
933.984 3.74950
934.240 3.75281
934.496 3.75654
934.751 3.76076
935.007 3.76557
935.263 3.77108
935.518 3.77744
935.787 3.78525
936.057 3.79449
936.326 3.80552
936.595 3.81884
936.729 3.82657
936.864 3.83515
936.998 3.84472
937.133 3.85545
937.268 3.86754
937.402 3.88123
937.537 3.89686
937.671 3.91484
937.819 3.93804
937.967 3.96580
938.041 3.98187
938.115 3.99974
938.189 4.01977
938.263 4.04241
938.337 4.06829
938.411 4.09813
938.485 4.13300
938.559 4.17426
938.633 4.22373
938.670 4.25226
938.707 4.28378
938.744 4.31871
938.781 4.35751
938.818 4.40072
938.855 4.44892
938.896 4.50806
938.936 4.57496
938.976 4.65074
939.017 4.73642
939.057 4.83383
939.097 4.94404
939.138 5.06932
939.178 5.21094
939.219 5.37164
939.239 5.45973
939.259 5.55335
939.279 5.65283
939.299 5.75847
939.320 5.87060
939.340 5.98896
939.360 6.11505
939.380 6.24866
939.400 6.39015
939.420 6.53912
939.441 6.69742
939.461 6.86471
939.481 7.04137
939.501 7.22683
939.528 7.49181
939.555 7.77470
939.582 8.07735
939.609 8.40063
939.636 8.74538
939.663 9.11243
939.689 9.50255
939.716 9.91647
939.743 10.3548
939.770 10.8183
939.797 11.3072
939.824 11.8222
939.851 12.3634
939.878 12.9311
939.905 13.5253
939.932 14.1460
939.969 15.0427
940.006 15.9879
940.043 16.9802
940.080 18.0171
940.117 19.0959
940.154 20.2128
940.228 22.5432
940.403 28.3232
940.477 30.7370
940.551 33.0336
940.618 34.9597
940.685 36.6733
940.722 37.5092
940.759 38.2587
940.796 38.9151
940.833 39.4720
940.870 39.9221
940.907 40.2636
940.947 40.5125
940.988 40.6232
941.000 40.6293
941.041 40.5581
941.081 40.3481
941.119 40.0272
941.158 39.5896
941.197 39.0160
941.237 38.3295
941.276 37.5339
941.316 36.6418
941.373 35.1836
941.431 33.5699
941.510 31.1530
941.589 28.5915
941.747 23.3551
941.823 20.9436
941.860 19.7814
941.898 18.6593
941.936 17.5755
941.974 16.5394
942.011 15.5482
942.049 14.6093
942.096 13.5148
942.119 12.9974
942.143 12.5023
942.166 12.0249
942.189 11.5675
942.213 11.1298
942.236 10.7134
942.260 10.3144
942.283 9.93419
942.306 9.57250
942.330 9.23028
942.353 8.90415
942.376 8.59639
942.400 8.30383
942.423 8.02845
942.452 7.70917
942.481 7.41225
942.509 7.13657
942.538 6.88189
942.567 6.64535
942.596 6.42749
942.624 6.22573
942.653 6.04041
942.677 5.90025
942.700 5.76932
942.723 5.64711
942.747 5.53358
942.770 5.42728
942.793 5.32824
942.817 5.23600
942.840 5.15050
942.864 5.07059
942.887 4.99626
942.910 4.92714
942.934 4.86313
942.980 4.74800
943.027 4.64844
943.074 4.56212
943.121 4.48750
943.167 4.42272
943.214 4.36633
943.261 4.31700
943.307 4.27387
943.354 4.23592
943.401 4.20237
943.480 4.15381
943.559 4.11349
943.638 4.07954
943.717 4.05053
943.796 4.02542
943.875 4.00343
943.955 3.98398
944.034 3.96664
944.113 3.95103
944.192 3.93692
944.350 3.91236
944.508 3.89172
944.666 3.87415
944.817 3.85967
944.968 3.84702
945.119 3.83589
945.270 3.82604
945.421 3.81728
945.572 3.80944
945.723 3.80239
945.874 3.79604
946.176 3.78505
946.478 3.77592
946.780 3.76826
947.082 3.76175
947.456 3.75495
947.830 3.74925
948.204 3.74442
948.578 3.74029
948.952 3.73672
949.325 3.73362
949.699 3.73091
950.073 3.72852
950.821 3.72452
951.569 3.72132
952.316 3.71868
953.064 3.71648
954.042 3.71411
955.020 3.71216
955.998 3.71053
956.976 3.70915
957.953 3.70797
958.931 3.70693
960.887 3.70516
962.843 3.70371
964.798 3.70247
966.754 3.70139
968.709 3.70042
970.665 3.69954
972.621 3.69872
974.577 3.69794
976.532 3.69721
980.443 3.69581
984.355 3.69450
988.266 3.69325
992.177 3.69203
996.089 3.69084
1000.00 3.68967
1005.63 3.68801
1011.27 3.68637
1016.90 3.68473
1022.53 3.68311
1028.17 3.68149
1033.80 3.67986
1039.43 3.67824
1045.07 3.67661
1056.33 3.67333
1067.60 3.67002
1078.86 3.66667
1090.13 3.66328
1107.65 3.65788
1125.18 3.65232
1142.70 3.64656
1160.23 3.64057
1170.24 3.63703
1180.26 3.63338
1207.80 3.62275
1221.56 3.61704
1235.33 3.61100
1248.48 3.60488
1255.05 3.60168
1261.62 3.59837
1268.19 3.59495
1274.77 3.59141
1281.34 3.58775
1284.62 3.58587
1287.91 3.58398
1290.41 3.58252
1292.92 3.58105
1295.42 3.57959
1297.92 3.57814
1300.43 3.57673
1301.68 3.57605
1302.93 3.57540
1304.18 3.57479
1305.43 3.57424
1306.69 3.57376
1307.94 3.57341
1308.88 3.57326
1309.81 3.57324
1310.75 3.57341
1311.69 3.57389
1312.63 3.57482
1313.10 3.57555
1313.57 3.57650
1314.04 3.57776
1314.51 3.57944
1314.98 3.58169
1315.45 3.58478
1315.80 3.58791
1316.15 3.59203
1316.50 3.59759
1316.86 3.60544
1317.03 3.61076
1317.21 3.61760
1317.38 3.62694
1317.47 3.63309
1317.56 3.64068
1317.65 3.65026
1317.74 3.66256
1317.82 3.67857
1317.91 3.69966
1318.00 3.72765
1318.09 3.76489
1318.13 3.78792
1318.18 3.81446
1318.22 3.84505
1318.26 3.88023
1318.33 3.94621
1318.40 4.02650
1318.44 4.07471
1318.47 4.12657
1318.50 4.18382
1318.54 4.24693
1318.57 4.31852
1318.61 4.39500
1318.64 4.47884
1318.67 4.57058
1318.71 4.67384
1318.74 4.78329
1318.78 4.90231
1318.81 5.03148
1318.85 5.17563
1318.88 5.32710
1318.91 5.49038
1318.95 5.66600
1318.98 5.86018
1319.02 6.06231
1319.05 6.27814
1319.09 6.50807
1319.12 6.75980
1319.15 7.01919
1319.19 7.29341
1319.22 7.58254
1319.26 7.89575
1319.29 8.21505
1319.33 8.54897
1319.36 8.89720
1319.42 9.53412
1319.48 10.2097
1319.54 10.9197
1319.59 11.6461
1319.71 13.1703
1319.83 14.7190
1319.89 15.4854
1319.95 16.2278
1320.01 16.9354
1320.06 17.5862
1320.14 18.3359
1320.21 18.9691
1320.26 19.3261
1320.31 19.6180
1320.36 19.8735
1320.40 20.0164
1320.43 20.0857
1320.46 20.1319
1320.50 20.1527
1320.54 20.1301
1320.57 20.0865
1320.60 19.9971
1320.65 19.8295
1320.71 19.5237
1320.76 19.2187
1320.80 18.8682
1320.84 18.5064
1320.89 18.1080
1320.93 17.6766
1320.97 17.2159
1321.04 16.3687
1321.11 15.4665
1321.26 13.5759
1321.39 11.9108
1321.45 11.1018
1321.51 10.3370
1321.58 9.59924
1321.61 9.24694
1321.64 8.91692
1321.67 8.58833
1321.70 8.28203
1321.73 7.97855
1321.77 7.69701
1321.80 7.40243
1321.83 7.12276
1321.87 6.85792
1321.90 6.61494
1321.93 6.37885
1321.97 6.15698
1322.00 5.94896
1322.04 5.75993
1322.07 5.57802
1322.10 5.40867
1322.14 5.25137
1322.17 5.10972
1322.20 4.98995
1322.23 4.87836
1322.26 4.77456
1322.29 4.68127
1322.32 4.59166
1322.35 4.51137
1322.38 4.43449
1322.41 4.36581
1322.44 4.30022
1322.47 4.24179
1322.53 4.13670
1322.58 4.04809
1322.64 3.97373
1322.70 3.91063
1322.76 3.85905
1322.82 3.81622
1322.88 3.78076
1322.94 3.75143
1323.00 3.72720
1323.06 3.70716
1323.12 3.69058
1323.24 3.66519
1323.35 3.64757
1323.47 3.63489
1323.59 3.62546
1323.71 3.61813
1323.83 3.61232
1324.06 3.60346
1324.35 3.59562
1324.64 3.58972
1324.92 3.58508
1325.21 3.58133
1325.50 3.57824
1325.79 3.57564
1326.36 3.57151
1326.93 3.56835
1327.51 3.56586
1328.08 3.56381
1328.66 3.56210
1329.50 3.56000
1330.35 3.55823
1331.19 3.55668
1332.04 3.55530
1332.88 3.55404
1333.72 3.55287
1334.57 3.55177
1335.41 3.55071
1337.10 3.54869
1338.79 3.54677
1340.48 3.54488
1342.17 3.54302
1345.14 3.53975
1348.12 3.53644
1351.09 3.53305
1354.06 3.52955
1357.03 3.52594
1360.01 3.52217
1365.95 3.51415
1370.28 3.50783
1374.60 3.50101
1380.55 3.49068
1386.49 3.47901
1392.44 3.46564
1398.38 3.45009
1402.17 3.43875
1405.95 3.42604
1409.74 3.41159
1413.52 3.39502
1416.49 3.38014
1419.46 3.36325
1422.44 3.34385
1425.41 3.32131
1427.71 3.30119
1430.01 3.27812
1432.30 3.25142
1434.60 3.22003
1436.09 3.19656
1437.57 3.17008
1439.06 3.13992
1440.54 3.10523
1441.96 3.06685
1443.38 3.02201
1444.80 2.96889
1445.51 2.93847
1446.22 2.90502
1446.96 2.86608
1447.71 2.82246
1448.45 2.77327
1449.19 2.71740
1449.94 2.65330
1450.68 2.57924
1451.05 2.53763
1451.42 2.49263
1451.79 2.44356
1452.17 2.39015
1452.64 2.31461
1452.88 2.27321
1453.11 2.22934
1453.35 2.18240
1453.58 2.13252
1453.82 2.07902
1454.06 2.02209
1454.24 1.97446
1454.43 1.92431
1454.62 1.87155
1454.80 1.81653
1454.99 1.75885
1455.17 1.69942
1455.36 1.63972
1455.45 1.61071
1455.54 1.58345
1455.62 1.56147
1455.70 1.54266
1455.78 1.52810
1455.86 1.51968
1455.95 1.52006
1456.03 1.53272
1456.11 1.56226
1456.15 1.58521
1456.19 1.61481
1456.23 1.65317
1456.27 1.69964
1456.31 1.75644
1456.35 1.82510
1456.39 1.90737
1456.43 2.00518
1456.47 2.12072
1456.51 2.25640
1456.55 2.41918
1456.59 2.60416
1456.63 2.81826
1456.67 3.06506
1456.71 3.34847
1456.73 3.50522
1456.75 3.67273
1456.77 3.85159
1456.79 4.04241
1456.81 4.24581
1456.83 4.46245
1456.85 4.72881
1456.87 5.00178
1456.89 5.29349
1456.92 5.60494
1456.94 5.95275
1456.96 6.30776
1456.98 6.68570
1457.01 7.08767
1457.03 7.53482
1457.05 7.98947
1457.07 8.47166
1457.09 8.98257
1457.12 9.52342
1457.14 10.0954
1457.16 10.6999
1457.18 11.3379
1457.21 12.0423
1457.23 12.7531
1457.25 13.5013
1457.27 14.2882
1457.29 15.1536
1457.32 16.0235
1457.34 16.9358
1457.36 17.8916
1457.38 18.9387
1457.41 19.9871
1457.43 21.0824
1457.45 22.2257
1457.47 23.4177
1457.49 24.6595
1457.52 25.9519
1457.54 27.2955
1457.57 29.6066
1457.61 32.0593
1457.65 34.6553
1457.68 37.3955
1457.71 39.3025
1457.74 42.5378
1457.77 45.0519
1457.80 47.5657
1457.86 52.8415
1457.89 56.2001
1457.93 59.6700
1457.99 66.9188
1458.06 74.5277
1458.13 82.3034
1458.31 104.570
1458.39 113.561
1458.47 122.227
1458.51 127.342
1458.56 132.117
1458.61 136.622
1458.65 140.818
1458.70 144.588
1458.74 147.995
1458.80 151.803
1458.85 154.373
1458.89 156.454
1458.94 158.055
1459.00 159.275
1459.01 159.340
1459.02 159.515
1459.04 159.617
1459.07 159.634
1459.11 159.254
1459.16 158.289
1459.20 157.155
1459.24 155.693
1459.28 153.762
1459.32 151.479
1459.37 148.522
1459.41 145.254
1459.50 138.266
1459.58 130.412
1459.66 121.844
1459.75 112.797
1459.87 99.2195
1459.99 85.7582
1460.07 76.7723
1460.11 72.4452
1460.15 68.3471
1460.20 64.2906
1460.24 60.4789
1460.28 56.7342
1460.32 53.2412
1460.36 49.8339
1460.40 46.6774
1460.45 43.6189
1460.49 40.8039
1460.53 38.0933
1460.57 35.6136
1460.61 33.2400
1460.65 31.0809
1460.69 29.0256
1460.72 28.0553
1460.74 27.1222
1460.76 26.2255
1460.78 25.3642
1460.80 24.5374
1460.82 23.7813
1460.84 23.0193
1460.86 22.2890
1460.88 21.5896
1460.90 20.9513
1460.92 20.3093
1460.94 19.6954
1460.99 18.5738
1461.03 17.5246
1461.07 16.5690
1461.11 15.6998
1461.15 14.9281
1461.19 14.2099
1461.24 13.5735
1461.28 12.9819
1461.32 12.4582
1461.36 11.9717
1461.40 11.5310
1461.44 11.1316
1461.49 10.7777
1461.53 10.4482
1461.57 10.1557
1461.61 9.88278
1461.65 9.63969
1461.69 9.41209
1461.73 9.20860
1461.82 8.84538
1461.90 8.53631
1461.98 8.27048
1462.04 8.09758
1462.10 7.94304
1462.23 7.66960
1462.35 7.43628
1462.47 7.23346
1462.59 7.05441
1462.71 6.89438
1462.83 6.74994
1462.95 6.61855
1463.12 6.45515
1463.28 6.31000
1463.45 6.17851
1463.62 6.06010
1463.78 5.95159
1463.95 5.85290
1464.28 5.67853
1464.62 5.52879
1464.95 5.39910
1465.28 5.28564
1465.61 5.18579
1465.95 5.09671
1466.28 5.01695
1466.61 4.94511
1466.94 4.88023
1467.61 4.76705
1468.27 4.67180
1468.94 4.59040
1469.61 4.52023
1470.27 4.45901
1470.94 4.40514
1472.09 4.32579
1473.23 4.26002
1474.38 4.20455
1475.53 4.15713
1476.86 4.11013
1478.19 4.06985
1479.53 4.03493
1480.86 4.00438
1482.67 3.96831
1484.48 3.93746
1486.30 3.91068
1488.11 3.88719
1490.78 3.85751
1493.44 3.83229
1496.10 3.81054
1498.76 3.79156
1501.91 3.77195
1505.05 3.75480
1508.20 3.73965
1511.34 3.72607
1516.66 3.70597
1521.99 3.68867
1527.31 3.67350
1532.63 3.65995
1538.44 3.64662
1542.79 3.63742
1547.15 3.62877
1551.50 3.62062
1555.86 3.61286
1557.92 3.60934
1559.97 3.60591
1562.03 3.60257
1564.08 3.59934
1566.14 3.59623
1568.20 3.59330
1569.23 3.59192
1570.25 3.59062
1571.28 3.58944
1572.31 3.58840
1573.13 3.58773
1573.94 3.58724
1574.76 3.58700
1575.58 3.58715
1575.99 3.58743
1576.39 3.58791
1576.80 3.58863
1577.21 3.58967
1577.62 3.59116
1578.03 3.59325
1578.44 3.59624
1578.84 3.60061
1579.13 3.60507
1579.28 3.60799
1579.42 3.61161
1579.56 3.61630
1579.71 3.62258
1579.85 3.63150
1579.92 3.63741
1579.99 3.64453
1580.06 3.65342
1580.14 3.66443
1580.21 3.67812
1580.28 3.69518
1580.35 3.71645
1580.42 3.74295
1580.50 3.77590
1580.57 3.81609
1580.64 3.86633
1580.71 3.92802
1580.78 4.00337
1580.85 4.09342
1580.89 4.14589
1580.93 4.20340
1580.96 4.26634
1581.00 4.33508
1581.03 4.41002
1581.07 4.49156
1581.11 4.58011
1581.14 4.67329
1581.20 4.84102
1581.26 5.02992
1581.31 5.24150
1581.37 5.47284
1581.40 5.60219
1581.43 5.73345
1581.45 5.87612
1581.48 6.02047
1581.51 6.17690
1581.54 6.33470
1581.57 6.49918
1581.60 6.67039
1581.62 6.85480
1581.65 7.03968
1581.71 7.43652
1581.77 7.86019
1581.82 8.30134
1581.88 8.77400
1581.94 9.26818
1581.99 9.78100
1582.05 10.2996
1582.26 12.3241
1582.37 13.3140
1582.42 13.7871
1582.47 14.2310
1582.52 14.6344
1582.57 15.0038
1582.62 15.3437
1582.67 15.6509
1582.72 15.9427
1582.78 16.1890
1582.85 16.4540
1582.89 16.5575
1582.93 16.6211
1582.95 16.6474
1582.99 16.6688
1583.00 16.6693
1583.02 16.6652
1583.04 16.6542
1583.06 16.6290
1583.10 16.5811
1583.14 16.4871
1583.20 16.2887
1583.25 16.0928
1583.29 15.8650
1583.34 15.6217
1583.38 15.3509
1583.46 14.7436
1583.53 14.2153
1583.60 13.6475
1583.66 13.0493
1583.73 12.4397
1583.79 11.8474
1583.91 10.6599
1584.02 9.64644
1584.08 9.16451
1584.13 8.69985
1584.18 8.24681
1584.24 7.82377
1584.29 7.42378
1584.35 7.04785
1584.40 6.69035
1584.43 6.52432
1584.46 6.36453
1584.51 6.06357
1584.56 5.78708
1584.62 5.53444
1584.67 5.30478
1584.73 5.09708
1584.78 4.91016
1584.81 4.79952
1584.85 4.69673
1584.88 4.60141
1584.92 4.51319
1584.95 4.43170
1584.99 4.35657
1585.02 4.28742
1585.06 4.22564
1585.09 4.16723
1585.13 4.11376
1585.20 4.02150
1585.27 3.94367
1585.34 3.88025
1585.41 3.82733
1585.48 3.78408
1585.55 3.74886
1585.62 3.72064
1585.69 3.69741
1585.75 3.67886
1585.82 3.66360
1585.89 3.65138
1585.96 3.64128
1586.03 3.63303
1586.17 3.62068
1586.31 3.61199
1586.45 3.60562
1586.59 3.60069
1586.73 3.59678
1587.01 3.59074
1587.38 3.58486
1587.75 3.58044
1588.12 3.57694
1588.49 3.57410
1588.87 3.57170
1589.24 3.56966
1589.61 3.56787
1589.98 3.56629
1590.72 3.56357
1591.47 3.56128
1592.21 3.55927
1592.95 3.55745
1593.94 3.55525
1594.93 3.55322
1595.92 3.55131
1596.91 3.54950
1597.90 3.54774
1598.89 3.54604
1600.87 3.54274
1602.86 3.53952
1604.84 3.53636
1606.82 3.53324
1608.80 3.53013
1610.78 3.52704
1615.73 3.51930
1620.69 3.51151
1625.64 3.50361
1630.59 3.49558
1640.50 3.47893
1650.40 3.46134
1661.30 3.44053
1672.19 3.41782
1683.09 3.39273
1693.98 3.36464
1704.39 3.33425
1714.79 3.29952
1725.19 3.25917
1735.59 3.21157
1746.48 3.15113
1751.93 3.11565
1757.38 3.07576
1762.83 3.03053
1768.27 2.97876
1773.72 2.91888
1779.17 2.84876
1782.39 2.80138
1785.61 2.74877
1788.83 2.68973
1792.05 2.62316
1794.77 2.55980
1797.50 2.48878
1800.22 2.40862
1802.94 2.31751
1805.17 2.23311
1807.40 2.13813
1809.63 2.03061
1810.74 1.97144
1811.86 1.90806
1813.22 1.82429
1814.58 1.73283
1815.94 1.63269
1817.31 1.52276
1817.99 1.46376
1818.67 1.40186
1819.35 1.33691
1820.03 1.26875
1820.71 1.19725
1821.39 1.12230
1822.07 1.04383
1822.75 0.961992
1823.37 0.884429
1823.99 0.804414
1824.61 0.722223
1825.23 0.638521
1825.85 0.554366
1826.47 0.471403
1826.78 0.431055
1827.09 0.392190
1827.40 0.355106
1827.71 0.320726
1827.93 0.297797
1828.15 0.277171
1828.38 0.259134
1828.60 0.244405
1828.83 0.233517
1829.05 0.227359
1829.17 0.226319
1829.28 0.226832
1829.39 0.229032
1829.50 0.233081
1829.64 0.241226
1829.79 0.253096
1829.85 0.259079
1829.85 0.259738
1829.87 0.261649
1829.88 0.263506
1829.95 0.271510
1830.01 0.280476
1830.13 0.300068
1830.25 0.323616
1830.37 0.351551
1830.49 0.384060
1830.57 0.409521
1830.65 0.437336
1830.74 0.467999
1830.82 0.501727
1830.90 0.539236
1830.98 0.579870
1831.06 0.624348
1831.14 0.672975
1831.22 0.726772
1831.30 0.784801
1831.39 0.848090
1831.47 0.917087
1831.55 0.993248
1831.63 1.07526
1831.71 1.16462
1831.79 1.26198
1831.88 1.37493
1831.96 1.49722
1832.05 1.63117
1832.13 1.77800
1832.22 1.93906
1832.30 2.11591
1832.39 2.31032
1832.43 2.41599
1832.47 2.52432
1832.52 2.64078
1832.56 2.76317
1832.60 2.89187
1832.64 3.02404
1832.69 3.16638
1832.73 3.31271
1832.77 3.47048
1832.81 3.63287
1832.86 3.80816
1832.90 3.98880
1832.94 4.18407
1832.98 4.38559
1833.03 4.60375
1833.07 4.82923
1833.11 5.07372
1833.15 5.32684
1833.20 5.60176
1833.24 5.89388
1833.28 6.20457
1833.32 6.52739
1833.37 6.87931
1833.41 7.24566
1833.45 7.64580
1833.49 8.06315
1833.54 8.51986
1833.58 8.99712
1833.62 9.52037
1833.66 10.0682
1833.71 10.6698
1833.75 11.3008
1833.79 11.9949
1833.83 12.7240
1833.88 13.5272
1833.92 14.3929
1833.96 15.3265
1834.01 16.3094
1834.05 17.3948
1834.09 18.5385
1834.13 19.8022
1834.18 21.1344
1834.22 22.6069
1834.26 24.1595
1834.30 25.8754
1834.35 27.6843
1834.39 29.6827
1834.43 31.7883
1834.47 34.1126
1834.52 36.5592
1834.55 38.6116
1834.58 40.7848
1834.61 43.0850
1834.65 45.5184
1834.68 48.0913
1834.71 50.8101
1834.75 53.6815
1834.78 56.6178
1834.81 59.8089
1834.84 63.1723
1834.88 66.7145
1834.91 70.4421
1834.94 74.3617
1834.98 78.4796
1835.01 82.8019
1835.04 87.1942
1835.08 93.4171
1835.13 100.019
1835.17 107.010
1835.21 114.224
1835.26 122.012
1835.30 130.018
1835.34 138.628
1835.38 147.445
1835.43 156.887
1835.47 166.515
1835.51 176.782
1835.55 187.204
1835.64 209.443
1835.72 233.114
1835.81 258.350
1835.89 284.343
1836.06 338.315
1836.22 387.849
1836.30 411.777
1836.37 434.814
1836.46 459.076
1836.54 481.099
1836.61 496.805
1836.68 510.843
1836.74 523.036
1836.81 533.095
1836.86 539.123
1836.91 543.931
1836.95 547.696
1837.00 550.238
1837.02 551.095
1837.10 551.811
1837.18 549.429
1837.26 543.954
1837.33 535.651
1837.39 527.748
1837.45 518.622
1837.50 508.043
1837.56 496.486
1837.67 470.859
1837.78 442.387
1837.94 397.246
1838.10 350.283
1838.21 318.030
1838.32 287.043
1838.37 271.951
1838.43 257.561
1838.48 243.388
1838.53 229.984
1838.59 216.883
1838.64 204.583
1838.70 192.645
1838.75 181.511
1838.81 170.772
1838.86 160.815
1838.92 151.265
1838.97 142.457
1839.02 134.790
1839.07 127.580
1839.12 120.811
1839.17 114.588
1839.22 108.639
1839.27 103.185
1839.32 97.9846
1839.37 93.2260
1839.42 88.6961
1839.47 84.4759
1839.52 80.5463
1839.57 76.9593
1839.62 73.5507
1839.67 70.4401
1839.72 67.4841
1839.76 64.7858
1839.82 61.9735
1839.87 59.3719
1839.93 56.9634
1839.98 54.7707
1840.04 52.6977
1840.09 50.8061
1840.15 49.0134
1840.20 47.3734
1840.26 45.8146
1840.31 44.3588
1840.37 42.9969
1840.42 41.7433
1840.53 39.4372
1840.64 37.3908
1840.77 35.2493
1840.90 33.3608
1841.03 31.6826
1841.15 30.1809
1841.28 28.8286
1841.41 27.6040
1841.54 26.4896
1841.67 25.4708
1841.78 24.6686
1841.89 23.9276
1842.11 22.5859
1842.33 21.3986
1842.54 20.3497
1842.76 19.4085
1842.98 18.5668
1843.20 17.8066
1843.42 17.1167
1843.64 16.4853
1843.85 15.9105
1844.07 15.3828
1844.29 14.8968
1844.51 14.4459
1844.73 14.0302
1845.16 13.2846
1845.54 12.7170
1845.92 12.2115
1846.30 11.7576
1846.67 11.3478
1847.05 10.9752
1847.43 10.6367
1847.80 10.3273
1848.18 10.0433
1848.62 9.74220
1849.06 9.46751
1849.49 9.21596
1849.93 8.98531
1850.80 8.57506
1851.68 8.22274
1852.71 7.86498
1853.74 7.55884
1854.77 7.29388
1855.80 7.06218
1856.68 6.88749
1857.55 6.72983
1858.43 6.58656
1859.30 6.45611
1861.05 6.22692
1862.79 6.03238
1864.54 5.86504
1866.29 5.71970
1868.03 5.59228
1869.78 5.47969
1872.80 5.31351
1875.81 5.17495
1878.83 5.05779
1881.85 4.95745
1885.34 4.85785
1888.84 4.77243
1892.33 4.69836
1895.82 4.63352
1900.27 4.56177
1904.72 4.49981
1909.16 4.44584
1913.61 4.39819
1920.60 4.33379
1927.59 4.27950
1934.57 4.23304
1941.56 4.19283
1948.55 4.15763
1955.54 4.12655
1969.51 4.07402
1984.76 4.02774
2000.00 3.98968
2013.26 3.96158
2026.52 3.93709
2039.78 3.91553
2053.05 3.89621
2073.88 3.86967
2094.72 3.84665
2115.56 3.82632
2136.40 3.80809
2166.71 3.78441
2197.02 3.76321
2227.33 3.74377
2257.64 3.72553
2310.69 3.69535
2363.73 3.66587
2405.41 3.64226
2447.08 3.61748
2488.76 3.59077
2530.44 3.56122
2560.75 3.53721
2591.06 3.51042
2621.37 3.48006
2651.68 3.44501
2672.52 3.41741
2693.36 3.38623
2714.20 3.35064
2735.03 3.30945
2750.19 3.27506
2765.34 3.23607
2780.50 3.19146
2795.66 3.13975
2806.08 3.09913
2816.49 3.05349
2826.91 3.00181
2837.33 2.94277
2846.33 2.88451
2855.33 2.81806
2864.33 2.74151
2873.33 2.65250
2878.54 2.59386
2883.75 2.52905
2888.96 2.45706
2894.16 2.37664
2899.37 2.28622
2904.58 2.18389
2909.79 2.06723
2912.40 2.00259
2915.00 1.93318
2918.08 1.84425
2921.16 1.74708
2924.24 1.64020
2927.32 1.52256
2929.92 1.41353
2932.53 1.29484
2933.83 1.23157
2935.13 1.16560
2936.43 1.09679
2937.74 1.02508
2939.04 0.950356
2940.34 0.872758
2941.64 0.792251
2942.95 0.709157
2944.25 0.623709
2945.55 0.536638
2946.85 0.448756
2948.16 0.361634
2948.81 0.318909
2949.46 0.277330
2950.11 0.237302
2950.76 0.199404
2951.41 0.164336
2951.74 0.148102
2952.06 0.132964
2952.39 0.118971
2952.71 0.106369
2953.04 0.0952613
2953.37 0.0859184
2953.69 0.0785108
2953.85 0.0756235
2954.02 0.0733388
2954.18 0.0716652
2954.34 0.0706579
2954.51 0.0703585
2954.67 0.0708060
2954.88 0.0726381
2954.94 0.0733977
2955.01 0.0743847
2955.13 0.0766845
2955.26 0.0795266
2955.38 0.0827754
2955.50 0.0865438
2955.73 0.0958583
2955.97 0.107682
2956.21 0.122249
2956.50 0.144683
2956.80 0.172352
2957.10 0.205879
2957.39 0.245975
2957.69 0.293444
2957.84 0.320223
2957.98 0.349199
2958.13 0.380504
2958.28 0.414283
2958.43 0.450689
2958.57 0.489612
2958.80 0.554308
2959.02 0.626062
2959.24 0.705871
2959.46 0.794542
2959.69 0.892973
2959.80 0.946159
2959.91 1.00217
2960.02 1.06115
2960.13 1.12326
2960.24 1.18865
2960.35 1.25750
2960.51 1.36526
2960.68 1.48150
2960.84 1.60689
2961.00 1.74132
2961.17 1.88727
2961.33 2.04483
2961.49 2.21500
2961.65 2.39768
2961.82 2.59633
2961.98 2.81120
2962.14 3.04375
2962.31 3.29562
2962.47 3.56863
2962.63 3.86479
2962.79 4.18639
2962.96 4.53370
2963.12 4.91386
2963.28 5.32801
2963.45 5.77976
2963.61 6.27004
2963.77 6.80950
2963.93 7.40056
2964.02 7.71927
2964.10 8.04923
2964.18 8.39511
2964.26 8.75786
2964.34 9.14329
2964.42 9.54312
2964.50 9.96840
2964.58 10.4100
2964.67 10.8803
2964.75 11.3693
2964.83 11.8906
2964.91 12.4333
2964.99 13.0127
2965.07 13.6167
2965.16 14.2624
2965.24 14.9365
2965.32 15.6583
2965.40 16.4130
2965.48 17.2122
2965.56 18.0592
2965.64 18.9692
2965.72 19.9239
2965.81 20.9513
2965.89 22.0312
2965.97 23.1955
2966.05 24.4216
2966.13 25.7295
2966.21 27.1259
2966.29 28.6372
2966.38 30.2349
2966.46 31.9673
2966.54 33.8020
2966.62 35.7952
2966.70 37.9096
2966.78 40.1811
2966.86 42.6233
2966.92 44.5507
2966.98 46.5512
2967.04 48.6621
2967.10 50.8902
2967.16 53.2834
2967.22 55.7693
2967.28 58.3943
2967.34 61.1664
2967.40 64.1448
2967.46 67.2389
2967.52 70.5058
2967.57 73.9547
2967.63 77.5947
2967.69 81.4355
2967.75 85.4866
2967.81 89.7579
2967.89 96.0782
2967.97 102.783
2968.06 110.064
2968.14 117.768
2968.22 126.108
2968.30 134.902
2968.38 144.267
2968.46 154.220
2968.54 164.907
2968.62 176.075
2968.71 188.004
2968.79 200.401
2968.87 213.563
2968.95 227.154
2969.03 241.309
2969.11 255.998
2969.28 287.008
2969.44 319.597
2969.76 386.930
2969.96 426.622
2970.05 445.745
2970.15 463.939
2970.25 481.385
2970.34 497.694
2970.44 512.679
2970.54 526.032
2970.65 539.984
2970.77 551.323
2970.89 559.857
2971.00 565.412
2971.07 567.281
2971.18 568.155
2971.28 566.402
2971.39 562.078
2971.50 555.356
2971.61 546.250
2971.71 535.097
2971.82 521.893
2971.93 507.105
2972.03 492.274
2972.12 476.575
2972.32 442.887
2972.71 371.354
2972.90 335.485
2973.00 318.209
2973.10 301.440
2973.20 285.093
2973.30 269.558
2973.39 254.713
2973.49 240.587
2973.59 227.066
2973.69 214.431
2973.79 202.418
2973.89 191.260
2973.98 180.709
2974.08 170.953
2974.18 161.854
2974.28 153.380
2974.36 146.509
2974.45 140.061
2974.53 134.012
2974.62 128.338
2974.70 123.017
2974.79 118.028
2974.87 113.348
2974.96 109.007
2975.04 104.882
2975.13 101.008
2975.21 97.3678
2975.30 93.9443
2975.38 90.7222
2975.47 87.6872
2975.64 82.1562
2975.74 79.1970
2975.83 76.4514
2975.93 73.8481
2976.03 71.4262
2976.23 66.9761
2976.42 63.0337
2976.62 59.4876
2976.82 56.3153
2977.01 53.4358
2977.21 50.8378
2977.42 48.2542
2977.64 45.9234
2977.85 43.7926
2978.07 41.8558
2978.28 40.0729
2978.50 38.4416
2978.71 36.9307
2978.93 35.5406
2979.12 34.3509
2979.32 33.2391
2979.71 31.2268
2980.11 29.4500
2980.50 27.8712
2980.89 26.4571
2981.29 25.1903
2981.68 24.0472
2982.07 23.0111
2982.47 22.0660
2982.86 21.2051
2983.25 20.4162
2983.64 19.6909
2984.04 19.0204
2984.43 18.4022
2984.82 17.8291
2985.22 17.2965
2985.86 16.5014
2986.50 15.7907
2987.15 15.1502
2987.79 14.5717
2988.44 14.0453
2989.08 13.5660
2989.72 13.1267
2990.37 12.7240
2991.15 12.2739
2991.94 11.8656
2992.73 11.4927
2993.51 11.1519
2994.30 10.8384
2995.08 10.5498
2996.66 10.0357
2997.59 9.76575
2998.52 9.51769
3000.38 9.07678
3002.23 8.69768
3004.09 8.36777
3005.67 8.12016
3007.24 7.89746
3008.81 7.69606
3010.39 7.51306
3013.53 7.19318
3016.68 6.92299
3019.82 6.69187
3022.97 6.49198
3026.12 6.31744
3029.26 6.16375
3034.41 5.94867
3039.56 5.76869
3044.71 5.61593
3049.86 5.48476
3056.15 5.34763
3062.44 5.23072
3068.73 5.12987
3075.02 5.04199
3082.46 4.95167
3089.90 4.87326
3104.77 4.74397
3117.35 4.65589
3129.94 4.58228
3142.52 4.51980
3155.11 4.46613
3164.26 4.43162
3174.56 4.39661
3184.85 4.36503
3195.15 4.33652
3200.30 4.32324
3205.44 4.31059
3212.88 4.29335
3216.60 4.28517
3220.32 4.27728
3224.03 4.26967
3227.75 4.26238
3231.47 4.25541
3235.19 4.24883
3237.48 4.24502
3239.76 4.24144
3242.05 4.23813
3244.34 4.23521
3246.63 4.23281
3247.77 4.23189
3248.92 4.23124
3250.06 4.23095
3251.20 4.23112
3252.35 4.23192
3253.49 4.23363
3254.31 4.23563
3255.14 4.23858
3255.96 4.24286
3256.78 4.24911
3257.19 4.25328
3257.60 4.25838
3258.01 4.26467
3258.43 4.27253
3258.84 4.28255
3259.25 4.29565
3259.66 4.31376
3259.86 4.32594
3260.07 4.34142
3260.22 4.35608
3260.37 4.37467
3260.53 4.39882
3260.68 4.43085
3260.83 4.47408
3260.98 4.53310
3261.13 4.61420
3261.21 4.66557
3261.29 4.72581
3261.36 4.79639
3261.44 4.87897
3261.51 4.97542
3261.59 5.08781
3261.67 5.21845
3261.74 5.36989
3261.82 5.54491
3261.89 5.74650
3261.97 5.97791
3262.05 6.24255
3262.12 6.54404
3262.20 6.88615
3262.27 7.27274
3262.35 7.70771
3262.39 7.94458
3262.43 8.19500
3262.46 8.45945
3262.50 8.73088
3262.57 9.30003
3262.64 9.91664
3262.68 10.2511
3262.72 10.6007
3262.75 10.9656
3262.79 11.3353
3262.82 11.7313
3262.86 12.1432
3262.93 13.0030
3263.00 13.9397
3263.07 14.9274
3263.14 15.9931
3263.22 17.1057
3263.29 18.2941
3263.36 19.5220
3263.43 20.8194
3263.50 22.1452
3263.64 24.9290
3263.91 30.3711
3264.05 33.0454
3264.18 35.5937
3264.25 36.8828
3264.32 38.0835
3264.40 39.2179
3264.47 40.2431
3264.56 41.4401
3264.65 42.4254
3264.75 43.2366
3264.82 43.6380
3264.87 43.8533
3264.92 44.0037
3264.98 44.0878
3265.00 44.0964
3265.05 44.0586
3265.10 43.9554
3265.15 43.7911
3265.19 43.5652
3265.27 43.0421
3265.38 42.1324
3265.47 41.0693
3265.56 39.8250
3265.64 38.7284
3265.71 37.5558
3265.78 36.2868
3265.85 34.9685
3266.00 32.1634
3266.14 29.2416
3266.29 26.2990
3266.43 23.4409
3266.50 22.1154
3266.57 20.8459
3266.64 19.6186
3266.70 18.4379
3266.77 17.3077
3266.84 16.2310
3266.91 15.2100
3266.98 14.2462
3267.04 13.3406
3267.11 12.4931
3267.18 11.7036
3267.25 10.9710
3267.32 10.2940
3267.38 9.67091
3267.45 9.09967
3267.52 8.57797
3267.56 8.30015
3267.60 8.04386
3267.64 7.79511
3267.67 7.56617
3267.75 7.14090
3267.83 6.76859
3267.90 6.43542
3267.98 6.14618
3268.06 5.88943
3268.13 5.66827
3268.21 5.47341
3268.29 5.30470
3268.36 5.15910
3268.44 5.03533
3268.52 4.92760
3268.59 4.83649
3268.67 4.75753
3268.75 4.69099
3268.82 4.63348
3268.90 4.58451
3269.05 4.50772
3269.21 4.45174
3269.36 4.41059
3269.51 4.37992
3269.67 4.35660
3269.82 4.33846
3269.97 4.32399
3270.18 4.30856
3270.38 4.29631
3270.79 4.27754
3271.20 4.26346
3271.61 4.25238
3272.15 4.24073
3272.70 4.23157
3273.24 4.22419
3273.78 4.21812
3274.33 4.21302
3274.87 4.20866
3275.96 4.20157
3277.05 4.19595
3278.14 4.19135
3279.23 4.18744
3280.32 4.18405
3281.55 4.18068
3282.77 4.17767
3284.00 4.17492
3285.22 4.17239
3287.67 4.16775
3290.13 4.16354
3292.58 4.15963
3295.03 4.15594
3297.48 4.15241
3299.93 4.14903
3302.93 4.14505
3305.92 4.14118
3308.92 4.13743
3311.91 4.13379
3317.91 4.12676
3323.90 4.12003
3329.89 4.11356
3335.88 4.10733
3341.87 4.10132
3347.86 4.09551
3358.76 4.08542
3369.65 4.07589
3379.46 4.06775
3389.26 4.05998
3408.87 4.04547
3428.48 4.03215
3448.09 4.01988
3458.98 4.01349
3469.88 4.00737
3480.77 4.00149
3491.66 3.99586
3495.75 3.99381
3499.83 3.99181
3503.92 3.98984
3508.00 3.98791
3512.09 3.98603
3514.13 3.98511
3516.17 3.98421
3518.22 3.98334
3520.26 3.98249
3522.30 3.98167
3524.34 3.98091
3525.77 3.98041
3527.20 3.97996
3528.63 3.97957
3530.06 3.97927
3531.49 3.97911
3532.21 3.97910
3532.92 3.97915
3533.64 3.97929
3534.35 3.97954
3535.07 3.97994
3535.78 3.98057
3536.36 3.98131
3536.94 3.98235
3537.52 3.98382
3537.81 3.98480
3538.10 3.98601
3538.39 3.98758
3538.68 3.98971
3538.97 3.99289
3539.11 3.99514
3539.26 3.99805
3539.40 4.00193
3539.55 4.00718
3539.69 4.01432
3539.84 4.02402
3539.98 4.03739
3540.12 4.05553
3540.27 4.08034
3540.41 4.11357
3540.55 4.15542
3540.69 4.20948
3540.82 4.27897
3540.96 4.36728
3541.03 4.41965
3541.09 4.47813
3541.16 4.54322
3541.23 4.61545
3541.30 4.69531
3541.37 4.78330
3541.43 4.87991
3541.50 4.98561
3541.57 5.10259
3541.64 5.22786
3541.71 5.36338
3541.78 5.50943
3541.84 5.66622
3541.91 5.83385
3541.98 6.01236
3542.05 6.20167
3542.12 6.40159
3542.18 6.61180
3542.25 6.83186
3542.32 7.06119
3542.39 7.29907
3542.46 7.54464
3542.59 8.05470
3543.00 9.64191
3543.10 10.0209
3543.20 10.3807
3543.31 10.7150
3543.41 11.0177
3543.48 11.2117
3543.55 11.3823
3543.63 11.5307
3543.70 11.6553
3543.76 11.7451
3543.83 11.8144
3543.89 11.8649
3543.94 11.8850
3543.98 11.8937
3544.00 11.8952
3544.04 11.8911
3544.08 11.8797
3544.12 11.8556
3544.21 11.7775
3544.29 11.6700
3544.38 11.5299
3544.47 11.3199
3544.57 11.0717
3544.67 10.7881
3544.77 10.4740
3544.92 9.95761
3545.06 9.40378
3545.36 8.25787
3545.47 7.81882
3545.59 7.39887
3545.70 6.99594
3545.81 6.62118
3545.87 6.44093
3545.93 6.27103
3545.99 6.10850
3546.04 5.95350
3546.10 5.80359
3546.16 5.66397
3546.22 5.53196
3546.27 5.40750
3546.33 5.28850
3546.39 5.17890
3546.50 4.98083
3546.62 4.80801
3546.73 4.66135
3546.85 4.53594
3546.96 4.43159
3547.07 4.34403
3547.19 4.27250
3547.32 4.20625
3547.45 4.15423
3547.58 4.11376
3547.71 4.08257
3547.84 4.05871
3547.97 4.04057
3548.11 4.02684
3548.24 4.01654
3548.37 4.00869
3548.50 4.00273
3548.63 3.99818
3548.76 3.99467
3548.89 3.99192
3549.02 3.98972
3549.28 3.98647
3549.54 3.98413
3549.81 3.98233
3550.33 3.97963
3550.85 3.97763
3551.38 3.97606
3551.96 3.97464
3552.55 3.97348
3553.14 3.97250
3553.73 3.97167
3554.32 3.97094
3554.91 3.97029
3556.09 3.96916
3557.26 3.96820
3558.44 3.96736
3559.62 3.96661
3560.79 3.96591
3562.63 3.96491
3564.46 3.96397
3566.29 3.96309
3568.12 3.96225
3569.95 3.96143
3571.79 3.96064
3573.62 3.95987
3575.45 3.95910
3579.11 3.95762
3582.78 3.95617
3586.44 3.95475
3590.10 3.95335
3595.07 3.95149
3600.05 3.94967
3609.99 3.94612
3619.93 3.94267
3629.88 3.93933
3639.82 3.93609
3649.76 3.93293
3669.65 3.92686
3690.58 3.92081
3711.52 3.91506
3745.01 3.90644
3778.50 3.89845
3820.37 3.88924
3862.24 3.88076
3899.92 3.87371
3918.76 3.87036
3937.60 3.86711
3956.44 3.86398
3965.86 3.86244
3975.28 3.86094
3984.70 3.85945
3994.12 3.85799
4003.54 3.85656
4012.96 3.85516
4017.93 3.85443
4022.90 3.85371
4027.87 3.85300
4032.85 3.85231
4037.82 3.85163
4040.30 3.85130
4042.79 3.85098
4045.28 3.85067
4047.76 3.85037
4050.25 3.85009
4052.73 3.84983
4054.70 3.84964
4056.66 3.84948
4058.62 3.84936
4060.58 3.84929
4062.55 3.84929
4063.53 3.84933
4064.51 3.84941
4065.49 3.84954
4066.47 3.84972
4067.45 3.85000
4068.43 3.85038
4069.28 3.85085
4070.13 3.85148
4070.99 3.85236
4071.84 3.85361
4072.26 3.85445
4072.69 3.85546
4073.11 3.85674
4073.54 3.85837
4073.96 3.86057
4074.17 3.86203
4074.39 3.86386
4074.60 3.86628
4074.81 3.86959
4075.02 3.87435
4075.13 3.87750
4075.24 3.88135
4075.41 3.88958
4075.49 3.89487
4075.58 3.90116
4075.67 3.90862
4075.75 3.91747
4075.84 3.92796
4075.92 3.94022
4076.01 3.95486
4076.10 3.97210
4076.18 3.99235
4076.27 4.01608
4076.35 4.04377
4076.44 4.07599
4076.53 4.11334
4076.61 4.15591
4076.70 4.20540
4076.78 4.26207
4076.87 4.32666
4076.95 4.39998
4077.04 4.48280
4077.13 4.57592
4077.21 4.68013
4077.30 4.79474
4077.38 4.92315
4077.47 5.06471
4077.56 5.21994
4077.64 5.38722
4077.73 5.57075
4077.81 5.76877
4077.90 5.98121
4077.98 6.20508
4078.06 6.41086
4078.13 6.62629
4078.21 6.85079
4078.28 7.08042
4078.43 7.56381
4078.57 8.06794
4078.87 9.09742
4079.01 9.59289
4079.16 10.0574
4079.28 10.3898
4079.39 10.6849
4079.51 10.9419
4079.62 11.1506
4079.71 11.2750
4079.79 11.3690
4079.88 11.4332
4079.93 11.4526
4079.97 11.4634
4080.00 11.4650
4080.04 11.4612
4080.08 11.4507
4080.14 11.4222
4080.24 11.3414
4080.34 11.2086
4080.45 11.0331
4080.58 10.7669
4080.70 10.4514
4080.83 10.0926
4080.95 9.69954
4081.12 9.13452
4081.29 8.55009
4081.46 7.96015
4081.63 7.38999
4081.71 7.11263
4081.80 6.84801
4081.88 6.59412
4081.96 6.35202
4082.05 6.11988
4082.13 5.90376
4082.22 5.70124
4082.30 5.51251
4082.40 5.30777
4082.50 5.12369
4082.60 4.95756
4082.69 4.80866
4082.79 4.67482
4082.89 4.55770
4082.99 4.45475
4083.09 4.36483
4083.19 4.28601
4083.28 4.21871
4083.38 4.16096
4083.48 4.11165
4083.58 4.06940
4083.68 4.03409
4083.78 4.00440
4083.87 3.97955
4083.97 3.95863
4084.07 3.94145
4084.17 3.92722
4084.27 3.91546
4084.37 3.90567
4084.46 3.89770
4084.56 3.89114
4084.66 3.88573
4084.76 3.88123
4084.86 3.87754
4085.05 3.87191
4085.25 3.86790
4085.45 3.86499
4085.67 3.86251
4085.90 3.86060
4086.34 3.85782
4086.79 3.85580
4087.24 3.85423
4087.69 3.85296
4088.14 3.85192
4089.04 3.85031
4089.94 3.84911
4090.84 3.84818
4091.74 3.84744
4092.63 3.84684
4093.64 3.84627
4094.66 3.84579
4095.67 3.84538
4096.68 3.84502
4098.70 3.84440
4100.72 3.84388
4102.74 3.84343
4104.76 3.84302
4106.78 3.84264
4108.80 3.84229
4111.95 3.84177
4115.09 3.84128
4118.24 3.84082
4121.38 3.84036
4124.53 3.83992
4127.67 3.83949
4130.81 3.83907
4133.96 3.83865
4140.25 3.83782
4146.54 3.83702
4152.83 3.83622
4159.11 3.83543
4170.34 3.83405
4181.57 3.83270
4192.80 3.83137
4204.03 3.83006
4226.49 3.82749
4248.95 3.82499
4271.41 3.82257
4293.87 3.82020
4338.79 3.81563
4381.91 3.81145
4425.04 3.80743
4511.28 3.79988
4590.34 3.79344
4669.40 3.78738
4748.45 3.78166
4787.98 3.77891
4827.51 3.77623
4870.63 3.77338
4913.76 3.77060
4956.88 3.76790
5000.00 3.76526
5024.48 3.76380
5048.96 3.76236
5073.44 3.76095
5097.92 3.75957
5122.40 3.75823
5146.88 3.75695
5159.12 3.75635
5171.35 3.75576
5183.59 3.75521
5195.83 3.75470
5205.50 3.75435
5215.16 3.75405
5224.82 3.75383
5234.49 3.75372
5239.32 3.75370
5244.15 3.75375
5248.98 3.75385
5253.81 3.75403
5258.64 3.75430
5263.47 3.75470
5268.31 3.75527
5273.14 3.75606
5277.16 3.75697
5281.19 3.75817
5285.22 3.75973
5289.24 3.76190
5293.27 3.76492
5295.28 3.76688
5297.29 3.76924
5299.31 3.77211
5301.32 3.77565
5303.33 3.78003
5305.35 3.78554
5306.80 3.79051
5308.25 3.79656
5309.70 3.80402
5311.14 3.81333
5312.59 3.82517
5314.04 3.84047
5315.49 3.86084
5316.94 3.88886
5317.63 3.90592
5318.31 3.92628
5319.00 3.95093
5319.68 3.98110
5320.36 4.01874
5321.05 4.06655
5321.73 4.12895
5322.07 4.16771
5322.42 4.21326
5322.78 4.27126
5323.14 4.34269
5323.50 4.43421
5323.87 4.55648
5324.05 4.63556
5324.23 4.73080
5324.41 4.84790
5324.59 4.99401
5324.77 5.17865
5324.86 5.28984
5324.95 5.41433
5325.04 5.55704
5325.13 5.71726
5325.23 5.90130
5325.32 6.10815
5325.42 6.37387
5325.52 6.68021
5325.62 7.03307
5325.72 7.43465
5325.82 7.90006
5325.92 8.42769
5325.97 8.72499
5326.02 9.03641
5326.07 9.36868
5326.12 9.72294
5326.17 10.1082
5326.22 10.5104
5326.27 10.9471
5326.32 11.4023
5326.37 11.8957
5326.42 12.4090
5326.47 12.9530
5326.52 13.5290
5326.57 14.1507
5326.62 14.7951
5326.67 15.4753
5326.72 16.1925
5326.78 16.9634
5326.83 17.7590
5326.88 18.5951
5326.93 19.4727
5326.98 20.5064
5327.04 21.5748
5327.09 22.7180
5327.15 23.8962
5327.20 25.1532
5327.26 26.4446
5327.31 27.7929
5327.37 29.1985
5327.42 30.6884
5327.48 32.2094
5327.59 35.4512
5327.70 38.9175
5327.81 42.5634
5327.89 45.1970
5327.96 47.8808
5328.11 53.5088
5328.26 59.3749
5328.42 65.3892
5328.64 74.2360
5328.86 82.7937
5328.99 87.5619
5329.12 91.9962
5329.23 95.4285
5329.34 98.4846
5329.44 100.950
5329.54 103.057
5329.65 104.914
5329.76 106.296
5329.89 107.246
5330.00 107.508
5330.13 107.124
5330.26 106.039
5330.39 104.242
5330.52 101.762
5330.61 99.7209
5330.70 97.4135
5330.83 93.5806
5330.96 89.3318
5331.09 84.6846
5331.22 79.7956
5331.46 70.4115
5331.70 60.9290
5331.84 55.3269
5331.98 49.9520
5332.13 44.7948
5332.20 42.3462
5332.27 39.9791
5332.33 37.8556
5332.40 35.8393
5332.46 33.8998
5332.53 32.0384
5332.59 30.2295
5332.66 28.5285
5332.72 26.9073
5332.79 25.3657
5332.86 23.8810
5332.92 22.4972
5332.99 21.1897
5333.05 19.9568
5333.12 18.7794
5333.18 17.6908
5333.25 16.6704
5333.31 15.7158
5333.37 14.9306
5333.42 14.2047
5333.48 13.5104
5333.54 12.8701
5333.59 12.2592
5333.65 11.6973
5333.71 11.1715
5333.76 10.6801
5333.82 10.2134
5333.88 9.78599
5333.93 9.38093
5333.99 9.01075
5334.05 8.66057
5334.10 8.34113
5334.16 8.04455
5334.21 7.76943
5334.27 7.50999
5334.33 7.27402
5334.38 7.05179
5334.44 6.84987
5334.55 6.48743
5334.66 6.18067
5334.78 5.91656
5334.89 5.69134
5335.00 5.49916
5335.12 5.33628
5335.21 5.21646
5335.31 5.11105
5335.50 4.93589
5335.69 4.79797
5335.88 4.68770
5336.07 4.59805
5336.26 4.52386
5336.63 4.40821
5337.01 4.32100
5337.39 4.25235
5337.77 4.19655
5338.15 4.15028
5338.56 4.10884
5338.96 4.07384
5339.77 4.01790
5340.57 3.97552
5341.38 3.94253
5342.19 3.91628
5343.00 3.89501
5343.80 3.87752
5344.61 3.86298
5345.84 3.84504
5347.08 3.83099
5348.31 3.81973
5349.55 3.81054
5350.78 3.80293
5352.01 3.79657
5354.48 3.78661
5356.19 3.78130
5357.90 3.77693
5359.61 3.77329
5361.32 3.77025
5364.74 3.76536
5368.15 3.76166
5371.57 3.75879
5374.99 3.75650
5378.41 3.75465
5381.83 3.75311
5386.19 3.75152
5390.56 3.75018
5394.93 3.74907
5399.30 3.74810
5403.66 3.74726
5408.03 3.74652
5416.76 3.74527
5425.50 3.74421
5434.23 3.74330
5442.97 3.74250
5451.70 3.74175
5463.85 3.74081
5476.01 3.73995
5488.16 3.73913
5500.31 3.73836
5512.46 3.73761
5524.62 3.73689
5548.92 3.73549
5573.23 3.73415
5597.53 3.73283
5621.84 3.73154
5646.14 3.73027
5670.44 3.72901
5694.75 3.72777
5719.05 3.72653
5743.36 3.72531
5767.66 3.72409
5791.97 3.72288
5816.27 3.72167
5840.58 3.72047
5862.60 3.71938
5884.63 3.71830
5906.66 3.71722
5928.68 3.71614
5950.71 3.71507
5961.72 3.71454
5972.74 3.71401
5983.75 3.71349
5994.76 3.71297
6005.77 3.71246
6011.28 3.71221
6016.79 3.71196
6023.62 3.71167
6030.46 3.71138
6037.30 3.71112
6044.13 3.71088
6047.55 3.71078
6050.97 3.71069
6054.38 3.71062
6057.80 3.71057
6061.22 3.71054
6064.64 3.71056
6068.06 3.71064
6071.47 3.71080
6074.13 3.71100
6076.79 3.71130
6079.45 3.71174
6082.11 3.71236
6084.76 3.71329
6086.09 3.71391
6087.42 3.71469
6088.75 3.71566
6090.08 3.71690
6091.41 3.71848
6092.74 3.72054
6093.83 3.72273
6094.92 3.72557
6096.01 3.72933
6097.11 3.73446
6097.65 3.73776
6098.20 3.74172
6098.74 3.74653
6099.29 3.75249
6099.84 3.76003
6100.38 3.77000
6100.66 3.77640
6100.93 3.78427
6101.20 3.79434
6101.47 3.80778
6101.70 3.82295
6101.92 3.84355
6102.15 3.87248
6102.38 3.91343
6102.49 3.94026
6102.60 3.97246
6102.71 4.01109
6102.83 4.05697
6102.94 4.11238
6103.05 4.17863
6103.17 4.25766
6103.28 4.35075
6103.39 4.46203
6103.50 4.59350
6103.62 4.74822
6103.73 4.92781
6103.84 5.13911
6103.95 5.38452
6104.07 5.66820
6104.18 5.99141
6104.29 6.36436
6104.41 6.78890
6104.52 7.26958
6104.63 7.80572
6104.74 8.41105
6104.86 9.07859
6104.97 9.82356
6105.08 10.6354
6105.17 11.3339
6105.26 12.0802
6105.35 12.8745
6105.44 13.7164
6105.53 14.6050
6105.61 15.5388
6105.70 16.5161
6105.79 17.5341
6105.88 18.5897
6105.97 19.6791
6106.15 21.9412
6106.50 26.6381
6106.66 28.6668
6106.81 30.6145
6106.97 32.4632
6107.12 34.1463
6107.21 34.9752
6107.29 35.7415
6107.37 36.4394
6107.45 37.0636
6107.54 37.6516
6107.63 38.1371
6107.76 38.6460
6107.82 38.8346
6107.89 38.9616
6107.95 39.0294
6108.00 39.0499
6108.05 39.0364
6108.09 38.9903
6108.14 38.9265
6108.19 38.8053
6108.27 38.5496
6108.41 37.9109
6108.52 37.2318
6108.63 36.4182
6108.73 35.6023
6108.83 34.6964
6108.92 33.7097
6109.02 32.6629
6109.12 31.4484
6109.22 30.1875
6109.43 27.5304
6109.84 22.0854
6109.97 20.4715
6110.09 18.9217
6110.22 17.4244
6110.35 16.0141
6110.47 14.6766
6110.60 13.4391
6110.72 12.2853
6110.85 11.2353
6110.97 10.2722
6111.04 9.82591
6111.10 9.40928
6111.16 9.00842
6111.22 8.62972
6111.29 8.27262
6111.35 7.94166
6111.41 7.62552
6111.48 7.32900
6111.54 7.05137
6111.60 6.79585
6111.66 6.55345
6111.73 6.32764
6111.85 5.92563
6111.93 5.71446
6112.00 5.52170
6112.07 5.34611
6112.15 5.18650
6112.22 5.04170
6112.30 4.91061
6112.44 4.68668
6112.59 4.50376
6112.74 4.35733
6112.89 4.23922
6113.03 4.14571
6113.18 4.07098
6113.33 4.01188
6113.48 3.96522
6113.62 3.92860
6113.77 3.89941
6113.92 3.87637
6114.07 3.85783
6114.21 3.84299
6114.51 3.82079
6114.80 3.80540
6115.10 3.79406
6115.39 3.78525
6115.99 3.77211
6116.58 3.76252
6117.28 3.75380
6117.99 3.74711
6118.70 3.74181
6119.41 3.73754
6120.35 3.73300
6121.30 3.72943
6122.24 3.72657
6123.19 3.72423
6124.13 3.72230
6125.08 3.72068
6126.97 3.71811
6128.86 3.71617
6130.75 3.71467
6132.64 3.71347
6134.53 3.71250
6136.65 3.71160
6138.78 3.71086
6140.90 3.71023
6143.03 3.70970
6147.28 3.70882
6151.53 3.70812
6155.78 3.70753
6160.04 3.70703
6164.29 3.70659
6168.54 3.70620
6175.15 3.70565
6181.77 3.70516
6188.38 3.70470
6194.99 3.70427
6201.61 3.70386
6208.22 3.70347
6221.45 3.70271
6234.68 3.70199
6247.90 3.70129
6261.13 3.70060
6274.36 3.69992
6290.42 3.69911
6306.48 3.69830
6322.54 3.69750
6338.60 3.69671
6370.73 3.69512
6402.85 3.69354
6467.09 3.69040
6531.34 3.68725
6574.80 3.68513
6618.26 3.68301
6661.72 3.68089
6705.18 3.67878
6748.64 3.67671
6770.37 3.67568
6792.10 3.67469
6813.83 3.67371
6835.56 3.67276
6857.29 3.67188
6879.02 3.67108
6894.14 3.67060
6909.26 3.67021
6924.37 3.66995
6939.49 3.66988
6954.61 3.67010
6962.17 3.67037
6969.72 3.67079
6977.28 3.67142
6984.84 3.67232
6992.40 3.67359
6999.96 3.67539
7004.44 3.67680
7008.93 3.67857
7013.42 3.68080
7017.91 3.68363
7022.40 3.68728
7026.88 3.69207
7031.37 3.69840
7035.86 3.70715
7040.11 3.71881
7042.24 3.72643
7044.36 3.73569
7046.49 3.74709
7048.61 3.76127
7050.74 3.77928
7052.86 3.80270
7055.11 3.83592
7056.23 3.85711
7057.35 3.88239
7058.47 3.91288
7059.60 3.95012
7060.72 3.99632
7061.84 4.05471
7063.08 4.13927
7063.70 4.19237
7064.32 4.25503
7064.94 4.32977
7065.56 4.42006
7066.18 4.53078
7066.80 4.66914
7067.13 4.75621
7067.45 4.85607
7067.78 4.97175
7068.10 5.10691
7068.42 5.26812
7068.75 5.46324
7068.91 5.57746
7069.07 5.70430
7069.24 5.84681
7069.40 6.00786
7069.62 6.26516
7069.73 6.41274
7069.84 6.57359
7069.95 6.75251
7070.06 6.95026
7070.17 7.16922
7070.28 7.40979
7070.40 7.67931
7070.51 7.97901
7070.62 8.31256
7070.73 8.68047
7070.84 9.09378
7070.95 9.54975
7071.06 10.0618
7071.17 10.6261
7071.25 11.0870
7071.33 11.5788
7071.41 12.1093
7071.49 12.6811
7071.58 13.3048
7071.66 13.9679
7071.74 14.6805
7071.82 15.4452
7071.90 16.2754
7071.98 17.1536
7072.06 18.0922
7072.14 19.0938
7072.23 20.1610
7072.31 21.2962
7072.39 22.5016
7072.47 23.7791
7072.57 25.5281
7072.68 27.3833
7072.78 29.3831
7072.88 31.4900
7072.99 33.7450
7073.09 36.1034
7073.19 38.5837
7073.30 41.1818
7073.46 45.5198
7073.62 50.0787
7073.78 54.8738
7073.95 59.7951
7074.26 69.4152
7074.57 78.8591
7074.73 83.5275
7074.89 87.8976
7075.05 91.9053
7075.21 95.4178
7075.38 98.3850
7075.54 100.741
7075.63 101.806
7075.73 102.638
7075.82 103.231
7075.91 103.581
7076.00 103.685
7076.09 103.562
7076.19 103.193
7076.28 102.580
7076.38 101.729
7076.52 99.9216
7076.67 97.5754
7076.82 94.7963
7076.96 91.6149
7077.11 88.0421
7077.25 84.1860
7077.40 80.0553
7077.54 75.7694
7077.83 66.8935
7078.12 57.9614
7078.26 53.6276
7078.40 49.4278
7078.60 43.9601
7078.70 41.3531
7078.80 38.8741
7078.90 36.4775
7079.00 34.2155
7079.09 32.0657
7079.19 30.0295
7079.26 28.5868
7079.34 27.2255
7079.41 25.9249
7079.48 24.6845
7079.55 23.5031
7079.62 22.3799
7079.70 21.3133
7079.77 20.3022
7079.84 19.3319
7079.91 18.4274
7079.99 17.5733
7080.06 16.7678
7080.13 16.0089
7080.20 15.2949
7080.27 14.6237
7080.35 13.9935
7080.44 13.1901
7080.54 12.4626
7080.64 11.7913
7080.74 11.1850
7080.84 10.6268
7080.94 10.1238
7081.03 9.66587
7081.13 9.24929
7081.23 8.86675
7081.33 8.52256
7081.43 8.20650
7081.53 7.92202
7081.63 7.66057
7081.72 7.42495
7081.82 7.21014
7081.92 7.01408
7082.06 6.75447
7082.21 6.52797
7082.35 6.32816
7082.50 6.15118
7082.64 5.99271
7082.79 5.85212
7082.93 5.72590
7083.07 5.61204
7083.36 5.41438
7083.65 5.24996
7083.94 5.11008
7084.23 4.99033
7084.73 4.81824
7085.22 4.67997
7085.72 4.56614
7086.22 4.47134
7086.72 4.39105
7087.22 4.32260
7088.21 4.21229
7089.05 4.13976
7089.89 4.08094
7090.73 4.03241
7091.57 3.99197
7093.25 3.92867
7094.93 3.88194
7096.61 3.84640
7098.29 3.81877
7099.97 3.79687
7101.64 3.77919
7103.32 3.76463
7105.00 3.75252
7108.36 3.73370
7111.09 3.72220
7113.81 3.71308
7116.54 3.70576
7119.27 3.69976
7122.00 3.69472
7124.72 3.69047
7130.18 3.68375
7133.96 3.68012
7137.73 3.67709
7141.51 3.67454
7145.29 3.67240
7152.84 3.66885
7160.40 3.66609
7167.95 3.66388
7175.50 3.66205
7183.06 3.66051
7190.61 3.65917
7201.94 3.65749
7213.27 3.65601
7224.60 3.65472
7235.93 3.65356
7247.27 3.65249
7258.60 3.65150
7281.26 3.64965
7303.92 3.64796
7326.58 3.64634
7349.24 3.64478
7371.90 3.64326
7395.40 3.64171
7418.91 3.64017
7442.41 3.63864
7465.91 3.63712
7512.91 3.63407
7559.91 3.63101
7623.70 3.62679
7655.59 3.62466
7687.49 3.62250
7719.38 3.62032
7751.27 3.61811
7767.22 3.61700
7783.17 3.61588
7799.12 3.61476
7815.06 3.61363
7824.30 3.61298
7833.53 3.61233
7842.76 3.61168
7851.99 3.61104
7861.23 3.61041
7865.84 3.61010
7870.46 3.60980
7875.07 3.60951
7879.69 3.60923
7884.31 3.60896
7888.92 3.60873
7892.28 3.60858
7895.64 3.60847
7898.99 3.60839
7902.35 3.60837
7905.71 3.60844
7907.39 3.60852
7909.07 3.60865
7910.75 3.60883
7912.42 3.60909
7914.10 3.60944
7915.78 3.60993
7917.25 3.61050
7918.72 3.61128
7920.19 3.61233
7921.66 3.61380
7922.39 3.61475
7923.13 3.61590
7923.86 3.61732
7924.59 3.61907
7925.33 3.62127
7926.06 3.62411
7926.80 3.62787
7927.53 3.63320
7927.85 3.63632
7928.16 3.64029
7928.48 3.64560
7928.79 3.65301
7929.11 3.66394
7929.26 3.67139
7929.42 3.68058
7929.58 3.69212
7929.74 3.70646
7929.89 3.72442
7930.05 3.74689
7930.21 3.77516
7930.36 3.81019
7930.52 3.85398
7930.68 3.90779
7930.84 3.97442
7930.99 4.05541
7931.15 4.15380
7931.31 4.27254
7931.47 4.41583
7931.62 4.58530
7931.78 4.78536
7931.94 5.01970
7932.10 5.29381
7932.25 5.60775
7932.41 5.96633
7932.57 6.37232
7932.69 6.73090
7932.82 7.12160
7932.94 7.54474
7933.07 7.99644
7933.19 8.48336
7933.31 8.99658
7933.44 9.54265
7933.56 10.1105
7933.69 10.7064
7933.81 11.3221
7934.06 12.5905
7934.31 13.8801
7934.56 15.1428
7934.76 16.0879
7934.95 16.9561
7935.05 17.3550
7935.15 17.7211
7935.25 18.0555
7935.35 18.3555
7935.51 18.7609
7935.66 19.0602
7935.81 19.2385
7935.88 19.2953
7935.96 19.3237
7936.00 19.3272
7936.06 19.3181
7936.13 19.2910
7936.21 19.2237
7936.29 19.1265
7936.38 18.9983
7936.54 18.6543
7936.71 18.1991
7936.82 17.8355
7936.93 17.4341
7937.04 16.9958
7937.15 16.5249
7937.37 15.4988
7937.59 14.4026
7938.16 11.4889
7938.30 10.7862
7938.44 10.1086
7938.58 9.46128
7938.72 8.85280
7938.87 8.27775
7939.01 7.74278
7939.15 7.24920
7939.29 6.80046
7939.43 6.38988
7939.57 6.01979
7939.72 5.68866
7939.86 5.39647
7940.00 5.13679
7940.14 4.90930
7940.28 4.71133
7940.42 4.54130
7940.57 4.39411
7940.71 4.26842
7940.85 4.16174
7940.99 4.07227
7941.13 3.99658
7941.28 3.93335
7941.42 3.88078
7941.56 3.83753
7941.70 3.80159
7941.84 3.77204
7941.98 3.74780
7942.13 3.72809
7942.25 3.71351
7942.38 3.70131
7942.63 3.68253
7942.88 3.66924
7943.13 3.65970
7943.39 3.65269
7943.64 3.64738
7943.89 3.64324
7944.14 3.63990
7944.65 3.63477
7945.15 3.63091
7945.65 3.62784
7946.16 3.62531
7947.16 3.62137
7948.17 3.61844
7949.18 3.61620
7950.19 3.61442
7951.32 3.61283
7952.46 3.61155
7953.59 3.61050
7954.72 3.60963
7955.86 3.60889
7956.99 3.60825
7959.26 3.60720
7961.53 3.60636
7963.79 3.60569
7966.06 3.60512
7968.33 3.60463
7971.35 3.60406
7974.37 3.60357
7977.40 3.60313
7980.42 3.60272
7983.44 3.60235
7986.47 3.60200
7992.51 3.60135
7998.56 3.60075
8004.61 3.60018
8010.65 3.59962
8016.70 3.59908
8024.76 3.59838
8032.83 3.59769
8040.89 3.59701
8048.95 3.59633
8057.01 3.59566
8065.07 3.59499
8081.20 3.59365
8097.32 3.59231
8113.45 3.59097
8129.57 3.58962
8145.70 3.58826
8166.86 3.58646
8188.02 3.58464
8230.35 3.58095
8272.68 3.57717
8315.00 3.57330
8399.66 3.56527
8484.31 3.55681
8548.81 3.55004
8581.05 3.54653
8669.74 3.53648
8758.42 3.52574
8935.79 3.50188
9113.16 3.47396
9201.84 3.45812
9290.53 3.44073
9351.00 3.42784
9411.46 3.41399
9471.93 3.39910
9532.39 3.38297
9576.74 3.37026
9621.08 3.35673
9665.42 3.34229
9709.76 3.32685
9731.93 3.31871
9754.10 3.31029
9776.28 3.30157
9798.45 3.29254
9820.62 3.28322
9842.79 3.27360
9853.87 3.26871
9864.96 3.26376
9876.05 3.25880
9887.13 3.25383
9895.19 3.25024
9903.26 3.24670
9911.32 3.24325
9919.38 3.23994
9926.18 3.23732
9932.98 3.23495
9939.79 3.23293
9946.59 3.23137
9953.39 3.23066
9956.79 3.23074
9960.19 3.23124
9963.60 3.23227
9967.00 3.23400
9970.40 3.23665
9973.80 3.24054
9976.07 3.24414
9978.33 3.24880
9980.60 3.25483
9982.87 3.26268
9985.14 3.27300
9987.40 3.28670
9989.67 3.30534
9991.94 3.33149
9993.95 3.36445
9994.96 3.38592
9995.97 3.41192
9996.98 3.44390
9997.99 3.48382
9998.99 3.53464
10000.0 3.60079
10000.6 3.64944
10001.2 3.70799
10001.8 3.77965
10002.4 3.86760
10002.9 3.98269
10003.2 4.05255
10003.5 4.13423
10003.8 4.23469
10004.1 4.35186
10004.4 4.49489
10004.7 4.67197
10004.9 4.78809
10005.0 4.92009
10005.2 5.07055
10005.3 5.23105
10005.5 5.42621
10005.6 5.64987
10005.8 5.90638
10006.0 6.18097
10006.1 6.51535
10006.3 6.89828
10006.4 7.33612
10006.6 7.80253
10006.7 8.07552
10006.7 8.36656
10006.8 8.67663
10006.9 9.00667
10007.0 9.35768
10007.1 9.73063
10007.1 10.1265
10007.2 10.4925
10007.3 11.0484
10007.4 11.6448
10007.5 12.2835
10007.6 12.8959
10007.7 13.6197
10007.8 14.3111
10007.9 15.1252
10008.0 15.8999
10008.1 16.8083
10008.2 17.6693
10008.3 18.6746
10008.4 19.6233
10008.5 20.7260
10008.6 21.7618
10008.7 24.0803
10008.9 25.7654
10009.0 27.3877
10009.2 30.9517
10009.5 34.7165
10009.7 38.4515
10010.0 42.6939
10010.3 46.8521
10010.5 50.5019
10010.8 53.8372
10011.0 55.9786
10011.1 57.8562
10011.3 59.2741
10011.4 60.3678
10011.6 61.0157
10011.7 61.4866
10011.8 61.8710
10011.9 62.0966
10012.0 62.2114
10012.1 62.1492
10012.2 61.9670
10012.4 61.2956
10012.5 60.5359
10012.7 59.5615
10012.9 57.8218
10013.1 55.8256
10013.2 54.4121
10013.3 52.8945
10013.5 49.7406
10013.8 46.3419
10014.0 42.9470
10014.4 36.3562
10014.6 33.1285
10014.8 30.0138
10015.0 28.1602
10015.1 26.5083
10015.2 24.7887
10015.3 23.2704
10015.5 21.7042
10015.6 20.3333
10015.7 18.9309
10015.8 17.7134
10015.9 16.5696
10016.1 15.4987
10016.2 14.4995
10016.3 13.6449
10016.4 12.7775
10016.5 12.0397
10016.6 11.2948
10016.8 10.6645
10016.9 10.0311
10017.0 9.49756
10017.1 8.96376
10017.2 8.51592
10017.3 8.06953
10017.4 7.69633
10017.6 7.32549
10017.7 7.01632
10017.8 6.75883
10017.9 6.52211
10018.0 6.30461
10018.1 6.10488
10018.2 5.92153
10018.3 5.75324
10018.4 5.59878
10018.5 5.45702
10018.7 5.20733
10018.9 4.99649
10019.1 4.81793
10019.3 4.67314
10019.5 4.54241
10019.7 4.43010
10019.9 4.33299
10020.1 4.24846
10020.5 4.10893
10020.9 4.00121
10021.2 3.91970
10021.6 3.85283
10022.3 3.74424
10023.0 3.66110
10023.7 3.59542
10024.4 3.54233
10025.1 3.49866
10026.5 3.43143
10028.1 3.37758
10029.7 3.33820
10031.3 3.30834
10032.9 3.28516
10034.5 3.26654
10036.1 3.25138
10037.7 3.23883
10039.2 3.22835
10041.2 3.21722
10043.3 3.20794
10045.3 3.20003
10047.3 3.19322
10051.3 3.18192
10055.3 3.17284
10059.3 3.16523
10063.3 3.15870
10067.3 3.15280
10071.3 3.14743
10077.0 3.14043
10082.7 3.13396
10088.4 3.12781
10094.1 3.12190
10099.8 3.11614
10105.4 3.11047
10116.8 3.09920
10128.2 3.08793
10139.6 3.07650
10150.9 3.06483
10162.3 3.05284
10178.4 3.03523
10194.4 3.01679
10210.5 2.99730
10226.5 2.97672
10246.6 2.94914
10266.6 2.91927
10276.7 2.90342
10286.7 2.88684
10296.7 2.86951
10301.7 2.86055
10306.8 2.85141
10313.4 2.83890
10316.8 2.83252
10320.1 2.82609
10323.5 2.81958
10326.8 2.81305
10330.2 2.80654
10331.8 2.80331
10333.5 2.80013
10335.1 2.79716
10336.7 2.79428
10338.3 2.79156
10339.9 2.78908
10341.5 2.78700
10342.3 2.78618
10343.0 2.78558
10343.8 2.78529
10344.6 2.78547
10345.4 2.78641
10345.8 2.78741
10346.2 2.78897
10346.6 2.79108
10346.9 2.79421
10347.2 2.79919
10347.4 2.80265
10347.6 2.80669
10347.7 2.81203
10347.9 2.81871
10348.1 2.82705
10348.2 2.83675
10348.4 2.84947
10348.6 2.86520
10348.7 2.88458
10348.9 2.90679
10349.1 2.93541
10349.2 2.97013
10349.4 3.01201
10349.6 3.05900
10349.7 3.11818
10349.9 3.18822
10350.1 3.27056
10350.2 3.36061
10350.4 3.47105
10350.6 3.59813
10350.7 3.74327
10350.9 3.89752
10351.1 4.08120
10351.2 4.27346
10351.4 4.49887
10351.6 4.73109
10351.8 5.16637
10352.1 5.63399
10352.4 6.14281
10352.6 6.68326
10353.1 7.82614
10353.4 8.37229
10353.7 8.88306
10353.9 9.22249
10354.0 9.52497
10354.2 9.78359
10354.4 9.98261
10354.6 10.1184
10354.7 10.2083
10354.9 10.2583
10355.0 10.2741
10355.0 10.2748
10355.1 10.2690
10355.2 10.2435
10355.4 10.1444
10355.5 10.0272
10355.7 9.88631
10355.8 9.70378
10356.0 9.50629
10356.1 9.23495
10356.3 8.95218
10356.5 8.62766
10356.6 8.30443
10357.0 7.60333
10357.3 6.90970
10357.5 6.42103
10357.7 5.95202
10358.0 5.51066
10358.2 5.11989
10358.4 4.74804
10358.6 4.42939
10358.9 4.13549
10359.1 3.89110
10359.3 3.67209
10359.6 3.48763
10359.8 3.33440
10360.0 3.21370
10360.2 3.11103
10360.5 3.03205
10360.7 2.96634
10360.9 2.91682
10361.1 2.88928
10361.2 2.86744
10361.3 2.84761
10361.5 2.83196
10361.6 2.81781
10361.8 2.80668
10361.9 2.79663
10362.1 2.78873
10362.2 2.78159
10362.4 2.77596
10362.6 2.76678
10362.9 2.76005
10363.2 2.75500
10363.5 2.75107
10363.8 2.74791
10364.4 2.74297
10364.9 2.73952
10365.4 2.73655
10366.4 2.73145
10367.4 2.72703
10368.5 2.72308
10369.5 2.71937
10370.5 2.71590
10371.5 2.71255
10372.5 2.70932
10374.6 2.70303
10376.6 2.69693
10378.6 2.69092
10380.6 2.68494
10383.4 2.67682
10386.2 2.66865
10388.9 2.66039
10391.7 2.65208
10397.2 2.63505
10402.7 2.61750
10408.2 2.59930
10413.7 2.58047
10424.8 2.54056
10437.5 2.49014
10450.3 2.43448
10463.1 2.37262
10475.8 2.30342
10488.6 2.22536
10501.4 2.13669
10514.2 2.03496
10520.6 1.97820
10526.9 1.91701
10534.5 1.83802
10542.0 1.75112
10549.6 1.65446
10557.1 1.54691
10563.5 1.44579
10566.7 1.39146
10569.9 1.33433
10573.1 1.27404
10576.3 1.21076
10579.5 1.14412
10582.7 1.07392
10586.1 0.992843
10589.6 0.907362
10593.1 0.817138
10596.6 0.722193
10600.1 0.622497
10603.6 0.519284
10607.0 0.413615
10610.5 0.307803
10611.9 0.265455
10613.3 0.224458
10614.8 0.184775
10616.2 0.147626
10617.6 0.113303
10619.0 0.0833098
10619.7 0.0701518
10620.4 0.0585586
10621.1 0.0487615
10621.8 0.0411158
10622.4 0.0366954
10622.9 0.0338747
10623.2 0.0330572
10623.5 0.0327154
10623.7 0.0328347
10624.0 0.0334389
10624.2 0.0339513
10624.4 0.0352788
10624.7 0.0370352
10624.9 0.0393853
10625.2 0.0421726
10625.4 0.0456470
10625.7 0.0495679
10626.2 0.0594460
10626.5 0.0672764
10626.9 0.0763226
10627.5 0.0980027
10628.2 0.125363
10628.8 0.159153
10629.5 0.200926
10630.1 0.250415
10630.8 0.309329
10631.4 0.378982
10632.0 0.447425
10632.5 0.524181
10633.1 0.613276
10633.6 0.712790
10634.1 0.827953
10634.4 0.890118
10634.7 0.956301
10635.0 1.02945
10635.2 1.10462
10635.5 1.18462
10635.8 1.26978
10636.2 1.40612
10636.6 1.55570
10637.0 1.71984
10637.4 1.90003
10637.8 2.09793
10638.2 2.31541
10638.4 2.43213
10638.6 2.55456
10638.8 2.68300
10639.0 2.81087
10639.2 2.95197
10639.4 3.10010
10639.6 3.25564
10639.8 3.41901
10640.0 3.59065
10640.2 3.77103
10640.4 3.96066
10640.6 4.16007
10640.8 4.36985
10641.0 4.59060
10641.2 4.82299
10641.4 5.06773
10641.6 5.32555
10641.8 5.59729
10642.0 5.88380
10642.2 6.17053
10642.4 6.48861
10642.6 6.82443
10642.8 7.17914
10643.0 7.55399
10643.2 7.95033
10643.4 8.36958
10643.6 8.81332
10643.8 9.28322
10644.0 9.78109
10644.2 10.3089
10644.4 10.8687
10644.6 11.4629
10644.8 12.0939
10645.0 12.7643
10645.2 13.4770
10645.3 14.1961
10645.5 14.9591
10645.7 15.7252
10645.9 16.5362
10646.1 17.3951
10646.3 18.3052
10646.4 19.2699
10646.6 20.2927
10646.8 21.3777
10647.0 22.5948
10647.2 23.8205
10647.3 25.1216
10647.5 26.5030
10647.7 27.9697
10647.9 29.5271
10648.1 31.1807
10648.2 32.9362
10648.4 35.0135
10648.6 37.2323
10648.8 39.6009
10649.0 42.1279
10649.2 44.8217
10649.4 47.6904
10649.6 50.7420
10649.8 53.9837
10650.0 57.4221
10650.2 61.0629
10650.4 64.9106
10650.6 68.9682
10650.8 73.2369
10651.0 77.7161
10651.2 82.4029
10651.4 87.0428
10651.7 93.6745
10651.9 100.337
10652.2 107.530
10652.5 114.660
10653.0 129.644
10653.5 144.485
10653.8 153.789
10654.1 162.740
10654.4 171.159
10654.7 178.641
10655.1 185.503
10655.4 191.340
10655.7 196.023
10656.0 199.365
10656.2 201.107
10656.5 202.068
10656.7 202.337
10656.9 202.137
10657.0 201.476
10657.2 200.436
10657.4 198.919
10657.6 196.993
10658.0 192.159
10658.4 185.893
10658.7 178.766
10659.1 170.653
10659.5 162.228
10660.4 139.753
10660.9 128.885
10661.4 118.537
10661.7 111.671
10662.0 105.175
10662.4 99.0698
10662.7 93.3603
10663.0 88.0437
10663.3 83.1090
10663.7 78.5400
10664.0 74.3169
10664.2 71.5664
10664.5 68.9654
10664.9 64.2794
10665.4 59.9902
10665.8 56.2288
10666.3 52.7755
10666.7 49.7348
10667.2 46.9298
10667.6 44.4467
10668.1 42.1433
10668.6 40.0927
10669.0 38.1798
10669.5 36.4674
10669.9 34.8613
10670.4 33.4161
10670.8 32.0537
10671.3 30.8218
10672.0 29.0570
10672.7 27.5035
10673.4 26.1085
10674.1 24.8504
10674.8 23.6954
10675.5 22.6608
10676.2 21.7167
10676.9 20.8524
10677.8 19.8331
10678.7 18.9164
10679.6 18.0883
10680.5 17.3370
10681.5 16.6529
10682.4 16.0276
10683.3 15.4542
10684.2 14.9324
10685.1 14.4454
10686.0 13.9950
10686.9 13.5772
10687.8 13.1890
10689.6 12.4896
10691.4 11.8809
10693.3 11.3411
10695.1 10.8615
10696.9 10.4329
10698.7 10.0480
10700.5 9.70061
10702.4 9.38568
10704.2 9.09894
10706.0 8.83824
10707.8 8.59774
10709.6 8.37641
10713.3 7.98294
10716.9 7.64397
10720.5 7.34997
10723.9 7.11385
10727.2 6.90333
10730.5 6.71333
10733.8 6.54229
10737.1 6.38672
10740.4 6.24553
10747.0 5.99799
10749.6 5.91042
10755.3 5.74192
10760.9 5.59539
10766.5 5.46751
10772.1 5.35669
10775.8 5.29358
10779.4 5.23740
10783.0 5.18816
10786.7 5.14681
10790.6 5.11199
10794.6 5.09088
10797.7 5.08721
10800.9 5.09970
10804.0 5.13566
10805.6 5.16618
10807.2 5.20826
10809.0 5.27638
10810.8 5.37333
10811.7 5.43650
10812.6 5.51243
10813.5 5.60426
10814.4 5.71615
10815.4 5.86741
10816.4 6.05972
10816.9 6.17712
10817.4 6.30871
10817.9 6.46322
10818.4 6.63870
10818.8 6.81214
10819.2 7.00637
10819.6 7.23643
10820.1 7.49846
10820.5 7.81497
10820.7 7.99548
10820.9 8.18367
10821.1 8.40073
10821.3 8.62858
10821.5 8.89325
10821.7 9.17309
10821.9 9.53369
10822.2 9.94264
10822.4 10.4084
10822.6 10.9162
10822.8 11.5233
10823.0 11.8753
10823.1 12.2216
10823.2 12.6271
10823.3 13.0263
10823.4 13.4538
10823.5 13.9116
10823.6 14.4483
10823.8 14.9767
10823.9 15.5959
10824.0 16.2053
10824.1 16.9188
10824.2 17.6203
10824.3 18.3701
10824.4 19.1707
10824.6 20.1054
10824.7 21.0213
10824.8 21.9966
10824.9 23.0339
10825.0 24.2392
10825.1 25.4143
10825.2 26.6588
10825.3 27.9750
10825.5 29.8885
10825.6 31.8010
10825.8 33.9883
10825.9 36.1601
10826.1 38.6265
10826.2 41.0572
10826.4 43.7959
10826.5 46.4728
10826.7 51.1058
10827.0 55.9969
10827.2 61.0939
10827.4 66.1018
10827.9 76.4491
10828.1 81.6109
10828.3 86.3424
10828.5 90.3888
10828.7 94.1195
10828.9 97.4668
10829.1 100.234
10829.3 102.765
10829.5 104.612
10829.7 105.917
10829.9 106.530
10830.0 106.601
10830.2 106.303
10830.4 105.443
10830.6 103.948
10830.8 101.995
10831.0 99.2773
10831.2 96.0297
10831.4 92.3213
10831.6 88.4306
10831.8 83.8304
10832.1 78.9858
10832.5 68.9308
10832.9 58.9440
10833.2 54.1527
10833.4 49.5693
10833.5 46.7801
10833.6 44.2876
10833.8 41.8945
10833.9 39.6045
10834.0 37.4205
10834.2 35.3439
10834.3 33.3755
10834.4 31.5147
10834.5 30.0235
10834.6 28.6074
10834.8 27.2651
10834.9 25.9947
10835.0 24.7942
10835.1 23.6615
10835.2 22.5942
10835.3 21.5898
10835.4 20.6456
10835.5 19.7590
10835.6 18.9273
10835.7 18.1478
10835.9 17.4177
10836.0 16.7344
10836.1 16.0952
10836.2 15.4975
10836.3 14.8899
10836.4 14.3710
10836.5 13.8861
10836.6 13.4331
10836.7 13.0097
10836.9 12.6140
10837.1 11.8980
10837.3 11.2711
10837.5 10.7208
10837.7 10.2364
10838.0 9.80848
10838.2 9.46171
10838.3 9.16462
10838.5 8.89513
10838.7 8.64988
10838.9 8.42598
10839.1 8.22092
10839.5 7.85898
10839.9 7.55000
10840.2 7.28344
10840.6 7.05130
10841.0 6.84745
10841.5 6.63618
10841.9 6.45568
10842.3 6.29654
10842.8 6.15531
10843.2 6.02654
10843.7 5.91368
10844.5 5.71972
10845.4 5.55773
10846.3 5.42350
10847.2 5.30946
10848.1 5.21152
10849.0 5.12567
10849.8 5.05146
10851.6 4.92792
10853.1 4.84518
10854.5 4.77530
10857.4 4.66365
10860.3 4.57749
10863.2 4.50844
10865.6 4.46015
10868.0 4.41816
10870.4 4.38109
10872.8 4.34806
10877.6 4.29036
10882.4 4.24121
10886.3 4.20622
10890.1 4.17435
10897.9 4.11735
10905.6 4.06704
10913.3 4.02168
10920.3 3.98316
10927.4 3.94709
10934.5 3.91304
10941.5 3.88072
10955.7 3.82008
10969.8 3.76368
10989.1 3.69176
11008.3 3.62397
11027.6 3.55881
11046.9 3.49527
11067.4 3.42817
11088.0 3.36091
11108.5 3.29236
11129.1 3.22163
11157.4 3.11878
11185.6 3.00669
11213.9 2.88161
11242.1 2.73857
11256.3 2.65819
11270.4 2.57050
11284.5 2.47419
11298.7 2.36760
11312.8 2.24863
11326.9 2.11494
11334.0 2.04155
11341.1 1.96333
11348.1 1.87953
11355.2 1.78985
11362.9 1.68449
11370.6 1.57010
11378.3 1.44584
11382.2 1.37978
11386.0 1.31088
11389.6 1.24491
11393.1 1.17654
11396.6 1.10552
11400.2 1.03180
11403.7 0.955126
11407.2 0.875972
11410.8 0.794215
11414.3 0.710046
11417.5 0.631440
11420.7 0.551742
11427.1 0.390856
11430.4 0.311424
11432.0 0.272671
11433.6 0.235115
11435.2 0.198607
11436.8 0.164018
11438.4 0.131401
11440.0 0.101702
11441.8 0.0727720
11442.6 0.0602359
11443.5 0.0491323
11444.4 0.0395389
11445.3 0.0318673
11445.7 0.0287745
11446.2 0.0262151
11446.6 0.0242199
11447.1 0.0228212
11447.3 0.0222419
11447.6 0.0219520
11447.9 0.0219365
11448.2 0.0222052
11448.4 0.0227182
11448.7 0.0234936
11449.0 0.0245400
11449.2 0.0258665
11449.7 0.0293972
11450.3 0.0341635
11450.6 0.0383530
11451.0 0.0431001
11451.4 0.0485397
11451.7 0.0547040
11452.4 0.0695684
11453.2 0.0875793
11453.9 0.109567
11454.6 0.135289
11455.3 0.165413
11456.1 0.200373
11456.9 0.250995
11457.8 0.310042
11458.3 0.343265
11458.7 0.379157
11459.1 0.417883
11459.6 0.459618
11460.0 0.505611
11460.5 0.554022
11460.9 0.606051
11461.4 0.661928
11461.8 0.721901
11462.2 0.786233
11462.7 0.855211
11463.1 0.929140
11463.7 1.03282
11464.2 1.14406
11464.8 1.26544
11465.4 1.39786
11465.9 1.54500
11466.5 1.70282
11467.1 1.87501
11467.6 2.06290
11468.1 2.22627
11468.5 2.39756
11468.9 2.58112
11469.4 2.77790
11469.8 2.99388
11470.3 3.22061
11470.7 3.46392
11471.2 3.72515
11471.6 4.01237
11472.0 4.31443
11472.5 4.63924
11472.9 4.98872
11473.4 5.36498
11473.8 5.77034
11474.2 6.20737
11474.7 6.67887
11475.1 7.20001
11475.6 7.75113
11476.0 8.34720
11476.5 8.99245
11476.9 9.69159
11477.3 10.4498
11477.8 11.2730
11478.2 12.1675
11478.7 13.1637
11479.1 14.2254
11479.5 15.3829
11480.0 16.6461
11480.4 18.0590
11480.9 19.5714
11481.3 21.2273
11481.8 23.0421
11482.0 24.0597
11482.2 25.0804
11482.6 27.2707
11482.9 28.4457
11483.1 29.6774
11483.3 30.9689
11483.5 32.3233
11483.7 33.7437
11484.0 35.2333
11484.2 36.7957
11484.4 38.4344
11484.6 40.1530
11484.8 41.9553
11485.1 43.8450
11485.3 45.8261
11485.5 47.9024
11485.7 50.0779
11485.9 52.3564
11486.2 54.7418
11486.6 59.8480
11487.0 65.4241
11487.5 71.4934
11487.9 78.0724
11488.4 85.1686
11488.8 92.7767
11489.1 98.2479
11489.4 103.744
11490.0 115.285
11490.6 127.415
11491.1 139.898
11491.7 152.426
11492.3 164.630
11492.9 176.098
11493.5 186.402
11493.8 192.470
11494.2 197.714
11494.6 202.039
11495.0 205.298
11495.4 207.612
11495.8 208.857
11496.1 209.080
11496.4 208.621
11496.7 207.476
11497.0 205.748
11497.4 203.367
11497.7 200.530
11498.0 197.108
11498.3 193.371
11498.9 184.734
11499.6 175.091
11500.8 154.508
11501.7 141.075
11502.5 128.366
11502.9 122.311
11503.3 116.671
11503.7 111.311
11504.1 106.233
11504.6 101.097
11505.0 96.2762
11505.5 91.7607
11505.9 87.6291
11506.3 83.6740
11506.8 80.0593
11507.2 76.6008
11507.6 73.4399
11508.0 70.6139
11508.4 68.0215
11508.8 65.5806
11509.2 63.2811
11509.6 61.1132
11510.0 59.0680
11510.8 55.3122
11511.6 51.9534
11512.4 48.9397
11513.2 46.2268
11514.0 43.7765
11514.8 41.5298
11515.6 39.5141
11516.4 37.6763
11517.2 35.9957
11518.0 34.4547
11518.8 33.0380
11519.6 31.7321
11520.4 30.5256
11521.4 29.2080
11522.3 28.0016
11523.3 26.8939
11524.2 25.8844
11525.2 24.9423
11526.1 24.0705
11527.1 23.2616
11528.0 22.5169
11529.6 21.3553
11531.2 20.3249
11532.8 19.4004
11534.4 18.5671
11536.0 17.8081
11537.6 17.1228
11539.2 16.4975
11540.8 15.9250
11542.5 15.3960
11544.1 14.9118
11545.7 14.4644
11547.3 14.0499
11550.5 13.3045
11553.7 12.6580
11556.4 12.1634
11559.2 11.7196
11562.0 11.3185
11564.7 10.9557
11567.5 10.6243
11570.3 10.3224
11573.0 10.0444
11575.8 9.78956
11579.0 9.51753
11582.2 9.26938
11588.6 8.83081
11595.0 8.45629
11601.4 8.13291
11609.0 7.80337
11616.6 7.52019
11624.2 7.27427
11631.7 7.05834
11638.1 6.89513
11644.6 6.74729
11657.4 6.48982
11670.2 6.27315
11683.0 6.08824
11695.8 5.92855
11708.7 5.78919
11721.5 5.66644
11734.3 5.55758
11759.9 5.37254
11785.6 5.22083
11811.2 5.09390
11836.8 4.98604
11860.2 4.90096
11883.5 4.82566
11906.8 4.75859
11930.1 4.69821
11955.7 4.63832
11968.5 4.61056
11981.4 4.58413
11994.2 4.55888
12007.0 4.53477
12013.4 4.52310
12019.8 4.51172
12026.2 4.50057
12032.6 4.48966
12039.6 4.47809
12046.6 4.46687
12050.1 4.46140
12053.6 4.45605
12057.1 4.45083
12060.6 4.44578
12063.4 4.44191
12066.1 4.43821
12068.9 4.43473
12071.7 4.43156
12074.4 4.42884
12075.8 4.42771
12077.2 4.42680
12078.6 4.42616
12080.0 4.42590
12081.4 4.42616
12082.7 4.42715
12083.8 4.42868
12084.9 4.43114
12086.0 4.43500
12086.6 4.43772
12087.1 4.44112
12087.7 4.44568
12088.2 4.45198
12088.8 4.46135
12089.0 4.46781
12089.3 4.47613
12089.6 4.48753
12089.9 4.50223
12090.1 4.52199
12090.4 4.54870
12090.7 4.58645
12090.9 4.63592
12091.2 4.70246
12091.5 4.79134
12091.7 4.90400
12092.0 5.04374
12092.3 5.22928
12092.5 5.45434
12092.8 5.74603
12092.9 5.91691
12093.0 6.09091
12093.1 6.29814
12093.3 6.52602
12093.4 6.77564
12093.5 7.02627
12093.7 7.32053
12093.8 7.63922
12093.9 7.98298
12094.0 8.32293
12094.2 8.71594
12094.3 9.13469
12094.5 10.0110
12094.8 11.0166
12095.1 12.0639
12095.3 13.1756
12095.6 14.3321
12095.9 15.8393
12096.2 17.2760
12096.3 17.9886
12096.5 18.6289
12096.7 19.2739
12096.8 19.8357
12097.0 20.3493
12097.1 20.7795
12097.2 21.1824
12097.4 21.4999
12097.5 21.7572
12097.7 21.9397
12097.8 22.0733
12097.9 22.1285
12098.0 22.1477
12098.0 22.1483
12098.1 22.1369
12098.2 22.0917
12098.3 22.0024
12098.4 21.8725
12098.5 21.7198
12098.7 21.2962
12098.9 20.7425
12099.1 20.3404
12099.2 19.9328
12099.4 19.0259
12099.7 17.9760
12099.9 16.8970
12100.6 13.5260
12100.8 12.7082
12101.0 11.9181
12101.2 11.1625
12101.3 10.4855
12101.5 9.81144
12101.7 9.18424
12101.9 8.60566
12102.1 8.07641
12102.2 7.59619
12102.4 7.16390
12102.6 6.77774
12102.8 6.45328
12102.9 6.16556
12103.1 5.91204
12103.3 5.69001
12103.4 5.50736
12103.6 5.33863
12103.8 5.19336
12103.9 5.06896
12104.1 4.96874
12104.3 4.87800
12104.4 4.80138
12104.6 4.73697
12104.8 4.68594
12104.9 4.64041
12105.1 4.60455
12105.3 4.57270
12105.4 4.54769
12105.6 4.52553
12105.8 4.50715
12105.9 4.49188
12106.1 4.47985
12106.4 4.46012
12106.8 4.44643
12107.1 4.43604
12107.4 4.42837
12107.8 4.42230
12108.1 4.41732
12108.8 4.40885
12109.5 4.40247
12110.2 4.39728
12111.0 4.39290
12111.7 4.38913
12112.4 4.38582
12113.4 4.38148
12114.5 4.37774
12115.6 4.37443
12116.7 4.37145
12118.8 4.36622
12120.9 4.36168
12122.4 4.35888
12123.8 4.35625
12126.6 4.35129
12128.8 4.34778
12130.9 4.34440
12133.0 4.34114
12135.2 4.33797
12139.5 4.33180
12143.7 4.32584
12149.4 4.31809
12155.1 4.31053
12160.8 4.30311
12166.5 4.29581
12172.2 4.28861
12177.9 4.28151
12189.3 4.26754
12200.7 4.25382
12212.1 4.24034
12223.5 4.22707
12234.9 4.21398
12252.1 4.19463
12269.2 4.17560
12303.4 4.13800
12337.6 4.10078
12371.8 4.06339
12406.0 4.02523
12440.2 3.98564
12474.4 3.94381
12508.6 3.89875
12535.7 3.85987
12562.8 3.81729
12589.8 3.76983
12616.9 3.71595
12632.6 3.68093
12648.3 3.64246
12664.0 3.59982
12679.6 3.55213
12693.9 3.50338
12708.1 3.44832
12722.4 3.38544
12736.6 3.31289
12744.5 3.26779
12752.3 3.21834
12760.1 3.16387
12768.0 3.10355
12775.8 3.03639
12779.7 2.99990
12783.7 2.96125
12787.6 2.92029
12791.5 2.87687
12795.4 2.83088
12799.3 2.78242
12801.6 2.75370
12803.8 2.72431
12806.0 2.69444
12808.2 2.66459
12809.4 2.64969
12810.5 2.63519
12811.6 2.62104
12812.7 2.60777
12813.8 2.59558
12814.9 2.58536
12816.0 2.57815
12816.6 2.57631
12817.2 2.57630
12817.9 2.58042
12818.2 2.58536
12818.6 2.59305
12818.9 2.60531
12819.3 2.62412
12819.7 2.65272
12820.0 2.69447
12820.2 2.72331
12820.4 2.75854
12820.5 2.80150
12820.7 2.85053
12820.9 2.91310
12821.1 2.98864
12821.3 3.07946
12821.4 3.18163
12821.6 3.30996
12821.8 3.46219
12822.0 3.64183
12822.1 3.85267
12822.3 4.09877
12822.5 4.38434
12822.7 4.71373
12822.9 5.06899
12823.0 5.49601
12823.2 5.97937
12823.4 6.52283
12823.6 7.09422
12823.7 7.76325
12823.9 8.49990
12824.1 9.30494
12824.3 10.1277
12824.4 10.7443
12824.5 11.3347
12824.7 12.5840
12825.0 13.9785
12825.2 15.3826
12826.1 21.3477
12826.3 22.7631
12826.5 24.0383
12826.7 25.2130
12826.9 26.2619
12827.1 27.1619
12827.3 27.8922
12827.5 28.2265
12827.6 28.4972
12827.7 28.7296
12827.8 28.8480
12828.0 28.9143
12828.0 28.9160
12828.1 28.8616
12828.3 28.7530
12828.4 28.5693
12828.6 28.1429
12828.7 27.6267
12828.9 26.9913
12829.1 26.2463
12829.2 25.4029
12829.4 24.4732
12829.6 23.5310
12829.7 22.5354
12829.9 21.4978
12830.2 19.3431
12830.5 17.1556
12830.9 15.0149
12831.1 13.5427
12831.3 12.1486
12831.4 11.4573
12831.5 10.8473
12831.7 10.2089
12831.8 9.64931
12831.9 9.06753
12832.0 8.56086
12832.1 8.03736
12832.2 7.58425
12832.4 7.11890
12832.5 6.71848
12832.6 6.34259
12832.7 5.99062
12832.8 5.63313
12832.9 5.32884
12833.0 5.02141
12833.1 4.76109
12833.3 4.49939
12833.4 4.27889
12833.5 4.07589
12833.6 3.88941
12833.7 3.70363
12833.8 3.54844
12834.1 3.26637
12834.3 3.03473
12834.5 2.85313
12834.7 2.72921
12834.9 2.62958
12835.0 2.53988
12835.2 2.46793
12835.4 2.40318
12835.6 2.35117
12835.7 2.30420
12835.9 2.26624
12836.3 2.20342
12836.6 2.15573
12837.0 2.11825
12837.3 2.08762
12837.7 2.06158
12838.0 2.03864
12838.7 1.99848
12839.4 1.96268
12840.1 1.92927
12840.8 1.89728
12841.5 1.86617
12842.9 1.80527
12844.3 1.74479
12845.7 1.68375
12847.4 1.60749
12849.1 1.52911
12850.8 1.44712
12852.5 1.36201
12853.9 1.29214
12855.2 1.21964
12856.5 1.14442
12857.9 1.06642
12859.2 0.985623
12860.6 0.902081
12861.9 0.815948
12863.2 0.728196
12866.0 0.542067
12867.4 0.449075
12868.7 0.358234
12870.1 0.272466
12870.8 0.232522
12871.5 0.196244
12872.2 0.163510
12872.8 0.136423
12873.5 0.115657
12873.9 0.108462
12874.2 0.103616
12874.5 0.101466
12874.8 0.101934
12875.2 0.105330
12875.5 0.111999
12875.7 0.117332
12875.9 0.125533
12876.1 0.135216
12876.5 0.160595
12876.8 0.180772
12877.0 0.204769
12877.3 0.232964
12877.6 0.265776
12877.8 0.303668
12878.1 0.347160
12878.3 0.396825
12878.6 0.451002
12878.9 0.535954
12879.3 0.632425
12879.6 0.748334
12879.9 0.879183
12880.3 1.03573
12880.6 1.21196
12880.8 1.31326
12880.9 1.42245
12881.1 1.54014
12881.3 1.65926
12881.4 1.79542
12881.6 1.94223
12881.8 2.10056
12881.9 2.26096
12882.1 2.44445
12882.3 2.64251
12882.4 2.85638
12882.6 3.07332
12882.8 3.32185
12882.9 3.59053
12883.1 3.88112
12883.3 4.17635
12883.4 4.51510
12883.6 4.88191
12883.8 5.27925
12883.9 5.68351
12884.0 5.95218
12884.1 6.23392
12884.2 6.52938
12884.3 6.83926
12884.4 7.16428
12884.5 7.50518
12884.6 7.86276
12884.7 8.19952
12884.8 8.59107
12884.9 9.00176
12885.0 9.43251
12885.1 9.88427
12885.2 10.3580
12885.3 10.8548
12885.4 11.3756
12885.5 11.8659
12885.7 12.8503
12885.9 13.9159
12886.0 15.0686
12886.2 16.2385
12886.4 17.5775
12886.5 19.0217
12886.7 20.5772
12886.9 22.1486
12887.0 23.9379
12887.2 25.8563
12887.4 27.9092
12887.5 29.9687
12887.7 32.2964
12887.9 34.7715
12888.0 37.3967
12888.2 40.0063
12888.4 42.9269
12888.5 45.9995
12888.7 49.2218
12888.9 52.3880
12889.0 55.8889
12889.2 59.3062
12889.5 66.6954
12889.9 75.4320
12890.3 84.2403
12891.0 101.977
12891.2 107.676
12891.5 112.923
12891.7 118.103
12891.9 122.717
12892.2 127.101
12892.4 130.830
12892.6 134.048
12892.9 136.714
12893.0 138.139
12893.2 139.378
12893.3 140.320
12893.6 141.211
12893.8 141.323
12894.1 140.679
12894.3 139.360
12894.6 137.305
12894.9 134.727
12895.1 131.486
12895.4 127.903
12895.7 122.087
12896.1 115.878
12896.8 102.418
12897.5 89.1455
12897.8 82.8344
12898.2 77.0219
12898.5 72.1944
12898.8 67.6709
12899.1 63.4609
12899.4 59.6896
12899.7 56.0904
12900.0 52.7864
12900.3 49.7617
12900.6 47.0861
12900.9 44.1564
12901.2 41.5956
12901.6 39.2226
12901.9 37.1454
12902.3 35.2152
12902.6 33.5191
12903.0 31.9356
12903.3 30.5369
12903.7 29.2239
12904.0 28.0247
12904.4 26.9262
12904.7 25.9447
12905.1 25.0129
12905.4 24.1521
12905.8 23.3551
12906.1 22.6355
12906.4 21.9456
12906.8 21.3200
12907.5 20.1694
12908.2 19.1552
12908.9 18.2553
12909.5 17.4519
12910.2 16.7306
12910.9 16.0798
12911.6 15.4900
12912.3 14.9457
12913.0 14.4557
12913.7 14.0065
12914.4 13.5931
12915.1 13.2063
12915.8 12.8537
12917.2 12.2220
12918.2 11.7899
12919.3 11.4002
12920.4 11.0472
12921.4 10.7286
12922.5 10.4346
12923.6 10.1649
12925.7 9.68968
12927.1 9.41700
12928.5 9.17096
12929.9 8.94481
12931.2 8.73916
12934.0 8.37456
12936.8 8.06404
12937.8 7.96147
12940.5 7.70613
12941.9 7.59081
12943.3 7.48391
12944.7 7.38341
12946.1 7.29045
12947.5 7.20425
12948.2 7.16380
12948.8 7.12534
12949.7 7.08281
12950.1 7.06334
12950.5 7.04564
12950.9 7.03055
12951.3 7.01947
12951.5 7.01605
12951.7 7.01472
12951.9 7.01572
12952.1 7.01965
12952.3 7.02769
12952.5 7.03998
12952.7 7.05890
12952.9 7.08392
12953.1 7.11917
12953.3 7.16305
12953.5 7.21893
12953.7 7.28900
12954.0 7.38048
12954.2 7.48741
12954.4 7.62366
12954.6 7.77936
12954.8 7.97350
12955.0 8.19080
12955.2 8.44273
12955.4 8.73204
12955.6 9.02636
12955.7 9.33516
12955.9 9.69573
12956.1 10.0684
12956.3 10.4971
12956.4 10.9333
12956.6 11.3988
12956.8 11.8917
12956.9 12.4407
12957.1 12.9812
12957.5 14.1099
12957.8 15.3020
12958.1 16.4396
12958.4 17.2920
12958.7 18.0687
12958.8 18.4324
12959.0 18.7420
12959.1 19.0218
12959.2 19.2693
12959.4 19.5816
12959.6 19.8053
12959.8 19.9217
12959.9 19.9600
12960.0 19.9692
12960.0 19.9687
12960.0 19.9646
12960.1 19.9565
12960.2 19.9240
12960.3 19.8424
12960.4 19.7205
12960.6 19.5732
12960.7 19.3605
12960.8 19.1060
12961.0 18.8124
12961.1 18.5072
12961.3 17.9827
12961.5 17.4009
12961.7 16.7729
12961.9 16.1439
12962.3 14.7613
12962.7 13.4048
12962.9 12.5639
12963.2 11.7633
12963.4 11.0145
12963.7 10.3521
12963.9 9.72591
12964.2 9.16724
12964.4 8.67595
12964.7 8.26569
12964.9 7.89861
12965.2 7.58818
12965.4 7.32876
12965.7 7.12215
12965.9 6.94530
12966.2 6.80188
12966.4 6.68646
12966.6 6.59745
12966.8 6.53952
12967.0 6.49084
12967.2 6.44993
12967.4 6.41548
12967.6 6.38639
12967.8 6.36170
12968.0 6.34061
12968.2 6.32244
12968.4 6.30663
12968.5 6.29273
12968.9 6.26919
12969.3 6.24959
12969.7 6.23253
12970.1 6.21711
12970.4 6.20277
12971.2 6.17618
12972.0 6.15136
12972.7 6.12806
12974.2 6.08349
12975.8 6.04166
12977.3 6.00204
12978.8 5.96454
12981.4 5.90442
12983.9 5.84837
12986.5 5.79587
12989.1 5.74672
12994.2 5.65638
12999.3 5.57577
13004.0 5.50949
13008.7 5.44910
13016.6 5.35826
13020.6 5.31775
13024.5 5.28018
13028.5 5.24547
13032.5 5.21358
13036.5 5.18455
13040.4 5.15862
13043.2 5.14245
13046.0 5.12839
13048.8 5.11689
13051.6 5.10870
13053.4 5.10578
13055.1 5.10509
13056.9 5.10724
13058.6 5.11317
13060.4 5.12435
13062.1 5.14311
13063.9 5.17326
13064.8 5.19464
13065.6 5.22145
13066.4 5.25350
13067.3 5.29437
13068.1 5.34743
13068.9 5.41729
13069.7 5.51591
13070.1 5.58167
13070.5 5.66174
13070.9 5.76688
13071.3 5.90563
13071.6 5.99447
13071.8 6.09345
13072.0 6.20934
13072.2 6.34554
13072.3 6.48881
13072.5 6.64531
13072.7 6.83716
13072.9 7.04698
13073.0 7.30422
13073.2 7.58524
13073.4 7.92902
13073.6 8.30334
13073.7 8.75931
13073.9 9.25324
13074.0 9.54209
13074.1 9.85129
13074.3 10.4948
13074.3 10.8690
13074.4 11.2681
13074.6 12.0934
13074.7 12.5704
13074.8 13.0765
13075.0 14.1161
13075.1 14.8496
13075.2 15.6331
13075.3 16.4681
13075.4 17.3561
13075.5 18.2983
13075.6 19.2958
13075.7 20.3493
13075.8 21.4592
13075.9 22.6257
13076.1 23.8485
13076.2 25.1271
13076.3 26.4605
13076.5 29.2854
13076.7 32.3061
13077.0 36.0945
13077.2 40.0668
13077.8 48.2704
13078.1 53.3898
13078.4 58.0543
13078.6 60.7300
13078.8 63.1639
13079.0 65.0092
13079.1 66.5339
13079.3 67.8337
13079.4 68.8334
13079.6 69.6532
13079.8 70.2083
13079.9 70.4463
13080.0 70.5296
13080.2 70.4151
13080.3 70.0904
13080.4 69.6034
13080.6 68.9421
13080.7 68.1122
13080.8 67.1208
13081.0 65.6912
13081.1 64.0476
13081.4 61.2258
13081.6 58.1828
13081.9 54.1365
13082.2 49.9967
13082.7 41.9540
13082.9 37.9268
13083.2 34.1986
13083.4 31.4947
13083.6 28.9240
13083.7 26.5012
13083.9 24.3521
13084.1 22.2439
13084.3 20.4015
13084.4 19.4431
13084.5 18.6199
13084.7 17.0841
13084.8 16.3704
13084.8 15.6918
13085.0 14.5030
13085.1 13.9212
13085.2 13.3711
13085.4 12.4146
13085.5 11.9499
13085.5 11.5127
13085.7 10.7577
13085.9 10.0888
13086.1 9.49832
13086.2 8.95032
13086.4 8.49817
13086.6 8.08101
13086.8 7.73856
13086.9 7.42390
13087.1 7.16639
13087.3 6.94248
13087.4 6.74782
13087.6 6.56926
13087.8 6.42305
13088.0 6.28856
13088.1 6.17799
13088.5 5.99115
13088.8 5.85020
13089.2 5.73547
13089.5 5.64322
13090.2 5.50579
13090.9 5.40461
13091.6 5.32804
13092.3 5.26599
13093.0 5.21579
13093.8 5.16818
13094.6 5.12852
13096.2 5.06616
13097.7 5.01924
13099.3 4.98267
13100.9 4.95286
13102.5 4.92822
13104.0 4.90717
13105.6 4.88908
13107.4 4.87129
13109.1 4.85573
13112.7 4.82924
13116.2 4.80698
13119.7 4.78767
13123.2 4.77048
13126.8 4.75494
13130.3 4.74066
13133.8 4.72738
13137.5 4.71428
13141.2 4.70200
13148.6 4.67920
13156.0 4.65834
13163.5 4.63909
13170.9 4.62115
13178.3 4.60436
13185.7 4.58853
13193.1 4.57359
13201.3 4.55804
13209.4 4.54333
13225.7 4.51616
13242.1 4.49151
13258.4 4.46903
13273.2 4.45024
13288.0 4.43276
13317.7 4.40114
13347.4 4.37336
13377.0 4.34862
13409.7 4.32436
13442.3 4.30261
13474.9 4.28296
13507.6 4.26509
13561.0 4.23908
13614.3 4.21624
13667.7 4.19594
13721.1 4.17774
13780.5 4.15961
13839.8 4.14321
13905.0 4.12693
13970.3 4.11216
14035.6 4.09868
14100.8 4.08632
14148.3 4.07797
14180.9 4.07254
14213.5 4.06732
14246.2 4.06234
14278.8 4.05763
14311.4 4.05317
14344.1 4.04907
14360.4 4.04716
14376.7 4.04542
14393.0 4.04383
14409.3 4.04242
14421.9 4.04154
14434.5 4.04090
14447.2 4.04055
14459.8 4.04061
14472.4 4.04126
14485.0 4.04265
14491.3 4.04382
14497.6 4.04538
14503.9 4.04744
14510.2 4.05015
14515.4 4.05302
14520.6 4.05663
14525.8 4.06118
14530.9 4.06690
14536.1 4.07439
14541.3 4.08422
14546.5 4.09734
14551.7 4.11530
14556.5 4.13846
14558.9 4.15331
14561.4 4.17122
14563.8 4.19306
14566.2 4.21998
14568.6 4.25366
14571.0 4.29651
14573.6 4.35717
14576.2 4.43951
14577.5 4.49266
14578.8 4.55661
14580.1 4.63449
14581.4 4.72987
14582.9 4.87070
14583.6 4.95695
14584.3 5.05725
14585.1 5.17499
14585.8 5.31468
14586.6 5.48252
14587.3 5.68727
14587.8 5.85640
14588.3 6.05514
14588.8 6.29185
14589.1 6.43080
14589.3 6.57848
14589.6 6.74910
14589.9 6.93233
14590.1 7.14636
14590.4 7.37883
14590.6 7.65359
14590.9 7.95551
14591.1 8.31641
14591.4 8.71725
14591.5 8.94985
14591.6 9.20104
14591.8 9.47256
14591.9 9.74287
14592.0 10.0589
14592.2 10.4013
14592.3 10.7722
14592.4 11.1422
14592.5 11.5755
14592.7 12.0452
14592.8 12.5545
14592.9 13.0624
14593.0 13.6567
14593.2 14.3002
14593.3 14.9967
14593.4 15.6897
14593.5 16.4341
14593.7 17.2328
14593.8 18.0891
14593.9 18.9272
14594.0 19.9026
14594.1 20.8552
14594.2 21.9611
14594.4 23.0385
14594.5 24.2859
14594.6 25.6113
14594.7 27.0171
14594.8 28.3783
14594.9 29.9445
14595.1 31.4559
14595.2 33.1887
14595.3 34.8549
14595.4 36.9206
14595.5 39.0910
14595.7 41.3652
14595.8 43.5555
14595.9 46.0246
14596.1 48.5909
14596.3 53.7824
14596.6 59.5014
14596.8 65.2511
14597.3 77.1925
14597.7 86.7671
14598.1 95.6685
14598.4 101.146
14598.6 105.926
14598.9 110.272
14599.1 113.744
14599.3 115.665
14599.5 117.202
14599.6 118.338
14599.8 119.028
14600.0 119.365
14600.2 119.184
14600.3 118.626
14600.5 117.698
14600.6 116.500
14600.8 115.106
14600.9 113.583
14601.2 109.919
14601.4 105.698
14601.7 101.097
14602.0 94.5184
14602.3 87.4296
14603.3 64.0796
14603.5 58.3867
14603.7 53.1631
14604.0 48.0243
14604.2 43.4163
14604.4 40.1835
14604.6 37.1483
14604.8 34.3130
14605.0 31.6772
14605.1 29.2379
14605.3 26.9903
14605.5 24.9278
14605.7 23.1424
14605.8 21.8789
14605.9 20.7874
14606.0 19.7647
14606.2 18.8076
14606.3 17.8412
14606.4 17.0108
14606.5 16.2363
14606.6 15.5148
14606.8 14.7891
14606.9 14.1680
14607.0 13.5904
14607.1 13.0538
14607.3 12.5154
14607.4 12.0553
14607.5 11.6281
14607.6 11.2316
14607.8 10.6326
14608.0 10.1030
14608.2 9.63415
14608.4 9.21850
14608.6 8.84926
14608.8 8.52044
14609.0 8.22681
14609.2 7.96380
14609.4 7.72743
14609.6 7.51428
14609.8 7.32137
14610.0 7.14616
14610.4 6.84035
14610.8 6.58274
14611.1 6.43075
14611.4 6.29346
14611.9 6.05924
14612.4 5.85903
14613.0 5.69190
14613.5 5.54541
14614.0 5.42056
14614.6 5.31114
14615.1 5.21457
14616.1 5.06333
14617.1 4.93984
14618.0 4.83752
14619.0 4.75168
14620.0 4.67890
14621.0 4.61661
14622.9 4.51661
14624.6 4.44880
14626.3 4.39435
14628.0 4.34962
14629.7 4.31238
14633.1 4.25440
14636.5 4.21184
14639.8 4.17961
14643.2 4.15468
14646.6 4.13481
14650.0 4.11872
14653.4 4.10551
14656.7 4.09451
14663.5 4.07732
14670.6 4.06411
14677.7 4.05405
14684.9 4.04617
14692.0 4.03985
14697.7 4.03563
14703.4 4.03198
14714.8 4.02598
14726.1 4.02119
14736.8 4.01746
14747.5 4.01427
14758.2 4.01148
14768.9 4.00900
14779.5 4.00676
14790.2 4.00472
14811.6 4.00109
14832.9 3.99784
14854.3 3.99489
14875.7 3.99217
14897.0 3.98962
14931.2 3.98581
14965.3 3.98222
15010.9 3.97773
15056.5 3.97347
15079.3 3.97141
15099.9 3.96957
15120.5 3.96777
15141.2 3.96599
15161.8 3.96423
15172.2 3.96335
15182.5 3.96249
15192.8 3.96163
15203.1 3.96077
15213.5 3.95992
15223.8 3.95908
15234.1 3.95826
15244.4 3.95745
15250.8 3.95696
15257.2 3.95650
15263.6 3.95607
15270.0 3.95569
15276.5 3.95538
15279.7 3.95528
15282.9 3.95522
15286.1 3.95521
15289.3 3.95529
15292.5 3.95550
15295.7 3.95587
15298.2 3.95634
15300.7 3.95701
15303.1 3.95800
15305.6 3.95943
15308.1 3.96160
15309.4 3.96309
15310.6 3.96494
15311.9 3.96732
15313.1 3.97034
15314.4 3.97435
15315.6 3.97970
15316.7 3.98598
15317.7 3.99471
15318.3 4.00062
15318.8 4.00799
15319.3 4.01782
15319.9 4.03169
15320.1 4.04117
15320.4 4.05301
15320.7 4.06796
15320.9 4.08625
15321.2 4.11059
15321.5 4.14205
15321.8 4.18280
15322.0 4.23337
15322.3 4.30091
15322.6 4.38779
15322.8 4.49890
15323.1 4.63413
15323.4 4.81023
15323.6 5.02095
15323.9 5.29029
15324.1 5.60617
15324.4 5.90723
15324.6 6.23614
15324.8 6.60969
15325.0 7.03099
15325.2 7.50278
15325.4 8.02727
15325.6 8.60597
15325.8 9.23957
15326.0 9.92776
15326.2 10.6691
15326.4 11.4610
15326.6 12.2995
15326.8 13.1791
15327.0 14.0931
15327.4 15.9904
15327.7 17.6249
15328.0 19.1718
15328.4 20.6202
15328.5 21.3083
15328.7 21.9103
15328.8 22.4287
15329.0 22.8680
15329.1 23.2866
15329.3 23.6250
15329.4 23.9283
15329.6 24.1533
15329.7 24.3483
15329.8 24.4287
15330.0 24.4743
15330.0 24.4764
15330.1 24.4704
15330.1 24.4492
15330.3 24.3851
15330.4 24.2616
15330.5 24.0717
15330.7 23.8245
15330.9 23.2479
15331.2 22.5442
15331.4 21.6743
15331.7 20.6874
15331.9 19.6085
15332.1 18.5104
15332.8 15.5526
15333.1 14.0929
15333.4 12.6965
15333.7 11.3919
15333.9 10.7616
15334.0 10.1998
15334.2 9.63298
15334.3 9.13287
15334.5 8.66344
15334.6 8.22475
15334.8 7.66174
15335.0 7.17970
15335.2 6.74842
15335.4 6.36526
15335.6 6.02719
15335.8 5.73088
15336.0 5.47283
15336.2 5.24949
15336.4 5.05732
15336.6 4.89291
15336.8 4.75299
15337.0 4.63451
15337.2 4.53463
15337.4 4.45079
15337.6 4.38065
15337.8 4.32216
15338.0 4.27349
15338.2 4.23306
15338.4 4.19950
15338.6 4.17163
15338.8 4.14846
15339.0 4.12915
15339.4 4.09943
15339.8 4.07820
15340.2 4.06260
15340.6 4.05074
15341.0 4.04139
15341.5 4.03209
15342.0 4.02472
15343.0 4.01328
15344.0 4.00459
15345.0 3.99784
15346.4 3.99002
15347.9 3.98415
15349.9 3.97829
15351.6 3.97438
15353.4 3.97127
15355.1 3.96874
15356.8 3.96665
15358.5 3.96489
15360.3 3.96340
15363.7 3.96099
15367.2 3.95913
15370.6 3.95762
15374.1 3.95637
15377.5 3.95532
15381.9 3.95416
15386.4 3.95318
15390.8 3.95233
15395.3 3.95158
15399.7 3.95089
15404.1 3.95026
15413.0 3.94913
15421.9 3.94812
15430.8 3.94720
15439.6 3.94635
15448.5 3.94554
15460.8 3.94448
15473.1 3.94346
15485.5 3.94248
15497.8 3.94154
15522.4 3.93971
15547.1 3.93796
15571.7 3.93626
15596.4 3.93459
15645.7 3.93136
15708.8 3.92737
15771.9 3.92352
15835.0 3.91978
15921.8 3.91480
15965.1 3.91237
16008.5 3.90998
16051.9 3.90762
16095.3 3.90531
16117.0 3.90417
16138.7 3.90304
16160.3 3.90193
16182.0 3.90083
16194.4 3.90023
16206.7 3.89964
16219.0 3.89907
16231.3 3.89853
16243.7 3.89805
16249.8 3.89785
16256.0 3.89767
16262.2 3.89753
16268.3 3.89745
16274.5 3.89746
16280.6 3.89758
16284.8 3.89776
16289.0 3.89807
16293.2 3.89854
16297.4 3.89925
16301.6 3.90032
16305.8 3.90192
16307.9 3.90303
16310.0 3.90444
16312.1 3.90625
16314.2 3.90858
16316.0 3.91126
16317.9 3.91475
16319.7 3.91937
16321.6 3.92568
16322.5 3.92975
16323.4 3.93460
16324.3 3.94057
16325.3 3.94789
16326.2 3.95722
16327.1 3.96921
16328.0 3.98571
16328.5 3.99647
16329.0 4.00991
16329.4 4.02562
16329.8 4.04619
16330.2 4.07403
16330.6 4.11170
16331.0 4.16634
16331.3 4.20207
16331.5 4.24280
16331.7 4.29403
16331.9 4.35564
16332.1 4.42965
16332.3 4.51379
16332.5 4.61899
16332.7 4.74437
16332.9 4.89323
16333.1 5.06012
16333.3 5.26552
16333.5 5.50593
16333.7 5.78577
16333.9 6.09310
16334.2 6.46307
16334.4 6.88596
16334.6 7.36611
16334.8 7.88030
16335.0 8.48329
16335.2 9.15365
16335.4 9.89326
16335.6 10.6628
16335.7 11.2390
16335.9 11.8458
16336.0 12.4822
16336.2 13.1471
16336.4 14.5563
16336.7 16.0023
16337.0 17.5710
16337.3 19.1250
16337.8 22.2900
16338.1 23.6129
16338.3 24.8135
16338.5 25.9252
16338.7 26.9261
16339.0 27.8643
16339.2 28.5969
16339.4 28.9851
16339.5 29.2717
16339.7 29.4917
16339.8 29.6038
16340.0 29.6577
16340.0 29.6588
16340.1 29.6510
16340.1 29.6256
16340.3 29.5218
16340.5 29.2531
16340.6 28.9828
16340.8 28.6734
16341.0 27.9954
16341.2 27.2025
16341.5 26.1504
16341.7 25.0121
16341.9 23.7732
16342.2 22.4596
16342.8 19.1317
16343.0 17.4672
16343.3 15.9062
16343.6 14.3661
16343.9 12.9749
16344.0 12.2739
16344.2 11.6496
16344.3 11.0551
16344.5 10.4913
16344.6 9.81193
16344.8 9.21738
16345.0 8.63721
16345.2 8.13488
16345.3 7.64978
16345.5 7.23400
16345.7 6.85738
16345.9 6.51774
16346.0 6.19587
16346.2 5.92501
16346.4 5.68385
16346.5 5.46996
16346.7 5.27057
16346.9 5.10541
16347.1 4.96049
16347.2 4.83373
16347.4 4.71712
16347.6 4.62172
16347.8 4.53441
16347.9 4.46330
16348.3 4.34579
16348.6 4.26110
16349.0 4.19639
16349.3 4.14954
16349.7 4.11323
16350.0 4.08632
16350.3 4.06699
16350.6 4.05131
16351.2 4.02781
16351.8 4.01059
16352.5 3.99724
16353.1 3.98646
16353.7 3.97749
16354.9 3.96336
16356.1 3.95264
16357.3 3.94437
16358.6 3.93778
16359.8 3.93243
16361.7 3.92572
16363.7 3.92066
16366.3 3.91555
16368.9 3.91172
16371.5 3.90876
16374.1 3.90641
16376.7 3.90451
16379.4 3.90294
16382.0 3.90164
16387.2 3.89957
16392.4 3.89798
16397.6 3.89672
16402.8 3.89569
16408.0 3.89482
16415.5 3.89378
16423.0 3.89292
16430.5 3.89217
16438.0 3.89150
16445.5 3.89089
16453.0 3.89033
16468.0 3.88933
16483.0 3.88842
16498.0 3.88759
16513.0 3.88681
16528.0 3.88607
16548.9 3.88510
16569.8 3.88419
16599.8 3.88300
16629.7 3.88191
16659.7 3.88099
16689.7 3.88027
16719.7 3.87984
16749.7 3.87986
16779.7 3.88051
16794.7 3.88124
16809.7 3.88227
16821.5 3.88344
16833.2 3.88500
16844.9 3.88705
16856.7 3.88977
16868.4 3.89338
16880.1 3.89823
16891.9 3.90478
16903.6 3.91403
16914.0 3.92561
16924.5 3.94207
16929.7 3.95292
16934.9 3.96621
16940.1 3.98286
16945.3 4.00387
16951.2 4.03487
16957.1 4.07721
16960.0 4.10443
16962.9 4.13688
16965.9 4.17620
16968.8 4.22460
16972.2 4.29677
16975.7 4.39248
16977.4 4.45265
16979.1 4.52305
16980.8 4.60661
16982.5 4.70690
16984.3 4.83512
16986.1 4.99483
16987.0 5.09038
16987.9 5.19727
16988.8 5.32018
16989.7 5.45923
16990.4 5.58310
16991.1 5.71993
16991.8 5.87625
16992.5 6.05066
16993.2 6.25213
16993.8 6.47972
16994.5 6.74216
16995.2 7.04719
16995.7 7.27376
16996.1 7.52621
16996.6 7.80878
16997.0 8.11917
16997.5 8.47772
16997.9 8.88561
16998.4 9.35255
16998.8 9.87781
16999.2 10.4114
16999.6 11.0214
16999.8 11.3684
17000.0 11.7221
17000.2 12.1013
17000.4 12.5083
17000.6 12.9694
17000.7 13.4413
17000.9 13.9767
17001.1 14.5253
17001.3 15.1485
17001.5 15.7875
17001.7 16.4761
17001.9 17.2179
17002.1 18.1928
17002.4 19.2105
17002.6 20.3706
17002.8 21.5790
17003.0 22.9527
17003.3 24.3786
17003.5 25.9928
17003.7 27.6604
17003.9 29.5379
17004.2 31.4656
17004.4 33.6210
17004.6 35.8173
17004.8 38.2530
17005.1 40.7130
17005.3 43.2947
17005.5 45.9904
17005.9 51.8128
17006.4 57.8037
17007.3 70.1293
17007.7 76.1471
17008.0 78.9490
17008.2 81.4569
17008.4 83.8659
17008.6 86.0255
17008.9 87.9059
17009.1 89.4185
17009.3 90.6790
17009.6 91.5932
17009.8 92.1476
17010.0 92.3335
17010.2 92.1803
17010.4 91.7195
17010.6 90.9574
17010.9 89.9037
17011.1 88.5715
17011.3 86.9770
17011.5 85.1393
17011.7 83.0802
17012.0 79.2207
17012.4 74.9293
17012.7 70.3289
17013.1 65.6794
17013.8 56.1286
17014.1 51.5487
17014.5 47.1502
17014.8 42.9870
17015.1 39.0978
17015.3 37.2642
17015.5 35.5072
17015.6 33.8280
17015.8 32.2270
17016.0 30.7040
17016.2 29.2582
17016.3 27.8884
17016.5 26.5930
17016.7 25.3700
17016.8 24.2170
17017.0 23.1315
17017.2 22.1109
17017.3 21.1522
17017.5 20.2527
17017.7 19.4092
17017.9 18.6188
17018.0 17.8785
17018.2 17.1855
17018.4 16.5368
17018.5 15.9296
17018.7 15.3614
17018.9 14.8296
17019.0 14.3316
17019.2 13.8652
17019.4 13.4282
17019.6 13.0186
17019.9 12.2736
17020.2 11.6161
17020.6 11.0341
17020.9 10.5170
17021.3 10.0558
17021.7 9.56328
17022.1 9.13980
17022.5 8.76401
17022.9 8.42889
17023.3 8.12152
17023.7 7.85199
17024.1 7.60840
17024.5 7.38742
17025.2 7.05139
17025.8 6.76678
17026.5 6.51990
17027.2 6.30417
17027.9 6.11446
17028.6 5.94665
17029.2 5.79744
17029.9 5.66412
17030.9 5.49398
17031.9 5.34745
17032.9 5.22028
17033.9 5.10914
17034.9 5.01141
17035.9 4.92497
17037.8 4.77948
17039.3 4.68920
17040.8 4.61188
17043.8 4.48750
17046.8 4.39234
17049.7 4.31783
17052.5 4.26258
17055.2 4.21709
17060.6 4.14689
17066.1 4.09596
17071.5 4.05786
17076.5 4.03093
17081.4 4.00927
17086.4 3.99149
17091.3 3.97680
17101.3 3.95402
17111.2 3.93738
17117.6 3.92882
17124.0 3.92165
17136.9 3.91016
17149.8 3.90145
17162.7 3.89466
17177.5 3.88850
17192.4 3.88361
17207.2 3.87969
17222.1 3.87637
17237.0 3.87358
17251.8 3.87120
17281.5 3.86740
17299.4 3.86561
17317.2 3.86414
17335.0 3.86301
17352.9 3.86223
17370.7 3.86191
17379.6 3.86196
17388.5 3.86222
17397.4 3.86268
17406.3 3.86350
17415.3 3.86475
17424.2 3.86659
17430.9 3.86852
17437.6 3.87110
17444.2 3.87455
17450.9 3.87910
17457.6 3.88554
17464.3 3.89473
17467.7 3.90084
17471.0 3.90830
17474.3 3.91751
17477.7 3.92906
17480.0 3.93917
17482.4 3.95132
17484.7 3.96612
17487.1 3.98438
17489.4 4.00733
17491.8 4.03642
17494.1 4.07424
17496.5 4.12482
17498.9 4.19509
17500.0 4.24081
17501.2 4.29580
17502.4 4.36405
17503.6 4.44880
17504.7 4.55821
17505.3 4.62504
17505.9 4.70097
17506.6 4.80119
17507.2 4.92211
17507.9 5.07092
17508.2 5.16050
17508.5 5.25879
17508.8 5.37444
17509.2 5.50352
17509.5 5.65819
17509.8 5.83407
17510.1 6.04879
17510.5 6.29738
17510.6 6.44894
17510.8 6.60589
17510.9 6.77836
17511.1 6.96811
17511.3 7.19085
17511.4 7.43788
17511.6 7.71204
17511.8 8.01641
17512.0 8.35436
17512.1 8.72953
17512.3 9.14582
17512.5 9.60741
17512.6 10.1187
17512.8 10.6844
17513.0 11.3094
17513.1 11.9986
17513.3 12.7573
17513.5 13.5906
17513.7 14.5037
17513.8 15.5017
17513.9 16.1951
17514.0 16.9274
17514.2 17.6999
17514.3 18.5137
17514.4 19.3698
17514.5 20.2693
17514.7 22.1097
17514.9 24.2154
17515.1 26.3973
17515.3 28.8632
17515.6 31.3859
17515.7 33.5446
17515.9 35.6669
17516.1 38.0119
17516.2 40.2968
17516.5 45.2116
17516.9 50.1669
17517.5 60.6838
17517.9 65.8066
17518.2 70.5692
17518.5 74.5742
17518.7 76.3605
17518.8 77.8859
17519.0 79.3405
17519.2 80.5312
17519.3 81.5450
17519.5 82.3738
17519.6 82.9746
17519.7 83.4043
17520.0 83.7396
17520.2 83.4872
17520.5 82.7641
17520.6 81.9902
17520.8 81.0698
17520.9 79.8888
17521.1 78.6040
17521.3 77.0556
17521.4 75.3369
17521.7 71.5779
17522.0 67.2098
17522.4 62.6336
17523.0 51.8666
17523.4 46.8777
17523.7 42.1915
17524.0 37.5901
17524.2 35.4007
17524.3 33.4234
17524.5 30.6644
17524.7 28.1950
17525.0 25.7858
17525.2 23.6580
17525.4 21.6081
17525.6 19.8192
17525.7 18.9459
17525.8 18.1153
17525.9 17.3264
17526.0 16.6444
17526.2 15.6206
17526.3 14.6764
17526.5 13.8077
17526.7 13.0581
17526.8 12.3234
17527.0 11.6517
17527.1 11.0385
17527.3 10.5130
17527.4 10.0013
17527.6 9.53616
17527.8 9.11368
17527.9 8.75315
17528.1 8.40326
17528.2 8.10494
17528.4 7.81555
17528.5 7.56882
17528.7 7.34367
17528.8 7.15125
17529.0 6.96233
17529.1 6.80065
17529.4 6.50529
17529.7 6.26326
17530.0 6.04932
17530.3 5.87196
17530.5 5.71312
17530.8 5.57958
17531.1 5.45825
17531.4 5.35130
17532.0 5.17422
17532.5 5.03060
17533.1 4.91164
17533.7 4.81466
17534.2 4.73281
17535.3 4.59811
17536.4 4.49332
17537.5 4.41050
17538.6 4.34256
17539.6 4.28653
17541.8 4.20055
17544.0 4.13779
17546.2 4.09086
17548.3 4.05439
17550.5 4.02569
17552.7 4.00248
17554.9 3.98361
17557.0 3.96800
17559.2 3.95494
17562.6 3.93821
17566.1 3.92503
17569.5 3.91437
17572.9 3.90570
17576.4 3.89850
17579.8 3.89249
17586.7 3.88303
17594.0 3.87559
17601.3 3.86993
17608.6 3.86547
17616.9 3.86148
17625.1 3.85828
17633.4 3.85564
17641.6 3.85348
17649.9 3.85158
17658.1 3.84993
17666.3 3.84845
17674.6 3.84716
17691.1 3.84490
17707.5 3.84297
17724.0 3.84129
17740.5 3.83979
17755.1 3.83856
17769.8 3.83741
17786.3 3.83620
17802.8 3.83507
17819.2 3.83400
17835.7 3.83301
17852.2 3.83212
17868.7 3.83138
17876.9 3.83108
17885.2 3.83088
17893.4 3.83079
17901.6 3.83089
17908.5 3.83116
17915.4 3.83169
17922.3 3.83261
17929.1 3.83411
17932.6 3.83515
17936.0 3.83651
17939.4 3.83827
17942.9 3.84055
17946.3 3.84355
17949.7 3.84752
17953.2 3.85289
17956.6 3.86029
17958.9 3.86682
17961.2 3.87516
17963.5 3.88612
17965.7 3.90085
17968.0 3.92113
17969.2 3.93428
17970.3 3.94999
17971.5 3.96934
17972.6 3.99312
17973.8 4.02312
17974.9 4.06178
17975.8 4.09898
17976.6 4.14606
17977.5 4.20762
17978.3 4.29219
17978.8 4.34788
17979.2 4.41680
17979.6 4.50400
17980.1 4.61670
17980.3 4.68739
17980.5 4.76514
17980.7 4.85935
17980.9 4.96361
17981.1 5.09057
17981.3 5.23157
17981.6 5.39520
17981.8 5.58507
17982.0 5.79403
17982.2 6.03440
17982.4 6.31046
17982.6 6.62688
17982.8 6.98867
17983.0 7.40116
17983.2 7.86998
17983.4 8.40094
17983.6 8.99999
17983.8 9.67309
17984.0 10.4261
17984.2 11.2646
17984.4 12.1939
17984.6 13.2184
17984.8 14.3421
17985.0 15.5677
17985.1 16.3528
17985.2 17.1053
17985.4 18.7799
17985.7 20.5890
17985.9 22.5266
17986.1 24.5834
17986.3 26.7463
17986.6 28.9985
17986.8 31.2174
17987.3 36.8940
17987.6 39.6550
17987.9 42.3276
17988.2 45.3029
17988.5 47.9023
17988.7 49.5325
17988.9 50.8941
17989.1 51.7908
17989.3 52.5566
17989.4 53.1493
17989.6 53.6160
17989.8 54.0357
17990.0 54.2150
17990.0 54.2262
17990.1 54.1982
17990.2 54.1099
17990.4 53.7552
17990.6 53.3037
17990.7 52.7490
17990.9 52.0718
17991.0 51.2777
17991.2 50.0483
17991.4 48.7143
17991.7 46.2351
17992.0 43.5440
17992.3 41.3348
17992.5 39.1388
17992.9 34.6247
17993.3 30.6351
17993.7 26.7962
17993.9 24.9213
17994.1 23.2130
17994.3 21.5000
17994.5 19.9599
17994.6 18.6573
17994.8 17.4282
17995.0 16.2734
17995.1 15.2546
17995.3 14.2440
17995.5 13.3592
17995.6 12.4880
17995.8 11.7309
17996.0 10.9906
17996.1 10.3133
17996.3 9.69581
17996.5 9.16613
17996.6 8.65464
17996.8 8.21832
17997.0 7.79920
17997.1 7.44343
17997.3 7.06560
17997.5 6.74835
17997.7 6.46683
17997.9 6.21744
17998.0 5.99683
17998.2 5.80189
17998.4 5.62977
17998.6 5.47784
17998.8 5.34372
17998.9 5.22528
17999.1 5.12059
17999.3 5.02794
17999.7 4.87281
18000.0 4.74976
18000.4 4.65100
18000.7 4.57061
18001.1 4.50420
18001.5 4.44848
18002.2 4.36009
18002.9 4.29270
18003.7 4.23529
18004.5 4.18913
18005.2 4.15115
18006.0 4.11974
18007.6 4.06959
18009.1 4.03234
18010.7 4.00343
18012.2 3.98072
18013.8 3.96237
18015.3 3.94728
18016.9 3.93465
18018.4 3.92409
18021.6 3.90737
18024.7 3.89486
18027.8 3.88515
18030.9 3.87741
18034.0 3.87115
18037.1 3.86600
18040.2 3.86172
18043.7 3.85763
18047.3 3.85423
18054.4 3.84882
18061.1 3.84492
18067.7 3.84184
18074.4 3.83932
18081.0 3.83723
18087.7 3.83545
18094.4 3.83391
18101.0 3.83256
18107.7 3.83139
18121.0 3.82932
18134.3 3.82758
18147.6 3.82608
18161.0 3.82475
18182.3 3.82286
18203.6 3.82120
18224.9 3.81966
18246.2 3.81822
18267.5 3.81687
18288.8 3.81557
18331.4 3.81308
18374.1 3.81070
18416.7 3.80839
18459.3 3.80611
18501.9 3.80384
18569.4 3.80027
18603.2 3.79849
18636.9 3.79669
18670.6 3.79490
18704.4 3.79311
18721.2 3.79222
18738.1 3.79134
18755.0 3.79048
18771.9 3.78966
18781.6 3.78922
18791.4 3.78881
18801.2 3.78846
18810.9 3.78819
18820.7 3.78806
18825.6 3.78808
18830.5 3.78816
18835.4 3.78835
18840.2 3.78867
18845.1 3.78917
18850.0 3.78996
18853.6 3.79078
18857.1 3.79191
18860.7 3.79345
18864.2 3.79560
18867.8 3.79863
18869.5 3.80064
18871.3 3.80308
18873.1 3.80613
18874.9 3.80992
18876.6 3.81478
18878.4 3.82104
18880.1 3.82879
18881.7 3.83905
18883.4 3.85324
18884.2 3.86239
18885.1 3.87350
18885.9 3.88744
18886.7 3.90503
18887.6 3.92844
18888.4 3.96183
18888.8 3.98502
18889.2 4.01481
18889.7 4.05402
18890.1 4.10531
18890.5 4.17688
18890.9 4.27298
18891.1 4.33544
18891.3 4.40900
18891.5 4.49557
18891.7 4.59210
18892.0 4.74798
18892.3 4.93082
18892.5 5.16102
18892.8 5.42816
18893.1 5.76037
18893.3 6.14068
18893.4 6.35548
18893.6 6.58801
18893.7 6.83921
18893.8 7.11004
18894.0 7.42470
18894.1 7.73917
18894.2 8.07597
18894.4 8.43585
18894.5 8.81953
18894.6 9.22761
18894.8 9.66060
18894.9 10.1189
18895.0 10.6411
18895.2 11.1527
18895.3 11.6899
18895.4 12.2526
18895.7 13.4528
18895.9 14.7476
18896.2 15.9651
18896.4 17.1849
18896.8 19.7481
18897.3 22.4545
18897.7 25.0626
18897.9 26.3656
18898.2 27.5487
18898.4 28.6522
18898.6 29.6590
18898.9 30.7386
18899.1 31.5924
18899.3 31.9939
18899.4 32.3245
18899.6 32.6635
18899.9 32.8531
18900.0 32.8954
18900.2 32.8367
18900.4 32.6405
18900.6 32.2482
18900.8 31.8214
18901.0 31.3267
18901.2 30.3707
18901.5 29.2275
18901.8 28.0770
18902.0 26.8766
18902.2 25.5437
18902.5 24.2105
18903.0 20.9789
18903.5 17.7937
18903.8 16.2801
18904.1 14.8445
18904.3 13.5009
18904.6 12.2590
18904.8 11.5737
18904.9 10.9663
18905.1 10.3929
18905.2 9.85361
18905.4 9.34799
18905.5 8.87550
18905.7 8.43538
18905.8 8.02667
18906.0 7.64827
18906.1 7.29899
18906.3 6.97749
18906.4 6.68240
18906.6 6.41228
18906.7 6.16566
18906.9 5.94108
18907.0 5.73706
18907.2 5.55214
18907.3 5.38493
18907.5 5.23403
18907.6 5.09813
18907.9 4.86632
18908.2 4.68017
18908.5 4.53146
18908.8 4.41308
18909.1 4.31902
18909.4 4.24426
18909.8 4.16437
18910.3 4.10686
18910.7 4.06364
18911.1 4.03049
18911.5 4.00389
18911.9 3.98305
18912.7 3.95138
18913.6 3.92787
18914.4 3.90984
18915.2 3.89534
18916.0 3.88338
18917.7 3.86479
18919.3 3.85115
18921.0 3.84078
18922.6 3.83271
18924.1 3.82666
18925.6 3.82166
18927.2 3.81748
18928.7 3.81395
18931.0 3.80955
18933.2 3.80600
18935.5 3.80309
18937.8 3.80066
18942.4 3.79682
18946.9 3.79392
18951.5 3.79166
18956.0 3.78985
18960.6 3.78835
18965.1 3.78711
18973.3 3.78529
18981.4 3.78381
18989.5 3.78257
18997.6 3.78150
19005.7 3.78055
19013.8 3.77969
19030.0 3.77815
19046.2 3.77676
19062.4 3.77548
19078.6 3.77428
19094.8 3.77312
19111.1 3.77200
19133.4 3.77052
19155.7 3.76910
19177.9 3.76774
19200.2 3.76650
19222.5 3.76539
19244.8 3.76455
19256.0 3.76427
19267.1 3.76416
19278.3 3.76425
19289.4 3.76457
19298.5 3.76516
19307.6 3.76614
19316.8 3.76766
19325.9 3.76995
19335.0 3.77341
19344.1 3.77865
19348.7 3.78216
19353.2 3.78668
19357.8 3.79245
19362.4 3.79987
19365.9 3.80719
19369.5 3.81632
19373.0 3.82777
19376.5 3.84233
19380.1 3.86150
19383.6 3.88711
19387.2 3.92234
19389.0 3.94495
19390.7 3.97211
19393.5 4.02756
19394.9 4.06305
19396.3 4.10561
19397.7 4.15763
19399.1 4.22114
19400.5 4.30041
19401.9 4.40125
19402.6 4.46947
19403.4 4.54797
19404.2 4.64029
19404.9 4.75008
19405.7 4.88249
19406.4 5.04495
19406.8 5.14075
19407.2 5.24872
19407.6 5.37132
19408.0 5.51167
19408.4 5.72076
19408.7 5.84166
19408.9 5.96981
19409.1 6.11832
19409.4 6.28426
19409.6 6.47039
19409.9 6.67072
19410.1 6.90625
19410.3 7.17311
19410.6 7.47624
19410.8 7.80601
19411.0 8.19728
19411.3 8.64380
19411.5 9.15360
19411.8 9.70974
19411.9 10.1402
19412.1 10.6099
19412.2 11.1220
19412.4 11.6799
19412.6 12.2870
19412.7 12.9469
19412.9 13.6631
19413.0 14.3890
19413.2 15.2249
19413.3 16.1278
19413.5 17.1012
19413.7 18.0808
19413.8 19.2002
19414.0 20.3994
19414.1 21.6809
19414.3 22.9592
19414.5 24.5932
19414.6 26.2383
19414.8 28.0886
19415.0 29.9384
19415.2 32.0039
19415.3 34.0531
19415.5 36.1946
19415.7 38.4236
19416.0 42.8351
19416.3 47.4829
19416.9 57.0462
19417.3 62.8431
19417.7 68.4434
19418.1 73.2596
19418.4 77.5891
19418.6 79.4719
19418.7 81.1893
19418.9 82.7265
19419.1 84.0703
19419.3 85.3288
19419.5 86.3171
19419.7 87.0239
19419.8 87.4268
19420.0 87.5652
19420.0 87.5650
19420.1 87.5204
19420.2 87.4252
19420.4 87.0788
19420.5 86.4858
19420.7 85.7207
19420.9 84.6280
19421.1 83.3005
19421.2 81.7514
19421.4 79.9959
19421.6 77.9378
19421.8 75.8131
19422.2 70.9960
19422.5 65.5761
19422.9 60.0249
19423.4 53.1619
19423.8 46.5847
19424.2 41.1774
19424.4 38.6051
19424.5 36.2616
19424.7 33.8944
19424.9 31.7582
19425.1 29.6197
19425.3 27.7065
19425.5 25.3278
19425.8 23.1450
19425.9 22.1260
19426.0 21.1543
19426.1 20.2290
19426.2 19.3491
19426.4 18.5135
19426.5 17.7209
19426.6 16.9700
19426.7 16.2595
19426.8 15.5879
19427.0 14.9538
19427.1 14.3556
19427.2 13.8376
19427.4 13.0075
19427.6 12.2543
19427.8 11.5719
19427.9 10.9856
19428.1 10.4249
19428.3 9.91880
19428.5 9.46219
19428.7 9.07102
19428.9 8.69763
19429.1 8.36081
19429.3 8.05682
19429.4 7.79600
19429.6 7.54638
19429.8 7.32035
19430.0 7.11537
19430.2 6.93850
19430.5 6.63629
19430.9 6.38697
19431.2 6.17304
19431.6 5.98798
19431.9 5.82661
19432.2 5.68477
19432.6 5.55917
19432.9 5.44718
19433.6 5.25600
19434.3 5.09879
19435.0 4.96724
19435.6 4.85561
19436.8 4.70004
19438.0 4.57708
19439.1 4.47786
19440.3 4.39706
19441.4 4.32914
19442.6 4.27191
19444.9 4.18163
19447.1 4.11724
19449.3 4.06694
19451.4 4.02684
19453.6 3.99427
19455.8 3.96737
19458.0 3.94487
19462.3 3.90967
19467.0 3.88214
19471.6 3.86147
19476.2 3.84552
19480.9 3.83277
19485.5 3.82243
19490.1 3.81391
19494.7 3.80679
19499.4 3.80075
19504.8 3.79473
19510.3 3.78970
19521.2 3.78150
19532.1 3.77514
19543.0 3.77003
19558.2 3.76430
19573.5 3.75964
19588.7 3.75565
19604.0 3.75209
19611.9 3.75036
19619.8 3.74866
19627.7 3.74698
19635.6 3.74530
19643.5 3.74360
19647.4 3.74273
19651.4 3.74185
19655.3 3.74097
19659.3 3.74008
19663.2 3.73919
19667.2 3.73835
19669.6 3.73787
19672.1 3.73747
19674.5 3.73720
19677.0 3.73715
19678.2 3.73726
19679.4 3.73751
19680.6 3.73794
19681.9 3.73863
19683.1 3.73970
19684.3 3.74133
19685.5 3.74388
19686.2 3.74569
19686.8 3.74807
19687.3 3.75080
19687.8 3.75443
19688.3 3.75960
19688.8 3.76725
19689.3 3.77901
19689.6 3.78738
19689.8 3.79750
19690.1 3.81078
19690.3 3.82689
19690.6 3.84801
19690.9 3.87353
19691.1 3.90682
19691.4 3.94856
19691.6 4.00062
19691.9 4.06244
19692.1 4.14137
19692.4 4.23391
19692.7 4.35045
19692.9 4.48511
19693.2 4.65213
19693.4 4.84209
19693.7 5.07386
19693.9 5.33304
19694.2 5.64379
19694.4 5.98512
19694.7 6.38687
19694.9 6.81987
19695.1 7.18013
19695.3 7.56734
19695.5 7.98113
19695.7 8.39693
19695.9 8.85979
19696.1 9.34561
19696.4 10.3490
19696.8 11.4390
19697.2 12.5295
19697.6 13.6436
19697.9 14.6836
19698.2 15.3912
19698.5 16.0379
19698.8 16.6086
19699.0 17.0898
19699.3 17.4326
19699.5 17.6883
19699.7 17.8519
19699.9 17.9007
19700.0 17.9212
19700.1 17.9115
19700.3 17.8689
19700.5 17.7363
19700.7 17.5479
19700.9 17.2977
19701.2 16.8861
19701.4 16.3859
19701.7 15.8086
19701.9 15.1926
19702.3 14.3091
19702.6 13.3717
19703.3 11.4463
19703.6 10.5081
19703.9 9.61356
19704.2 8.77816
19704.6 8.03501
19704.8 7.60698
19705.0 7.22732
19705.1 6.87424
19705.3 6.54769
19705.5 6.23220
19705.7 5.95861
19705.9 5.70960
19706.1 5.48406
19706.3 5.27067
19706.5 5.08938
19706.7 4.92752
19706.9 4.78365
19707.1 4.65006
19707.3 4.53859
19707.6 4.35518
19707.8 4.27697
19708.0 4.21270
19708.2 4.15705
19708.4 4.10899
19708.6 4.06559
19708.8 4.03029
19709.0 3.99999
19709.2 3.97401
19709.4 3.95067
19709.6 3.93175
19710.0 3.90161
19710.3 3.87930
19710.7 3.86259
19711.1 3.85016
19711.5 3.84041
19711.8 3.83259
19712.2 3.82633
19712.9 3.81635
19713.6 3.80872
19714.4 3.80255
19715.1 3.79740
19716.6 3.78919
19717.7 3.78403
19718.9 3.77976
19720.1 3.77615
19721.3 3.77308
19723.6 3.76811
19725.9 3.76423
19728.3 3.76112
19730.6 3.75857
19733.0 3.75643
19735.3 3.75460
19737.7 3.75302
19742.3 3.75038
19747.0 3.74823
19751.7 3.74643
19756.4 3.74488
19761.1 3.74352
19765.6 3.74235
19770.2 3.74128
19779.2 3.73935
19788.3 3.73764
19797.4 3.73610
19806.5 3.73466
19815.5 3.73332
19833.7 3.73080
19851.9 3.72844
19870.0 3.72618
19888.2 3.72399
19906.3 3.72184
19925.0 3.71965
19962.5 3.71530
20000.0 3.71093
20018.0 3.70881
20036.1 3.70667
20054.1 3.70451
20072.1 3.70232
20090.1 3.70011
20099.1 3.69900
20108.2 3.69788
20117.2 3.69676
20126.2 3.69564
20135.2 3.69454
20144.2 3.69347
20150.2 3.69278
20156.2 3.69214
20162.2 3.69156
20168.2 3.69108
20171.2 3.69091
20174.2 3.69080
20177.2 3.69077
20180.2 3.69086
20183.2 3.69111
20186.2 3.69158
20189.2 3.69238
20192.2 3.69367
20194.3 3.69499
20196.3 3.69682
20198.4 3.69943
20200.4 3.70320
20201.4 3.70572
20202.4 3.70883
20203.5 3.71271
20204.5 3.71765
20205.5 3.72411
20206.5 3.73291
20207.0 3.73867
20207.5 3.74579
20208.1 3.75490
20208.6 3.76667
20209.0 3.78012
20209.4 3.79808
20209.8 3.82250
20210.3 3.85616
20210.7 3.90292
20211.1 3.96794
20211.4 4.01039
20211.6 4.05800
20211.8 4.11646
20212.0 4.18167
20212.2 4.26126
20212.4 4.34943
20212.6 4.45621
20212.9 4.57352
20213.1 4.71434
20213.3 4.86759
20213.5 5.04973
20213.7 5.24591
20213.9 5.47656
20214.1 5.72222
20214.4 6.00771
20214.6 6.30818
20214.8 6.65308
20215.0 7.01148
20215.2 7.39838
20215.4 7.81334
20215.7 8.47496
20216.0 9.19017
20216.4 9.95085
20216.7 10.7460
20217.3 12.3826
20217.6 13.1894
20217.9 13.9386
20218.1 14.5030
20218.4 15.0262
20218.6 15.4991
20218.9 15.9131
20219.1 16.2865
20219.4 16.5736
20219.7 16.7790
20219.9 16.8687
20220.0 16.8766
20220.0 16.8768
20220.0 16.8763
20220.1 16.8745
20220.1 16.8670
20220.2 16.8394
20220.5 16.7112
20220.7 16.5639
20220.8 16.3841
20221.2 15.9450
20221.5 15.3874
20221.8 14.6636
20222.2 13.8715
20222.5 12.9928
20222.9 12.1052
20223.3 11.0001
20223.7 9.92504
20224.1 8.91445
20224.3 8.44158
20224.5 8.01427
20224.7 7.59141
20225.0 7.19612
20225.2 6.82900
20225.4 6.50571
20225.6 6.19367
20225.8 5.90911
20226.0 5.65110
20226.2 5.42899
20226.5 5.17273
20226.7 4.95051
20227.0 4.75927
20227.2 4.59586
20227.5 4.45717
20227.8 4.34019
20228.0 4.24206
20228.3 4.16303
20228.5 4.09446
20228.8 4.03766
20229.0 3.99071
20229.3 3.95332
20229.6 3.92111
20229.8 3.89451
20230.1 3.87248
20230.3 3.85482
20230.8 3.82649
20231.4 3.80619
20231.9 3.79113
20232.4 3.77973
20232.9 3.77043
20233.4 3.76292
20234.5 3.75099
20235.2 3.74384
20236.0 3.73795
20237.6 3.72861
20239.2 3.72157
20240.7 3.71609
20242.4 3.71146
20244.1 3.70773
20245.7 3.70465
20247.4 3.70207
20249.1 3.69988
20250.8 3.69799
20254.1 3.69486
20257.4 3.69237
20260.8 3.69033
20264.1 3.68860
20267.4 3.68712
20272.4 3.68525
20277.3 3.68363
20282.2 3.68219
20287.1 3.68089
20292.0 3.67969
20296.9 3.67857
20306.7 3.67650
20316.6 3.67457
20326.4 3.67275
20336.2 3.67098
20346.0 3.66925
20358.6 3.66707
20371.2 3.66492
20383.7 3.66278
20396.3 3.66064
20424.6 3.65577
20452.9 3.65081
20481.2 3.64571
20509.4 3.64046
20566.0 3.62941
20622.6 3.61748
20685.4 3.60296
20716.9 3.59515
20748.3 3.58693
20779.7 3.57822
20811.1 3.56899
20826.9 3.56420
20842.6 3.55922
20858.3 3.55412
20874.0 3.54882
20886.6 3.54446
20899.1 3.53997
20911.7 3.53535
20924.3 3.53060
20931.7 3.52771
20939.2 3.52476
20946.7 3.52176
20954.1 3.51872
20961.6 3.51562
20965.3 3.51406
20969.1 3.51249
20972.8 3.51091
20976.5 3.50935
20980.3 3.50779
20984.0 3.50627
20986.9 3.50510
20989.9 3.50399
20992.8 3.50298
20995.8 3.50211
20998.7 3.50149
21000.2 3.50132
21001.7 3.50130
21003.1 3.50146
21004.6 3.50189
21006.1 3.50269
21007.6 3.50403
21008.8 3.50586
21010.1 3.50867
21010.8 3.51066
21011.4 3.51325
21012.0 3.51678
21012.7 3.52179
21013.3 3.52960
21013.6 3.53517
21013.9 3.54238
21014.3 3.55178
21014.6 3.56414
21014.9 3.58044
21015.2 3.60194
21015.5 3.63027
21015.9 3.66743
21016.2 3.71592
21016.5 3.77875
21016.8 3.85948
21017.1 3.96225
21017.5 4.09176
21017.8 4.24762
21018.0 4.41174
21018.3 4.60589
21018.6 4.83359
21018.9 5.09818
21019.1 5.40278
21019.4 5.75007
21019.7 6.14211
21019.9 6.58016
21020.2 7.06447
21020.5 7.59410
21020.7 8.16677
21021.0 8.77872
21021.3 9.42464
21021.6 10.0976
21022.1 11.4895
21022.5 12.5696
21022.9 13.5975
21023.1 14.0765
21023.4 14.5243
21023.6 14.9347
21023.8 15.2860
21023.9 15.5507
21024.1 15.7818
21024.3 15.9770
21024.4 16.1345
21024.7 16.2946
21024.9 16.3510
21025.0 16.3706
21025.2 16.3580
21025.3 16.3091
21025.6 16.1449
21025.9 15.8703
21026.1 15.5117
21026.5 14.9424
21026.8 14.2831
21027.1 13.5170
21027.5 12.7132
21028.3 10.4832
21028.8 9.38600
21029.0 8.86292
21029.2 8.38424
21029.4 7.90725
21029.7 7.45760
21029.9 7.03695
21030.1 6.66341
21030.3 6.30187
21030.5 5.98512
21030.7 5.68254
21030.9 5.42083
21031.2 5.13190
21031.5 4.88857
21031.7 4.67658
21032.0 4.49327
21032.2 4.33012
21032.5 4.19685
21032.7 4.08402
21033.0 3.98909
21033.2 3.90680
21033.5 3.84123
21033.7 3.78694
21034.0 3.74219
21034.2 3.70409
21034.5 3.67418
21034.7 3.64971
21035.0 3.62969
21035.2 3.61270
21035.5 3.59935
21035.7 3.58835
21036.0 3.57923
21036.5 3.56499
21037.0 3.55496
21037.5 3.54729
21038.0 3.54139
21039.0 3.53251
21040.2 3.52497
21041.3 3.51918
21042.5 3.51444
21043.6 3.51053
21045.2 3.50616
21046.7 3.50254
21048.3 3.49945
21049.8 3.49676
21051.3 3.49438
21052.9 3.49225
21055.9 3.48853
21059.0 3.48529
21062.1 3.48240
21065.2 3.47976
21068.3 3.47731
21071.3 3.47499
21074.4 3.47277
21079.8 3.46906
21085.2 3.46549
21090.6 3.46201
21095.9 3.45859
21101.3 3.45520
21106.7 3.45183
21117.5 3.44509
21128.3 3.43826
21139.0 3.43134
21149.8 3.42427
21160.6 3.41703
21174.4 3.40744
21188.3 3.39750
21216.0 3.37643
21243.7 3.35353
21271.3 3.32851
21305.2 3.29450
21339.0 3.25602
21372.9 3.21209
21406.7 3.16144
21434.4 3.11376
21462.1 3.05920
21489.8 2.99621
21517.5 2.92269
21534.4 2.87120
21551.4 2.81378
21568.3 2.74935
21585.2 2.67661
21602.1 2.59373
21619.1 2.49861
21636.0 2.38829
21644.4 2.32628
21652.9 2.25904
21661.4 2.18569
21669.8 2.10549
21678.3 2.01739
21686.8 1.92047
21695.2 1.81331
21703.7 1.69437
21707.9 1.62993
21712.1 1.56184
21716.4 1.48985
21720.6 1.41368
21724.8 1.33285
21729.1 1.24745
21733.3 1.15704
21737.5 1.06139
21741.8 0.960341
21746.0 0.853882
21750.2 0.742231
21754.5 0.625989
21760.2 0.462448
21763.1 0.380122
21766.0 0.299503
21768.9 0.222124
21770.3 0.185807
21771.8 0.151617
21773.2 0.120146
21774.6 0.0921189
21776.1 0.0684276
21776.8 0.0585429
21777.5 0.0501744
21778.3 0.0427177
21778.8 0.0399037
21779.2 0.0377519
21779.6 0.0363045
21780.0 0.0356065
21780.4 0.0357054
21780.8 0.0366519
21781.4 0.0398823
21782.1 0.0453439
21782.7 0.0534410
21783.3 0.0641616
21783.7 0.0728800
21784.1 0.0829920
21784.9 0.107758
21785.8 0.139245
21786.6 0.177821
21787.4 0.225454
21788.2 0.282125
21789.0 0.350566
21789.8 0.430620
21790.7 0.526036
21791.5 0.637982
21792.3 0.768870
21792.7 0.842278
21793.1 0.921513
21793.5 1.00700
21793.9 1.09920
21794.3 1.19862
21794.8 1.30580
21795.2 1.42133
21795.6 1.54585
21796.0 1.68006
21796.4 1.82105
21796.9 2.02449
21797.4 2.24867
21798.0 2.49581
21798.5 2.76294
21799.0 3.06305
21799.6 3.39433
21799.8 3.57617
21800.1 3.76022
21800.3 3.95353
21800.6 4.15661
21800.9 4.37839
21801.1 4.60303
21801.4 4.84846
21801.7 5.09715
21801.9 5.36896
21802.2 5.64450
21802.5 5.94578
21802.7 6.25130
21803.0 6.58550
21803.3 6.92455
21803.5 7.29557
21803.8 7.67212
21804.1 8.08431
21804.3 8.50280
21804.6 8.96106
21804.8 9.42645
21805.1 9.93622
21805.4 10.4540
21805.6 11.0214
21805.9 11.5977
21806.2 12.2292
21806.4 12.8709
21806.7 13.5471
21807.0 14.2599
21807.2 15.0407
21807.5 15.8337
21807.8 16.7022
21808.0 17.5838
21808.3 18.5488
21808.5 19.5278
21808.8 20.5577
21809.1 21.6408
21809.3 22.8240
21809.6 24.0690
21809.9 25.3781
21810.1 26.7534
21810.4 28.1969
21810.7 29.7103
21811.0 31.2951
21811.2 32.8900
21811.5 34.6185
21811.8 36.4212
21812.3 40.1758
21812.8 44.2906
21813.4 48.5995
21814.0 53.8588
21814.6 59.3861
21815.8 70.9207
21817.0 82.3595
21817.6 87.7124
21818.2 92.6321
21818.7 95.9035
21819.1 98.7547
21819.6 101.221
21820.0 103.268
21820.3 104.547
21820.7 105.527
21821.0 106.262
21821.3 106.708
21821.7 106.894
21822.0 106.814
21822.3 106.485
21822.7 105.916
21823.0 105.093
21823.3 104.079
21824.0 101.478
21824.7 98.1807
21825.3 94.4360
21826.0 90.2831
21826.7 85.9853
21828.5 73.6771
21829.5 67.9033
21830.4 62.5393
21830.9 59.8461
21831.4 57.3410
21831.9 54.9217
21832.4 52.6829
21832.9 50.5296
21833.4 48.5430
21833.9 46.6734
21834.3 44.9147
21835.3 41.9218
21836.2 39.2781
21837.1 36.8877
21838.0 34.7690
21838.9 32.8444
21839.8 31.1296
21840.7 29.5794
21841.6 28.1737
21842.5 26.8818
21843.4 25.7169
21844.3 24.6515
21845.2 23.6742
21846.1 22.7659
21847.0 21.9379
21847.9 21.1727
21848.8 20.4638
21849.9 19.6865
21850.9 18.9729
21852.0 18.3157
21853.1 17.7090
21854.1 17.1475
21855.2 16.6265
21856.3 16.1419
21857.3 15.6942
21859.2 14.9959
21861.0 14.3704
21862.8 13.8073
21864.6 13.3008
21866.4 12.8382
21868.2 12.4188
21870.0 12.0329
21871.8 11.6805
21873.6 11.3541
21875.4 11.0527
21879.0 10.5145
21882.7 10.0483
21886.3 9.64213
21889.4 9.33062
21892.5 9.05004
21895.6 8.79576
21898.7 8.56434
21901.9 8.35303
21905.0 8.15938
21911.2 7.81705
21918.5 7.48144
21925.7 7.19722
21932.9 6.95356
21940.1 6.74246
21948.7 6.52663
21957.2 6.34059
21965.8 6.17877
21974.3 6.03626
21988.8 5.83048
22003.2 5.65979
22017.7 5.51596
22032.1 5.39321
22046.6 5.28710
22061.1 5.19460
22090.0 5.04097
22116.3 4.92888
22142.5 4.83570
22168.8 4.75726
22195.1 4.69022
22224.0 4.62696
22252.9 4.57247
22281.8 4.52500
22310.8 4.48329
22352.8 4.43092
22394.9 4.38644
22436.9 4.34809
22479.0 4.31473
22484.2 4.31090
22486.9 4.30902
22488.2 4.30813
22488.8 4.30775
22489.2 4.30759
22489.5 4.30747
22489.8 4.30741
22490.1 4.30742
22490.5 4.30754
22490.8 4.30781
22491.1 4.30827
22491.5 4.30899
22491.8 4.31006
22492.1 4.31152
22492.4 4.31359
22492.8 4.31638
22493.1 4.32007
22493.4 4.32486
22493.8 4.33099
22494.1 4.33872
22494.4 4.34834
22494.7 4.35976
22495.1 4.37399
22495.4 4.39103
22495.7 4.41117
22496.1 4.43469
22496.4 4.46183
22496.7 4.49276
22497.4 4.56511
22498.0 4.65377
22498.7 4.75433
22500.0 4.98240
22500.0 5.66695
23750.0 5.66201
25000.0 5.65736
26250.0 5.65463
27500.0 5.65206
30000.0 5.64733
32500.0 5.64553
35000.0 5.64390
37500.0 5.64407
40000.0 5.64425
42500.0 5.64595
45000.0 5.64757
50000.0 5.65062
55000.0 5.65541
60000.0 5.65983
65000.0 5.66485
70000.0 5.66952
80000.0 5.67853
90000.0 5.68636
99999.9 5.69339
100000 5.70212
112500 5.67742
125000 5.65542
137500 5.63561
150000 5.61760
175000 5.61886
200000 5.61997
250000 5.66356
300000 5.72889
350000 5.82478
400000 5.90915
500000 6.05286
512500 6.07368
525000 6.09406
537500 6.11404
550000 6.13361
562500 6.15281
575000 6.17165
587500 6.19014
600000 6.20829
612500 6.22612
625000 6.24365
637500 6.26087
650000 6.27781
662500 6.29447
675000 6.31086
687500 6.32699
700000 6.34288
712265 6.35778
724531 6.37246
736796 6.38693
749061 6.40119
750653 6.40283
752245 6.40447
755428 6.40777
761796 6.41442
768163 6.42114
774531 6.42793
780898 6.43479
787265 6.44169
793633 6.44866
800000 6.45567
812500 6.46728
825000 6.47873
837500 6.49001
850000 6.50114
862500 6.51212
875000 6.52294
887500 6.53363
900000 6.54417
912500 6.55254
925000 6.56080
937500 6.56894
950000 6.57698
962500 6.58492
975000 6.59275
987500 6.60049
1.00000E+06 6.60813
1.01563E+06 6.61224
1.03125E+06 6.61629
1.04688E+06 6.62029
1.06250E+06 6.62423
1.07813E+06 6.62813
1.09375E+06 6.63197
1.10938E+06 6.63576
1.12500E+06 6.63951
1.14063E+06 6.64321
1.15625E+06 6.64687
1.17188E+06 6.65048
1.18750E+06 6.65405
1.20313E+06 6.65758
1.21875E+06 6.66106
1.23438E+06 6.66451
1.25000E+06 6.66792
1.26563E+06 6.66358
1.28125E+06 6.65931
1.29688E+06 6.65512
1.31250E+06 6.65101
1.32813E+06 6.64697
1.34375E+06 6.64300
1.35938E+06 6.63910
1.37500E+06 6.63526
1.39063E+06 6.63149
1.40625E+06 6.62778
1.42188E+06 6.62413
1.43750E+06 6.62055
1.45313E+06 6.61702
1.46875E+06 6.61355
1.48438E+06 6.61013
1.50000E+06 6.60677
1.50891E+06 6.60282
1.51220E+06 6.60124
1.51549E+06 6.59968
1.52206E+06 6.59658
1.53521E+06 6.59053
1.53521E+06 6.59052
1.53857E+06 6.58820
1.54193E+06 6.58589
1.54864E+06 6.58130
1.56206E+06 6.57225
1.57548E+06 6.56336
1.58891E+06 6.55464
1.60233E+06 6.54608
1.61576E+06 6.53767
1.62918E+06 6.52942
1.64261E+06 6.52131
1.65603E+06 6.51336
1.66945E+06 6.50554
1.68288E+06 6.49787
1.69630E+06 6.49033
1.70973E+06 6.48292
1.72315E+06 6.47565
1.73658E+06 6.46850
1.75000E+06 6.46147
1.76885E+06 6.44739
1.78769E+06 6.43358
1.80654E+06 6.42002
1.82538E+06 6.40672
1.82538E+06 6.40672
1.83046E+06 6.40240
1.83553E+06 6.39810
1.84568E+06 6.38956
1.86597E+06 6.37275
1.88627E+06 6.35626
1.90657E+06 6.34009
1.92686E+06 6.32422
1.94716E+06 6.30866
1.96745E+06 6.29339
1.98775E+06 6.27841
1.98775E+06 6.27839
1.99279E+06 6.27422
1.99783E+06 6.27008
1.99783E+06 6.27007
2.00000E+06 6.26830
2.01150E+06 6.25848
2.02301E+06 6.24881
2.04601E+06 6.22987
2.05244E+06 6.22410
2.05886E+06 6.21837
2.07171E+06 6.20704
2.08456E+06 6.19586
2.09741E+06 6.18485
2.11026E+06 6.17400
2.12311E+06 6.16331
2.13596E+06 6.15276
2.14881E+06 6.14237
2.14881E+06 6.14235
2.15033E+06 6.14107
2.15836E+06 6.13390
2.16638E+06 6.12681
2.18243E+06 6.11283
2.19848E+06 6.09912
2.21453E+06 6.08568
2.22067E+06 6.07798
2.22680E+06 6.07033
2.23908E+06 6.05520
2.25135E+06 6.04027
2.26362E+06 6.02555
2.27590E+06 6.01103
2.28817E+06 5.99670
2.30044E+06 5.98257
2.31271E+06 5.96863
2.32499E+06 5.95487
2.33726E+06 5.94130
2.34953E+06 5.92791
2.36181E+06 5.91470
2.37408E+06 5.90167
2.38635E+06 5.88880
2.39863E+06 5.87611
2.41090E+06 5.86358
2.42317E+06 5.85122
2.43544E+06 5.83901
2.44772E+06 5.82697
2.45999E+06 5.81508
2.47226E+06 5.80335
2.48454E+06 5.79177
2.49681E+06 5.78033
2.50908E+06 5.76905
2.52136E+06 5.75791
2.53363E+06 5.74690
2.54590E+06 5.73604
2.55817E+06 5.72532
2.57045E+06 5.71473
2.58272E+06 5.70428
2.59499E+06 5.69396
2.60727E+06 5.68377
2.61954E+06 5.67370
2.63181E+06 5.66377
2.64408E+06 5.65395
2.65636E+06 5.64426
2.66863E+06 5.63468
2.68090E+06 5.62523
2.69318E+06 5.61589
2.70545E+06 5.60667
2.71772E+06 5.59756
2.73000E+06 5.58856
2.74227E+06 5.57967
2.75454E+06 5.57089
2.76681E+06 5.56222
2.77909E+06 5.55365
2.79136E+06 5.54519
2.80363E+06 5.53683
2.81591E+06 5.52857
2.82818E+06 5.52041
2.84045E+06 5.51235
2.85273E+06 5.50438
2.86500E+06 5.49651
2.87727E+06 5.48874
2.88954E+06 5.48105
2.90182E+06 5.47346
2.91409E+06 5.46596
2.92636E+06 5.45855
2.93864E+06 5.45123
2.95091E+06 5.44399
2.96318E+06 5.43684
2.97546E+06 5.42977
2.98773E+06 5.42278
3.00000E+06 5.41588
3.01245E+06 5.40396
3.02490E+06 5.39215
3.03736E+06 5.38044
3.04981E+06 5.36884
3.06226E+06 5.35734
3.07471E+06 5.34595
3.08716E+06 5.33465
3.09962E+06 5.32346
3.11207E+06 5.31236
3.12452E+06 5.30136
3.13697E+06 5.29046
3.14942E+06 5.27965
3.16188E+06 5.26894
3.17433E+06 5.25831
3.18678E+06 5.24778
3.19923E+06 5.23734
3.21848E+06 5.22047
3.23774E+06 5.20382
3.25699E+06 5.18739
3.27624E+06 5.17118
3.29549E+06 5.15519
3.31475E+06 5.13940
3.33400E+06 5.12382
3.35325E+06 5.10844
3.37250E+06 5.09326
3.39176E+06 5.07827
3.41101E+06 5.06348
3.43026E+06 5.04887
3.44951E+06 5.03445
3.46877E+06 5.02021
3.48802E+06 5.00615
3.50727E+06 4.99227
3.52267E+06 4.98027
3.53807E+06 4.96839
3.55346E+06 4.95663
3.56886E+06 4.94500
3.58426E+06 4.93348
3.59966E+06 4.92207
3.61506E+06 4.91078
3.63045E+06 4.89961
3.64585E+06 4.88854
3.66125E+06 4.87758
3.67665E+06 4.86674
3.69204E+06 4.85600
3.70744E+06 4.84536
3.72284E+06 4.83483
3.73824E+06 4.82440
3.75364E+06 4.81407
3.76903E+06 4.80384
3.78443E+06 4.79372
3.79983E+06 4.78368
3.81523E+06 4.77375
3.83063E+06 4.76391
3.84602E+06 4.75416
3.86142E+06 4.74451
3.87682E+06 4.73494
3.89222E+06 4.72547
3.90761E+06 4.71608
3.92301E+06 4.70679
3.93841E+06 4.69758
3.95381E+06 4.68846
3.96921E+06 4.67942
3.98460E+06 4.67046
4.00000E+06 4.66159
4.01563E+06 4.65252
4.03125E+06 4.64352
4.04688E+06 4.63458
4.06250E+06 4.62569
4.07813E+06 4.61686
4.09375E+06 4.60809
4.10938E+06 4.59938
4.12500E+06 4.59072
4.14063E+06 4.58211
4.15625E+06 4.57356
4.17188E+06 4.56506
4.18750E+06 4.55662
4.20313E+06 4.54823
4.21875E+06 4.53989
4.23438E+06 4.53161
4.25000E+06 4.52337
4.26563E+06 4.51519
4.28125E+06 4.50706
4.29688E+06 4.49897
4.31250E+06 4.49094
4.32813E+06 4.48295
4.34375E+06 4.47502
4.35938E+06 4.46713
4.37500E+06 4.45928
4.39063E+06 4.45149
4.40625E+06 4.44374
4.42188E+06 4.43604
4.43750E+06 4.42838
4.45313E+06 4.42077
4.46875E+06 4.41320
4.48438E+06 4.40568
4.50000E+06 4.39820
4.51563E+06 4.39076
4.53125E+06 4.38337
4.54688E+06 4.37602
4.56250E+06 4.36871
4.57813E+06 4.36145
4.59375E+06 4.35422
4.60938E+06 4.34704
4.62500E+06 4.33989
4.64063E+06 4.33279
4.65625E+06 4.32573
4.67188E+06 4.31870
4.68750E+06 4.31172
4.70313E+06 4.30477
4.71875E+06 4.29787
4.73438E+06 4.29100
4.75000E+06 4.28417
4.76563E+06 4.27737
4.78125E+06 4.27062
4.79688E+06 4.26390
4.81250E+06 4.25721
4.82813E+06 4.25057
4.84375E+06 4.24396
4.85938E+06 4.23738
4.87500E+06 4.23084
4.89063E+06 4.22433
4.90625E+06 4.21786
4.92188E+06 4.21143
4.93750E+06 4.20502
4.95313E+06 4.19865
4.96875E+06 4.19232
4.98438E+06 4.18602
5.00000E+06 4.17975
5.00781E+06 4.17818
5.01563E+06 4.17662
5.02344E+06 4.17507
5.03125E+06 4.17351
5.03906E+06 4.17196
5.04688E+06 4.17041
5.05469E+06 4.16887
5.06250E+06 4.16732
5.07031E+06 4.16578
5.07813E+06 4.16425
5.08594E+06 4.16271
5.09375E+06 4.16118
5.10156E+06 4.15965
5.10938E+06 4.15812
5.11719E+06 4.15660
5.12500E+06 4.15508
5.13281E+06 4.15356
5.14063E+06 4.15205
5.14844E+06 4.15053
5.15625E+06 4.14902
5.16406E+06 4.14752
5.17188E+06 4.14601
5.17969E+06 4.14451
5.18750E+06 4.14301
5.19531E+06 4.14151
5.20313E+06 4.14002
5.21094E+06 4.13853
5.21875E+06 4.13704
5.22656E+06 4.13555
5.23438E+06 4.13407
5.24219E+06 4.13259
5.25000E+06 4.13111
5.25781E+06 4.12963
5.26563E+06 4.12816
5.27344E+06 4.12669
5.28125E+06 4.12522
5.28906E+06 4.12376
5.29688E+06 4.12229
5.30469E+06 4.12083
5.31250E+06 4.11938
5.32031E+06 4.11792
5.32813E+06 4.11647
5.33594E+06 4.11502
5.34375E+06 4.11357
5.35156E+06 4.11212
5.35938E+06 4.11068
5.36719E+06 4.10924
5.37500E+06 4.10780
5.38281E+06 4.10637
5.39063E+06 4.10493
5.39844E+06 4.10350
5.40625E+06 4.10207
5.41406E+06 4.10065
5.42188E+06 4.09923
5.42969E+06 4.09780
5.43750E+06 4.09638
5.44531E+06 4.09497
5.45313E+06 4.09355
5.46094E+06 4.09214
5.46875E+06 4.09073
5.47656E+06 4.08933
5.48438E+06 4.08792
5.49219E+06 4.08652
5.50000E+06 4.08512
5.50781E+06 4.08372
5.51563E+06 4.08233
5.52344E+06 4.08093
5.53125E+06 4.07954
5.53906E+06 4.07816
5.54688E+06 4.07677
5.55469E+06 4.07539
5.56250E+06 4.07400
5.57031E+06 4.07263
5.57813E+06 4.07125
5.58594E+06 4.06987
5.59375E+06 4.06850
5.60156E+06 4.06713
5.60938E+06 4.06576
5.61719E+06 4.06440
5.62500E+06 4.06303
5.63281E+06 4.06167
5.64063E+06 4.06031
5.64844E+06 4.05896
5.65625E+06 4.05760
5.66406E+06 4.05625
5.67188E+06 4.05490
5.67969E+06 4.05355
5.68750E+06 4.05220
5.69531E+06 4.05086
5.70313E+06 4.04952
5.71094E+06 4.04818
5.71875E+06 4.04684
5.72656E+06 4.04550
5.73438E+06 4.04417
5.74219E+06 4.04284
5.75000E+06 4.04151
5.75781E+06 4.04018
5.76563E+06 4.03886
5.77344E+06 4.03754
5.78125E+06 4.03622
5.78906E+06 4.03490
5.79688E+06 4.03358
5.80469E+06 4.03227
5.81250E+06 4.03095
5.82031E+06 4.02964
5.82813E+06 4.02834
5.83594E+06 4.02703
5.84375E+06 4.02572
5.85156E+06 4.02442
5.85938E+06 4.02312
5.86719E+06 4.02182
5.87500E+06 4.02053
5.88281E+06 4.01923
5.89063E+06 4.01794
5.89844E+06 4.01665
5.90625E+06 4.01536
5.91406E+06 4.01408
5.92188E+06 4.01279
5.92969E+06 4.01151
5.93750E+06 4.01023
5.94531E+06 4.00895
5.95313E+06 4.00767
5.96094E+06 4.00640
5.96875E+06 4.00513
5.97656E+06 4.00386
5.98438E+06 4.00259
5.99219E+06 4.00132
6.00000E+06 4.00006
6.00751E+06 4.00061
6.01502E+06 4.00116
6.02254E+06 4.00171
6.03005E+06 4.00227
6.03756E+06 4.00282
6.04507E+06 4.00337
6.05258E+06 4.00392
6.06009E+06 4.00447
6.06761E+06 4.00502
6.07512E+06 4.00557
6.08263E+06 4.00612
6.09014E+06 4.00667
6.09765E+06 4.00721
6.10516E+06 4.00776
6.11267E+06 4.00831
6.12019E+06 4.00886
6.12770E+06 4.00940
6.13521E+06 4.00995
6.14272E+06 4.01050
6.15023E+06 4.01104
6.15774E+06 4.01159
6.16526E+06 4.01213
6.17277E+06 4.01267
6.18028E+06 4.01322
6.18779E+06 4.01376
6.19530E+06 4.01431
6.20281E+06 4.01485
6.21032E+06 4.01539
6.21784E+06 4.01593
6.22535E+06 4.01647
6.23286E+06 4.01702
6.24037E+06 4.01756
6.24788E+06 4.01810
6.25539E+06 4.01864
6.26291E+06 4.01918
6.27042E+06 4.01971
6.27793E+06 4.02025
6.28544E+06 4.02079
6.29295E+06 4.02133
6.30046E+06 4.02187
6.30798E+06 4.02241
6.31549E+06 4.02294
6.32300E+06 4.02348
6.33051E+06 4.02401
6.33802E+06 4.02455
6.34553E+06 4.02509
6.35304E+06 4.02562
6.36056E+06 4.02615
6.36807E+06 4.02669
6.37558E+06 4.02722
6.38309E+06 4.02776
6.39060E+06 4.02829
6.39811E+06 4.02882
6.40563E+06 4.02935
6.41314E+06 4.02989
6.42065E+06 4.03042
6.42816E+06 4.03095
6.43567E+06 4.03148
6.44318E+06 4.03201
6.45069E+06 4.03254
6.45821E+06 4.03307
6.46572E+06 4.03360
6.47323E+06 4.03413
6.48074E+06 4.03466
6.48885E+06 4.03522
6.49697E+06 4.03577
6.50508E+06 4.03633
6.51319E+06 4.03689
6.52131E+06 4.03744
6.52942E+06 4.03800
6.53754E+06 4.03856
6.54565E+06 4.03911
6.55376E+06 4.03967
6.56188E+06 4.04022
6.56999E+06 4.04077
6.57810E+06 4.04133
6.58622E+06 4.04188
6.59433E+06 4.04243
6.60244E+06 4.04299
6.61056E+06 4.04354
6.61867E+06 4.04409
6.62678E+06 4.04464
6.63490E+06 4.04519
6.64301E+06 4.04574
6.65112E+06 4.04629
6.65924E+06 4.04684
6.66735E+06 4.04739
6.67546E+06 4.04794
6.68358E+06 4.04849
6.69169E+06 4.04903
6.69980E+06 4.04958
6.70792E+06 4.05013
6.71603E+06 4.05068
6.72414E+06 4.05122
6.73226E+06 4.05177
6.74037E+06 4.05231
6.74848E+06 4.05286
6.75660E+06 4.05340
6.76471E+06 4.05395
6.77282E+06 4.05449
6.78094E+06 4.05503
6.78905E+06 4.05558
6.79717E+06 4.05612
6.80528E+06 4.05666
6.81339E+06 4.05720
6.82151E+06 4.05774
6.82962E+06 4.05828
6.83773E+06 4.05883
6.84585E+06 4.05937
6.85396E+06 4.05991
6.86207E+06 4.06044
6.87019E+06 4.06098
6.87830E+06 4.06152
6.88641E+06 4.06206
6.89453E+06 4.06260
6.90264E+06 4.06314
6.91075E+06 4.06367
6.91887E+06 4.06421
6.92698E+06 4.06474
6.93509E+06 4.06528
6.94321E+06 4.06582
6.95132E+06 4.06635
6.95943E+06 4.06688
6.96755E+06 4.06742
6.97566E+06 4.06795
6.98377E+06 4.06849
6.99189E+06 4.06902
7.00000E+06 4.06955
7.00743E+06 4.07101
7.01485E+06 4.07247
7.02228E+06 4.07392
7.02970E+06 4.07538
7.03713E+06 4.07683
7.04455E+06 4.07829
7.05198E+06 4.07974
7.05941E+06 4.08119
7.06683E+06 4.08265
7.07426E+06 4.08410
7.08168E+06 4.08555
7.08911E+06 4.08701
7.09653E+06 4.08846
7.10396E+06 4.08991
7.11139E+06 4.09136
7.11881E+06 4.09281
7.12624E+06 4.09426
7.13366E+06 4.09571
7.14109E+06 4.09716
7.14851E+06 4.09861
7.15594E+06 4.10006
7.16336E+06 4.10151
7.17079E+06 4.10296
7.17822E+06 4.10441
7.18564E+06 4.10586
7.19307E+06 4.10730
7.20049E+06 4.10875
7.20792E+06 4.11020
7.21534E+06 4.11164
7.22277E+06 4.11309
7.23020E+06 4.11454
7.23762E+06 4.11598
7.24334E+06 4.11708
7.24906E+06 4.11819
7.25479E+06 4.11929
7.26051E+06 4.12039
7.26623E+06 4.12149
7.27195E+06 4.12259
7.27767E+06 4.12369
7.28340E+06 4.12479
7.28912E+06 4.12590
7.29484E+06 4.12700
7.30056E+06 4.12810
7.30628E+06 4.12920
7.31201E+06 4.13030
7.31773E+06 4.13140
7.32345E+06 4.13250
7.32917E+06 4.13359
7.33880E+06 4.13543
7.34844E+06 4.13727
7.35807E+06 4.13911
7.36771E+06 4.14094
7.37734E+06 4.14278
7.38697E+06 4.14462
7.39661E+06 4.14645
7.40624E+06 4.14828
7.41587E+06 4.15012
7.42551E+06 4.15195
7.43514E+06 4.15378
7.44478E+06 4.15561
7.45441E+06 4.15744
7.46404E+06 4.15928
7.47368E+06 4.16110
7.48331E+06 4.16293
7.49125E+06 4.16443
7.49919E+06 4.16591
7.50713E+06 4.16740
7.51506E+06 4.16889
7.52300E+06 4.17038
7.53094E+06 4.17187
7.53888E+06 4.17336
7.54682E+06 4.17485
7.55476E+06 4.17633
7.56270E+06 4.17782
7.57063E+06 4.17931
7.57857E+06 4.18079
7.58651E+06 4.18228
7.59445E+06 4.18376
7.60239E+06 4.18525
7.61033E+06 4.18673
7.61826E+06 4.18822
7.62620E+06 4.18970
7.63414E+06 4.19119
7.64208E+06 4.19267
7.65002E+06 4.19415
7.65796E+06 4.19563
7.66590E+06 4.19711
7.67383E+06 4.19859
7.68177E+06 4.20007
7.68971E+06 4.20156
7.69765E+06 4.20304
7.70559E+06 4.20452
7.71353E+06 4.20599
7.72146E+06 4.20747
7.72940E+06 4.20895
7.73734E+06 4.21043
7.74555E+06 4.21194
7.75376E+06 4.21345
7.76197E+06 4.21495
7.77017E+06 4.21646
7.77838E+06 4.21797
7.78659E+06 4.21947
7.79480E+06 4.22098
7.80301E+06 4.22248
7.81121E+06 4.22399
7.81942E+06 4.22549
7.82763E+06 4.22699
7.83584E+06 4.22850
7.84405E+06 4.23000
7.85225E+06 4.23150
7.86046E+06 4.23300
7.86867E+06 4.23451
7.87688E+06 4.23601
7.88509E+06 4.23751
7.89330E+06 4.23901
7.90150E+06 4.24051
7.90971E+06 4.24201
7.91792E+06 4.24351
7.92613E+06 4.24501
7.93434E+06 4.24651
7.94254E+06 4.24800
7.95075E+06 4.24950
7.95896E+06 4.25100
7.96717E+06 4.25249
7.97538E+06 4.25399
7.98358E+06 4.25548
7.99179E+06 4.25698
8.00000E+06 4.25848
8.00758E+06 4.25996
8.01517E+06 4.26146
8.02275E+06 4.26295
8.03033E+06 4.26444
8.03791E+06 4.26593
8.04550E+06 4.26742
8.05308E+06 4.26891
8.06066E+06 4.27040
8.06824E+06 4.27189
8.07583E+06 4.27338
8.08341E+06 4.27488
8.09099E+06 4.27637
8.09857E+06 4.27786
8.10616E+06 4.27935
8.11374E+06 4.28085
8.12132E+06 4.28234
8.12890E+06 4.28383
8.13649E+06 4.28533
8.14407E+06 4.28682
8.15165E+06 4.28832
8.15923E+06 4.28981
8.16682E+06 4.29130
8.17440E+06 4.29280
8.18198E+06 4.29429
8.18956E+06 4.29579
8.19715E+06 4.29728
8.20473E+06 4.29878
8.21231E+06 4.30028
8.21989E+06 4.30177
8.22748E+06 4.30327
8.23506E+06 4.30476
8.24264E+06 4.30626
8.25022E+06 4.30776
8.25781E+06 4.30925
8.26539E+06 4.31075
8.27297E+06 4.31225
8.28055E+06 4.31375
8.28814E+06 4.31524
8.29572E+06 4.31674
8.30330E+06 4.31824
8.31088E+06 4.31974
8.31847E+06 4.32124
8.32605E+06 4.32273
8.33363E+06 4.32423
8.34121E+06 4.32573
8.34880E+06 4.32723
8.35638E+06 4.32873
8.36396E+06 4.33023
8.37154E+06 4.33173
8.37913E+06 4.33323
8.38671E+06 4.33473
8.39429E+06 4.33623
8.40187E+06 4.33773
8.40946E+06 4.33923
8.41704E+06 4.34073
8.42462E+06 4.34224
8.43220E+06 4.34374
8.43979E+06 4.34524
8.44737E+06 4.34674
8.45495E+06 4.34824
8.46253E+06 4.34974
8.47012E+06 4.35125
8.47770E+06 4.35275
8.48528E+06 4.35425
8.49676E+06 4.35644
8.50824E+06 4.35863
8.51972E+06 4.36083
8.53120E+06 4.36302
8.54269E+06 4.36521
8.55417E+06 4.36740
8.56565E+06 4.36959
8.57713E+06 4.37179
8.58861E+06 4.37398
8.60009E+06 4.37618
8.61157E+06 4.37837
8.62305E+06 4.38057
8.63453E+06 4.38276
8.64601E+06 4.38496
8.65750E+06 4.38715
8.66898E+06 4.38935
8.68046E+06 4.39154
8.69194E+06 4.39374
8.70342E+06 4.39594
8.71490E+06 4.39813
8.72638E+06 4.40033
8.73786E+06 4.40253
8.74934E+06 4.40473
8.76082E+06 4.40693
8.77230E+06 4.40913
8.78379E+06 4.41132
8.79527E+06 4.41352
8.80675E+06 4.41572
8.81823E+06 4.41792
8.82971E+06 4.42013
8.84119E+06 4.42233
8.85267E+06 4.42453
8.87109E+06 4.42798
8.88950E+06 4.43144
8.90792E+06 4.43490
8.92634E+06 4.43836
8.94475E+06 4.44182
8.96317E+06 4.44527
8.98158E+06 4.44873
9.00000E+06 4.45219
9.03371E+06 4.45696
9.06743E+06 4.46181
9.10114E+06 4.46675
9.13485E+06 4.47178
9.16857E+06 4.47689
9.20228E+06 4.48209
9.23599E+06 4.48737
9.26971E+06 4.49274
9.30342E+06 4.49819
9.33713E+06 4.50372
9.37085E+06 4.50933
9.40456E+06 4.51503
9.43827E+06 4.52081
9.47198E+06 4.52666
9.50570E+06 4.53260
9.53941E+06 4.53862
9.56893E+06 4.54317
9.59846E+06 4.54777
9.62798E+06 4.55241
9.65750E+06 4.55711
9.66513E+06 4.55824
9.67276E+06 4.55937
9.68039E+06 4.56051
9.68801E+06 4.56165
9.69564E+06 4.56279
9.70327E+06 4.56394
9.71090E+06 4.56509
9.71853E+06 4.56624
9.72616E+06 4.56740
9.73379E+06 4.56856
9.74141E+06 4.56972
9.74904E+06 4.57089
9.75667E+06 4.57205
9.76430E+06 4.57323
9.77193E+06 4.57440
9.77956E+06 4.57558
9.78718E+06 4.57676
9.79481E+06 4.57794
9.80244E+06 4.57913
9.81007E+06 4.58032
9.81770E+06 4.58151
9.82533E+06 4.58271
9.83296E+06 4.58391
9.84058E+06 4.58511
9.84821E+06 4.58632
9.85584E+06 4.58752
9.86347E+06 4.58874
9.87110E+06 4.58995
9.87873E+06 4.59117
9.88635E+06 4.59239
9.89398E+06 4.59361
9.90161E+06 4.59484
9.90776E+06 4.59576
9.91391E+06 4.59669
9.92006E+06 4.59762
9.92621E+06 4.59855
9.93236E+06 4.59949
9.93851E+06 4.60042
9.94466E+06 4.60136
9.95081E+06 4.60229
9.95696E+06 4.60323
9.96310E+06 4.60418
9.96925E+06 4.60512
9.97540E+06 4.60607
9.98155E+06 4.60702
9.98770E+06 4.60797
9.99385E+06 4.60892
1.00000E+07 4.60987
1.00076E+07 4.61055
1.00153E+07 4.61124
1.00229E+07 4.61192
1.00305E+07 4.61261
1.00381E+07 4.61330
1.00458E+07 4.61399
1.00534E+07 4.61469
1.00610E+07 4.61538
1.00687E+07 4.61608
1.00763E+07 4.61679
1.00839E+07 4.61749
1.00915E+07 4.61820
1.00992E+07 4.61891
1.01068E+07 4.61962
1.01144E+07 4.62034
1.01220E+07 4.62105
1.01297E+07 4.62177
1.01373E+07 4.62249
1.01449E+07 4.62322
1.01525E+07 4.62394
1.01602E+07 4.62467
1.01678E+07 4.62540
1.01754E+07 4.62614
1.01830E+07 4.62687
1.01907E+07 4.62761
1.01983E+07 4.62836
1.02059E+07 4.62910
1.02136E+07 4.62984
1.02212E+07 4.63059
1.02288E+07 4.63134
1.02364E+07 4.63210
1.02441E+07 4.63285
1.02517E+07 4.63361
1.02593E+07 4.63437
1.02669E+07 4.63513
1.02746E+07 4.63590
1.02822E+07 4.63667
1.02898E+07 4.63743
1.02975E+07 4.63821
1.03051E+07 4.63898
1.03127E+07 4.63976
1.03203E+07 4.64054
1.03280E+07 4.64132
1.03356E+07 4.64210
1.03432E+07 4.64289
1.03508E+07 4.64368
1.03585E+07 4.64447
1.03661E+07 4.64526
1.03737E+07 4.64606
1.03813E+07 4.64685
1.03890E+07 4.64765
1.03966E+07 4.64846
1.04042E+07 4.64926
1.04118E+07 4.65007
1.04195E+07 4.65088
1.04271E+07 4.65169
1.04347E+07 4.65250
1.04424E+07 4.65332
1.04500E+07 4.65414
1.04576E+07 4.65496
1.04652E+07 4.65578
1.04729E+07 4.65660
1.04805E+07 4.65743
1.04881E+07 4.65826
1.04961E+07 4.65914
1.05041E+07 4.66002
1.05121E+07 4.66090
1.05201E+07 4.66179
1.05281E+07 4.66267
1.05361E+07 4.66356
1.05441E+07 4.66446
1.05521E+07 4.66535
1.05601E+07 4.66625
1.05681E+07 4.66715
1.05761E+07 4.66805
1.05841E+07 4.66896
1.05921E+07 4.66986
1.06001E+07 4.67077
1.06081E+07 4.67169
1.06161E+07 4.67260
1.06241E+07 4.67352
1.06321E+07 4.67444
1.06401E+07 4.67536
1.06481E+07 4.67628
1.06561E+07 4.67721
1.06641E+07 4.67814
1.06721E+07 4.67907
1.06801E+07 4.68000
1.06881E+07 4.68094
1.06961E+07 4.68188
1.07041E+07 4.68282
1.07121E+07 4.68376
1.07201E+07 4.68471
1.07281E+07 4.68566
1.07361E+07 4.68661
1.07441E+07 4.68756
1.07521E+07 4.68852
1.07601E+07 4.68947
1.07681E+07 4.69043
1.07761E+07 4.69140
1.07841E+07 4.69236
1.07921E+07 4.69333
1.08001E+07 4.69430
1.08080E+07 4.69527
1.08160E+07 4.69624
1.08240E+07 4.69722
1.08320E+07 4.69820
1.08400E+07 4.69918
1.08480E+07 4.70017
1.08560E+07 4.70115
1.08640E+07 4.70214
1.08720E+07 4.70313
1.08800E+07 4.70412
1.08880E+07 4.70512
1.08960E+07 4.70612
1.09040E+07 4.70712
1.09120E+07 4.70812
1.09200E+07 4.70912
1.09280E+07 4.71013
1.09360E+07 4.71114
1.09440E+07 4.71215
1.09520E+07 4.71317
1.09600E+07 4.71418
1.09680E+07 4.71520
1.09760E+07 4.71622
1.09840E+07 4.71724
1.09920E+07 4.71827
1.10000E+07 4.71929
1.10076E+07 4.71997
1.10153E+07 4.72066
1.10229E+07 4.72134
1.10305E+07 4.72203
1.10381E+07 4.72272
1.10458E+07 4.72341
1.10534E+07 4.72411
1.10610E+07 4.72480
1.10686E+07 4.72550
1.10762E+07 4.72621
1.10839E+07 4.72691
1.10915E+07 4.72762
1.10991E+07 4.72833
1.11067E+07 4.72904
1.11144E+07 4.72975
1.11220E+07 4.73047
1.11296E+07 4.73119
1.11372E+07 4.73191
1.11449E+07 4.73263
1.11525E+07 4.73336
1.11601E+07 4.73409
1.11677E+07 4.73482
1.11754E+07 4.73555
1.11830E+07 4.73628
1.11906E+07 4.73702
1.11982E+07 4.73776
1.12058E+07 4.73850
1.12135E+07 4.73925
1.12211E+07 4.74000
1.12287E+07 4.74075
1.12363E+07 4.74150
1.12440E+07 4.74225
1.12516E+07 4.74301
1.12592E+07 4.74377
1.12668E+07 4.74453
1.12745E+07 4.74529
1.12821E+07 4.74606
1.12897E+07 4.74683
1.12973E+07 4.74760
1.13049E+07 4.74837
1.13126E+07 4.74915
1.13202E+07 4.74992
1.13278E+07 4.75070
1.13354E+07 4.75149
1.13431E+07 4.75227
1.13507E+07 4.75306
1.13583E+07 4.75385
1.13659E+07 4.75464
1.13736E+07 4.75543
1.13812E+07 4.75623
1.13888E+07 4.75703
1.13964E+07 4.75783
1.14041E+07 4.75863
1.14117E+07 4.75943
1.14193E+07 4.76024
1.14269E+07 4.76105
1.14346E+07 4.76186
1.14422E+07 4.76268
1.14498E+07 4.76349
1.14574E+07 4.76431
1.14650E+07 4.76513
1.14727E+07 4.76596
1.14803E+07 4.76678
1.14879E+07 4.76761
1.14959E+07 4.76837
1.15038E+07 4.76914
1.15118E+07 4.76991
1.15198E+07 4.77068
1.15277E+07 4.77146
1.15357E+07 4.77223
1.15436E+07 4.77301
1.15516E+07 4.77379
1.15596E+07 4.77458
1.15675E+07 4.77536
1.15755E+07 4.77615
1.15834E+07 4.77694
1.15914E+07 4.77773
1.15994E+07 4.77853
1.16073E+07 4.77932
1.16153E+07 4.78012
1.16233E+07 4.78093
1.16312E+07 4.78173
1.16392E+07 4.78254
1.16471E+07 4.78334
1.16551E+07 4.78416
1.16631E+07 4.78497
1.16710E+07 4.78579
1.16790E+07 4.78660
1.16869E+07 4.78742
1.16949E+07 4.78825
1.17029E+07 4.78907
1.17108E+07 4.78990
1.17188E+07 4.79073
1.17267E+07 4.79156
1.17347E+07 4.79240
1.17427E+07 4.79323
1.17506E+07 4.79407
1.17586E+07 4.79491
1.17665E+07 4.79576
1.17745E+07 4.79660
1.17825E+07 4.79745
1.17904E+07 4.79830
1.17984E+07 4.79915
1.18063E+07 4.80001
1.18143E+07 4.80086
1.18223E+07 4.80172
1.18302E+07 4.80258
1.18382E+07 4.80345
1.18462E+07 4.80431
1.18541E+07 4.80518
1.18621E+07 4.80605
1.18700E+07 4.80693
1.18780E+07 4.80780
1.18860E+07 4.80868
1.18939E+07 4.80956
1.19019E+07 4.81044
1.19098E+07 4.81132
1.19178E+07 4.81221
1.19258E+07 4.81310
1.19337E+07 4.81399
1.19417E+07 4.81488
1.19496E+07 4.81578
1.19576E+07 4.81667
1.19656E+07 4.81757
1.19735E+07 4.81847
1.19815E+07 4.81938
1.19894E+07 4.82028
1.19974E+07 4.82119
1.20000E+07 4.82145
1.20077E+07 4.82204
1.20153E+07 4.82264
1.20230E+07 4.82324
1.20306E+07 4.82383
1.20383E+07 4.82443
1.20459E+07 4.82502
1.20536E+07 4.82562
1.20613E+07 4.82622
1.20689E+07 4.82681
1.20766E+07 4.82741
1.20842E+07 4.82801
1.20919E+07 4.82861
1.20995E+07 4.82921
1.21072E+07 4.82980
1.21149E+07 4.83040
1.21225E+07 4.83100
1.21302E+07 4.83160
1.21378E+07 4.83220
1.21455E+07 4.83280
1.21531E+07 4.83340
1.21608E+07 4.83400
1.21684E+07 4.83460
1.21761E+07 4.83520
1.21838E+07 4.83580
1.21914E+07 4.83640
1.21991E+07 4.83700
1.22067E+07 4.83760
1.22144E+07 4.83820
1.22220E+07 4.83880
1.22297E+07 4.83940
1.22374E+07 4.84001
1.22450E+07 4.84061
1.22527E+07 4.84121
1.22603E+07 4.84181
1.22680E+07 4.84242
1.22756E+07 4.84302
1.22833E+07 4.84362
1.22909E+07 4.84422
1.22986E+07 4.84483
1.23063E+07 4.84543
1.23139E+07 4.84604
1.23216E+07 4.84664
1.23292E+07 4.84725
1.23369E+07 4.84785
1.23445E+07 4.84846
1.23522E+07 4.84906
1.23599E+07 4.84967
1.23675E+07 4.85027
1.23752E+07 4.85088
1.23828E+07 4.85148
1.23905E+07 4.85209
1.23981E+07 4.85270
1.24058E+07 4.85330
1.24134E+07 4.85391
1.24211E+07 4.85452
1.24288E+07 4.85512
1.24364E+07 4.85573
1.24441E+07 4.85634
1.24517E+07 4.85695
1.24594E+07 4.85756
1.24670E+07 4.85816
1.24747E+07 4.85877
1.24824E+07 4.85938
1.24900E+07 4.85999
1.24980E+07 4.86062
1.25059E+07 4.86126
1.25139E+07 4.86189
1.25219E+07 4.86252
1.25299E+07 4.86316
1.25378E+07 4.86379
1.25458E+07 4.86442
1.25538E+07 4.86506
1.25617E+07 4.86569
1.25697E+07 4.86633
1.25777E+07 4.86696
1.25856E+07 4.86760
1.25936E+07 4.86823
1.26016E+07 4.86887
1.26095E+07 4.86951
1.26175E+07 4.87014
1.26255E+07 4.87078
1.26334E+07 4.87141
1.26414E+07 4.87205
1.26494E+07 4.87269
1.26574E+07 4.87333
1.26653E+07 4.87396
1.26733E+07 4.87460
1.26813E+07 4.87524
1.26892E+07 4.87588
1.26972E+07 4.87652
1.27052E+07 4.87716
1.27131E+07 4.87779
1.27211E+07 4.87843
1.27291E+07 4.87907
1.27370E+07 4.87971
1.27450E+07 4.88035
1.27530E+07 4.88099
1.27609E+07 4.88163
1.27689E+07 4.88227
1.27769E+07 4.88292
1.27849E+07 4.88356
1.27928E+07 4.88420
1.28008E+07 4.88484
1.28088E+07 4.88548
1.28167E+07 4.88612
1.28247E+07 4.88676
1.28327E+07 4.88741
1.28406E+07 4.88805
1.28486E+07 4.88869
1.28566E+07 4.88934
1.28645E+07 4.88998
1.28725E+07 4.89062
1.28805E+07 4.89127
1.28884E+07 4.89191
1.28964E+07 4.89256
1.29044E+07 4.89320
1.29124E+07 4.89385
1.29203E+07 4.89449
1.29283E+07 4.89514
1.29363E+07 4.89578
1.29442E+07 4.89643
1.29522E+07 4.89707
1.29602E+07 4.89772
1.29681E+07 4.89837
1.29761E+07 4.89901
1.29841E+07 4.89966
1.29920E+07 4.90031
1.30000E+07 4.90096
1.30077E+07 4.90153
1.30153E+07 4.90210
1.30230E+07 4.90267
1.30307E+07 4.90324
1.30383E+07 4.90381
1.30460E+07 4.90438
1.30537E+07 4.90496
1.30613E+07 4.90553
1.30690E+07 4.90610
1.30767E+07 4.90667
1.30844E+07 4.90725
1.30920E+07 4.90782
1.30997E+07 4.90839
1.31074E+07 4.90896
1.31150E+07 4.90954
1.31227E+07 4.91011
1.31304E+07 4.91068
1.31380E+07 4.91125
1.31457E+07 4.91183
1.31534E+07 4.91240
1.31610E+07 4.91297
1.31687E+07 4.91355
1.31764E+07 4.91412
1.31840E+07 4.91469
1.31917E+07 4.91527
1.31994E+07 4.91584
1.32070E+07 4.91642
1.32147E+07 4.91699
1.32224E+07 4.91757
1.32300E+07 4.91814
1.32377E+07 4.91871
1.32454E+07 4.91929
1.32530E+07 4.91986
1.32607E+07 4.92044
1.32684E+07 4.92101
1.32760E+07 4.92159
1.32837E+07 4.92216
1.32914E+07 4.92274
1.32990E+07 4.92332
1.33067E+07 4.92389
1.33144E+07 4.92447
1.33220E+07 4.92504
1.33297E+07 4.92562
1.33374E+07 4.92619
1.33450E+07 4.92677
1.33527E+07 4.92735
1.33604E+07 4.92792
1.33680E+07 4.92850
1.33757E+07 4.92908
1.33834E+07 4.92965
1.33910E+07 4.93023
1.33987E+07 4.93081
1.34064E+07 4.93139
1.34140E+07 4.93196
1.34217E+07 4.93254
1.34294E+07 4.93312
1.34370E+07 4.93370
1.34447E+07 4.93427
1.34524E+07 4.93485
1.34600E+07 4.93543
1.34677E+07 4.93601
1.34754E+07 4.93659
1.34830E+07 4.93716
1.34907E+07 4.93774
1.34987E+07 4.93833
1.35066E+07 4.93892
1.35146E+07 4.93951
1.35225E+07 4.94010
1.35305E+07 4.94069
1.35385E+07 4.94128
1.35464E+07 4.94187
1.35544E+07 4.94246
1.35623E+07 4.94305
1.35703E+07 4.94364
1.35783E+07 4.94423
1.35862E+07 4.94483
1.35942E+07 4.94542
1.36021E+07 4.94601
1.36101E+07 4.94660
1.36180E+07 4.94719
1.36260E+07 4.94778
1.36340E+07 4.94837
1.36419E+07 4.94896
1.36499E+07 4.94956
1.36578E+07 4.95015
1.36658E+07 4.95074
1.36737E+07 4.95133
1.36817E+07 4.95192
1.36897E+07 4.95252
1.36976E+07 4.95311
1.37056E+07 4.95370
1.37135E+07 4.95430
1.37215E+07 4.95489
1.37294E+07 4.95548
1.37374E+07 4.95608
1.37454E+07 4.95667
1.37533E+07 4.95726
1.37613E+07 4.95786
1.37692E+07 4.95845
1.37772E+07 4.95905
1.37852E+07 4.95964
1.37931E+07 4.96024
1.38011E+07 4.96083
1.38090E+07 4.96142
1.38170E+07 4.96202
1.38249E+07 4.96261
1.38329E+07 4.96321
1.38409E+07 4.96380
1.38488E+07 4.96440
1.38568E+07 4.96500
1.38647E+07 4.96559
1.38727E+07 4.96619
1.38806E+07 4.96678
1.38886E+07 4.96738
1.38966E+07 4.96798
1.39045E+07 4.96857
1.39125E+07 4.96917
1.39204E+07 4.96976
1.39284E+07 4.97036
1.39363E+07 4.97096
1.39443E+07 4.97156
1.39523E+07 4.97215
1.39602E+07 4.97275
1.39682E+07 4.97335
1.39761E+07 4.97395
1.39841E+07 4.97455
1.39921E+07 4.97514
1.40000E+07 4.97574
1.40078E+07 4.97636
1.40156E+07 4.97698
1.40234E+07 4.97760
1.40313E+07 4.97822
1.40391E+07 4.97884
1.40469E+07 4.97946
1.40547E+07 4.98008
1.40625E+07 4.98070
1.40703E+07 4.98132
1.40781E+07 4.98194
1.40859E+07 4.98257
1.40938E+07 4.98319
1.41016E+07 4.98381
1.41094E+07 4.98443
1.41172E+07 4.98505
1.41250E+07 4.98567
1.41328E+07 4.98629
1.41406E+07 4.98691
1.41484E+07 4.98753
1.41563E+07 4.98815
1.41641E+07 4.98877
1.41719E+07 4.98939
1.41797E+07 4.99001
1.41875E+07 4.99063
1.41953E+07 4.99125
1.42031E+07 4.99188
1.42109E+07 4.99250
1.42188E+07 4.99312
1.42266E+07 4.99374
1.42344E+07 4.99436
1.42422E+07 4.99498
1.42500E+07 4.99560
1.42578E+07 4.99622
1.42656E+07 4.99684
1.42734E+07 4.99746
1.42813E+07 4.99808
1.42891E+07 4.99871
1.42969E+07 4.99933
1.43047E+07 4.99995
1.43125E+07 5.00057
1.43203E+07 5.00119
1.43281E+07 5.00181
1.43359E+07 5.00243
1.43438E+07 5.00305
1.43516E+07 5.00368
1.43594E+07 5.00430
1.43672E+07 5.00492
1.43750E+07 5.00554
1.43828E+07 5.00616
1.43906E+07 5.00678
1.43984E+07 5.00740
1.44063E+07 5.00803
1.44141E+07 5.00865
1.44219E+07 5.00927
1.44297E+07 5.00989
1.44375E+07 5.01051
1.44453E+07 5.01113
1.44531E+07 5.01176
1.44609E+07 5.01238
1.44688E+07 5.01300
1.44766E+07 5.01362
1.44844E+07 5.01424
1.44922E+07 5.01486
1.45000E+07 5.01549
1.45078E+07 5.01609
1.45156E+07 5.01669
1.45234E+07 5.01730
1.45313E+07 5.01790
1.45391E+07 5.01850
1.45469E+07 5.01910
1.45547E+07 5.01971
1.45625E+07 5.02031
1.45703E+07 5.02091
1.45781E+07 5.02152
1.45859E+07 5.02212
1.45938E+07 5.02272
1.46016E+07 5.02333
1.46094E+07 5.02393
1.46172E+07 5.02453
1.46250E+07 5.02514
1.46328E+07 5.02574
1.46406E+07 5.02635
1.46484E+07 5.02695
1.46563E+07 5.02755
1.46641E+07 5.02816
1.46719E+07 5.02876
1.46797E+07 5.02936
1.46875E+07 5.02997
1.46953E+07 5.03057
1.47031E+07 5.03118
1.47109E+07 5.03178
1.47188E+07 5.03238
1.47266E+07 5.03299
1.47344E+07 5.03359
1.47422E+07 5.03420
1.47500E+07 5.03480
1.47578E+07 5.03541
1.47656E+07 5.03601
1.47734E+07 5.03662
1.47813E+07 5.03722
1.47891E+07 5.03783
1.47969E+07 5.03843
1.48047E+07 5.03903
1.48125E+07 5.03964
1.48203E+07 5.04025
1.48281E+07 5.04085
1.48359E+07 5.04146
1.48438E+07 5.04206
1.48516E+07 5.04267
1.48594E+07 5.04327
1.48672E+07 5.04388
1.48750E+07 5.04448
1.48828E+07 5.04509
1.48906E+07 5.04569
1.48984E+07 5.04630
1.49063E+07 5.04691
1.49141E+07 5.04751
1.49219E+07 5.04812
1.49297E+07 5.04872
1.49375E+07 5.04933
1.49453E+07 5.04994
1.49531E+07 5.05054
1.49609E+07 5.05115
1.49688E+07 5.05176
1.49766E+07 5.05236
1.49844E+07 5.05297
1.49922E+07 5.05358
1.50000E+07 5.05418
1.50247E+07 5.05569
1.50494E+07 5.05720
1.50740E+07 5.05871
1.50987E+07 5.06022
1.51234E+07 5.06173
1.51481E+07 5.06324
1.51727E+07 5.06476
1.51974E+07 5.06627
1.51974E+07 5.06627
1.52154E+07 5.06734
1.52334E+07 5.06841
1.52514E+07 5.06948
1.52694E+07 5.07056
1.52874E+07 5.07163
1.53054E+07 5.07270
1.53234E+07 5.07377
1.53414E+07 5.07485
1.53594E+07 5.07592
1.53774E+07 5.07700
1.53954E+07 5.07807
1.54134E+07 5.07915
1.54314E+07 5.08023
1.54494E+07 5.08130
1.54674E+07 5.08238
1.54854E+07 5.08346
1.55034E+07 5.08454
1.55214E+07 5.08562
1.55394E+07 5.08670
1.55574E+07 5.08778
1.55754E+07 5.08886
1.55933E+07 5.08995
1.56113E+07 5.09103
1.56293E+07 5.09211
1.56473E+07 5.09320
1.56653E+07 5.09429
1.56833E+07 5.09537
1.57013E+07 5.09646
1.57193E+07 5.09755
1.57373E+07 5.09864
1.57553E+07 5.09973
1.57733E+07 5.10082
1.58146E+07 5.10326
1.58378E+07 5.10461
1.58610E+07 5.10597
1.58841E+07 5.10733
1.59073E+07 5.10869
1.59305E+07 5.11005
1.59537E+07 5.11141
1.59768E+07 5.11278
1.60000E+07 5.11414
1.60313E+07 5.11281
1.60625E+07 5.11149
1.60938E+07 5.11017
1.61250E+07 5.10886
1.61563E+07 5.10755
1.61875E+07 5.10625
1.62188E+07 5.10495
1.62500E+07 5.10365
1.62813E+07 5.10237
1.63125E+07 5.10108
1.63438E+07 5.09981
1.63750E+07 5.09853
1.64063E+07 5.09727
1.64375E+07 5.09600
1.64688E+07 5.09474
1.65000E+07 5.09349
1.65313E+07 5.09225
1.65625E+07 5.09100
1.65938E+07 5.08977
1.66250E+07 5.08854
1.66563E+07 5.08731
1.66875E+07 5.08609
1.67188E+07 5.08487
1.67500E+07 5.08366
1.67813E+07 5.08246
1.68125E+07 5.08126
1.68438E+07 5.08007
1.68750E+07 5.07888
1.69063E+07 5.07770
1.69375E+07 5.07652
1.69688E+07 5.07535
1.70000E+07 5.07419
1.70625E+07 5.07173
1.71250E+07 5.06928
1.71875E+07 5.06686
1.72500E+07 5.06444
1.73125E+07 5.06205
1.73750E+07 5.05967
1.74375E+07 5.05730
1.75000E+07 5.05495
1.75625E+07 5.05262
1.76250E+07 5.05031
1.76875E+07 5.04802
1.77500E+07 5.04574
1.78125E+07 5.04348
1.78750E+07 5.04124
1.79375E+07 5.03902
1.80000E+07 5.03681
1.80625E+07 5.02671
1.81250E+07 5.01664
1.81875E+07 5.00663
1.82500E+07 4.99665
1.83125E+07 4.98673
1.83750E+07 4.97685
1.84375E+07 4.96701
1.85000E+07 4.95722
1.85625E+07 4.94748
1.86250E+07 4.93778
1.86875E+07 4.92813
1.87500E+07 4.91852
1.88125E+07 4.90895
1.88750E+07 4.89943
1.89375E+07 4.88996
1.90000E+07 4.88053
1.91250E+07 4.86205
1.92500E+07 4.84373
1.93750E+07 4.82554
1.95000E+07 4.80750
1.96250E+07 4.78960
1.97500E+07 4.77184
1.98750E+07 4.75422
2.00000E+07 4.73675
