Xe-130(n,tot) ENDFB-8.0
Energy(eV) XS(b)
1.00000E-05 296.923
1.03125E-05 292.407
1.06250E-05 288.092
1.09375E-05 283.963
1.12500E-05 280.008
1.15625E-05 276.215
1.18750E-05 272.572
1.21875E-05 269.071
1.25000E-05 265.702
1.28125E-05 262.457
1.31250E-05 259.329
1.34375E-05 256.311
1.37500E-05 253.397
1.43750E-05 247.856
1.50000E-05 242.666
1.56250E-05 237.791
1.62500E-05 233.201
1.68750E-05 228.869
1.75000E-05 224.771
1.81250E-05 220.887
1.87500E-05 217.200
1.93750E-05 213.693
2.00000E-05 210.353
2.09375E-05 205.625
2.18750E-05 201.206
2.28125E-05 197.063
2.37500E-05 193.168
2.46875E-05 189.498
2.56250E-05 186.032
2.65625E-05 182.751
2.75000E-05 179.640
2.84375E-05 176.685
2.93750E-05 173.873
3.03125E-05 171.193
3.12500E-05 168.635
3.21875E-05 166.190
3.31250E-05 163.849
3.40625E-05 161.607
3.50000E-05 159.455
3.59375E-05 157.389
3.68750E-05 155.402
3.78125E-05 153.490
3.87500E-05 151.648
3.96875E-05 149.872
4.06250E-05 148.158
4.25000E-05 144.903
4.43750E-05 141.857
4.62500E-05 138.999
4.81250E-05 136.311
5.00000E-05 133.776
5.15625E-05 131.771
5.31250E-05 129.855
5.46875E-05 128.023
5.62500E-05 126.267
5.78125E-05 124.584
5.93750E-05 122.969
6.09375E-05 121.416
6.25000E-05 119.922
6.40625E-05 118.484
6.56250E-05 117.097
6.71875E-05 115.760
6.87500E-05 114.469
7.18750E-05 112.015
7.50000E-05 109.717
7.81250E-05 107.559
8.12500E-05 105.528
8.43750E-05 103.612
8.75000E-05 101.800
9.06250E-05 100.084
9.37500E-05 98.4551
9.68750E-05 96.9063
0.000100000 95.4314
0.000103125 94.0247
0.000106250 92.6811
0.000109375 91.3961
0.000112500 90.1656
0.000115625 88.9858
0.000118750 87.8534
0.000121875 86.7653
0.000125000 85.7188
0.000128125 84.7112
0.000131250 83.7402
0.000134375 82.8037
0.000137500 81.8996
0.000143750 80.1819
0.000150000 78.5740
0.000156250 77.0648
0.000162500 75.6446
0.000168750 74.3051
0.000175000 73.0390
0.000181250 71.8399
0.000187500 70.7021
0.000193750 69.6206
0.000200000 68.5909
0.000209375 67.1350
0.000218750 65.7752
0.000228125 64.5014
0.000237500 63.3049
0.000246875 62.1784
0.000256250 61.1153
0.000265625 60.1099
0.000275000 59.1572
0.000284375 58.2528
0.000293750 57.3928
0.000303125 56.5738
0.000312500 55.7925
0.000321875 55.0462
0.000331250 54.3324
0.000340625 53.6488
0.000350000 52.9934
0.000359375 52.3642
0.000368750 51.7597
0.000378125 51.1782
0.000387500 50.6183
0.000396875 50.0787
0.000406250 49.5583
0.000425000 48.5705
0.000443750 47.6472
0.000462500 46.7817
0.000481250 45.9682
0.000500000 45.2018
0.000515625 44.5959
0.000531250 44.0175
0.000546875 43.4645
0.000562500 42.9351
0.000578125 42.4278
0.000593750 41.9409
0.000609375 41.4733
0.000625000 41.0237
0.000640625 40.5909
0.000656250 40.1740
0.000671875 39.7719
0.000687500 39.3839
0.000718750 38.6469
0.000750000 37.9572
0.000781250 37.3101
0.000812500 36.7014
0.000843750 36.1273
0.000875000 35.5849
0.000906250 35.0712
0.000937500 34.5839
0.000968750 34.1207
0.00100000 33.6797
0.00103125 33.2593
0.00106250 32.8579
0.00109375 32.4741
0.00112500 32.1066
0.00115625 31.7544
0.00118750 31.4163
0.00121875 31.0916
0.00125000 30.7793
0.00128125 30.4786
0.00131250 30.1890
0.00134375 29.9096
0.00137500 29.6399
0.00143750 29.1276
0.00150000 28.6481
0.00156250 28.1980
0.00162500 27.7745
0.00168750 27.3751
0.00175000 26.9975
0.00181250 26.6399
0.00187500 26.3005
0.00193750 25.9779
0.00200000 25.6707
0.00209375 25.2362
0.00218750 24.8304
0.00228125 24.4500
0.00237500 24.0927
0.00246875 23.7562
0.00256250 23.4384
0.00265625 23.1379
0.00275000 22.8530
0.00284375 22.5824
0.00293750 22.3250
0.00303125 22.0798
0.00312500 21.8458
0.00321875 21.6222
0.00331250 21.4083
0.00340625 21.2033
0.00350000 21.0067
0.00359375 20.8179
0.00368750 20.6364
0.00378125 20.4618
0.00387500 20.2936
0.00396875 20.1314
0.00406250 19.9750
0.00425000 19.6779
0.00443750 19.3999
0.00462500 19.1392
0.00481250 18.8940
0.00500000 18.6628
0.00515625 18.4799
0.00531250 18.3052
0.00546875 18.1382
0.00562500 17.9781
0.00578125 17.8247
0.00593750 17.6774
0.00609375 17.5358
0.00625000 17.3996
0.00640625 17.2685
0.00656250 17.1421
0.00671875 17.0201
0.00687500 16.9024
0.00718750 16.6786
0.00750000 16.4691
0.00781250 16.2723
0.00812500 16.0870
0.00843750 15.9122
0.00875000 15.7469
0.00906250 15.5902
0.00937500 15.4415
0.00968750 15.3001
0.0100000 15.1654
0.0103125 15.0369
0.0106250 14.9141
0.0109375 14.7967
0.0112500 14.6842
0.0115625 14.5764
0.0118750 14.4728
0.0121875 14.3733
0.0125000 14.2775
0.0128125 14.1853
0.0131250 14.0964
0.0134375 14.0107
0.0137500 13.9279
0.0143750 13.7705
0.0150000 13.6230
0.0156250 13.4846
0.0162500 13.3542
0.0168750 13.2311
0.0175000 13.1147
0.0181250 13.0044
0.0187500 12.8997
0.0193750 12.8001
0.0200000 12.7052
0.0206625 12.6094
0.0213250 12.5181
0.0219875 12.4310
0.0226500 12.3477
0.0233125 12.2680
0.0239750 12.1916
0.0246375 12.1184
0.0253000 12.0480
0.0264578 11.9315
0.0276156 11.8224
0.0287734 11.7200
0.0299313 11.6235
0.0310891 11.5326
0.0322469 11.4466
0.0334047 11.3651
0.0345625 11.2877
0.0355274 11.2262
0.0364922 11.1670
0.0374570 11.1102
0.0384219 11.0555
0.0393867 11.0029
0.0403516 10.9521
0.0413164 10.9032
0.0422813 10.8559
0.0442109 10.7660
0.0461406 10.6818
0.0480703 10.6027
0.0500000 10.5282
0.0515625 10.4710
0.0531250 10.4163
0.0546875 10.3640
0.0562500 10.3139
0.0578125 10.2658
0.0593750 10.2197
0.0609375 10.1753
0.0625000 10.1326
0.0640625 10.0914
0.0656250 10.0518
0.0671875 10.0135
0.0687500 9.97656
0.0718750 9.90628
0.0750000 9.84040
0.0781250 9.77847
0.0812500 9.72012
0.0843750 9.66503
0.0875000 9.61289
0.0906250 9.56346
0.0937500 9.51650
0.0968750 9.47182
0.100000 9.42924
0.103125 9.38859
0.106250 9.34974
0.109375 9.31255
0.112500 9.27690
0.115625 9.24270
0.118750 9.20984
0.121875 9.17825
0.125000 9.14784
0.128125 9.11854
0.131250 9.09029
0.134375 9.06303
0.137500 9.03670
0.143750 8.98659
0.150000 8.93957
0.156250 8.89534
0.162500 8.85364
0.168750 8.81424
0.175000 8.77694
0.181250 8.74155
0.187500 8.70791
0.193750 8.67587
0.200000 8.64533
0.204688 8.62334
0.209375 8.60209
0.218750 8.56160
0.228125 8.52354
0.237500 8.48768
0.246875 8.45382
0.256250 8.42179
0.265625 8.39142
0.275000 8.36257
0.284375 8.33511
0.293750 8.30892
0.303125 8.28392
0.312500 8.26001
0.321875 8.23711
0.331250 8.21515
0.340625 8.19407
0.350000 8.17380
0.359375 8.15429
0.368750 8.13550
0.378125 8.11738
0.387500 8.09989
0.396875 8.08300
0.406250 8.06669
0.425000 8.03559
0.443750 8.00632
0.462500 7.97874
0.500000 7.92808
0.531250 7.88976
0.562500 7.85435
0.593750 7.82154
0.625000 7.79102
0.687500 7.73578
0.750000 7.68689
0.812500 7.64314
0.875000 7.60367
0.937500 7.56768
1.00000 7.53455
1.06250 7.50394
1.12500 7.47549
1.18750 7.44893
1.25000 7.42402
1.37500 7.37840
1.50000 7.33741
1.62500 7.30018
1.75000 7.26608
1.87500 7.23456
2.00000 7.20515
2.18750 7.16450
2.37500 7.12729
2.56250 7.09292
2.75000 7.06095
2.93750 7.03098
3.12500 7.00272
3.31250 6.97597
3.50000 6.95054
3.68750 6.92629
3.87500 6.90309
4.06250 6.88082
4.25000 6.85942
4.62500 6.81886
5.00000 6.78092
5.31250 6.75103
5.62500 6.72248
5.93750 6.69517
6.25000 6.66895
6.56250 6.64374
6.87500 6.61944
7.18750 6.59598
7.50000 6.57330
7.81250 6.55133
8.12500 6.53003
8.43750 6.50935
8.75000 6.48927
9.37500 6.45071
10.0000 6.41408
10.6250 6.37920
11.2500 6.34590
11.8750 6.31404
12.5000 6.28349
13.1250 6.25416
13.7500 6.22594
14.3750 6.19877
15.0000 6.17255
15.6250 6.14724
16.2500 6.12277
16.8750 6.09909
17.5000 6.07615
18.1250 6.05390
18.7500 6.03232
19.3750 6.01136
20.0000 5.99100
20.9375 5.96149
21.8750 5.93313
22.8125 5.90585
23.7500 5.87958
24.6875 5.85423
25.6250 5.82976
26.5625 5.80610
27.5000 5.78320
28.4375 5.76102
29.3750 5.73951
30.3125 5.71863
31.2500 5.69834
32.1875 5.67862
33.1250 5.65942
34.0625 5.64072
35.0000 5.62248
35.9375 5.60470
36.8750 5.58734
38.7500 5.55379
40.6250 5.52165
42.5000 5.49080
44.3750 5.46110
46.2500 5.43242
48.1250 5.40467
50.0000 5.37775
51.5625 5.35587
53.1250 5.33446
54.6875 5.31346
56.2500 5.29282
57.8125 5.27251
59.3750 5.25247
60.9375 5.23266
62.5000 5.21305
64.4531 5.18873
66.4063 5.16454
68.3594 5.14037
70.3125 5.11613
71.4844 5.10148
72.6563 5.08672
73.8281 5.07183
75.0000 5.05677
76.1719 5.04143
77.3438 5.02587
78.5156 5.00991
79.6875 4.99355
80.8594 4.97665
81.4453 4.96798
82.0313 4.95914
82.6172 4.95009
83.2031 4.94083
83.7891 4.93136
84.3750 4.92162
85.1563 4.90819
85.5469 4.90127
85.9375 4.89417
86.3281 4.88690
86.7188 4.87945
87.1094 4.87179
87.5000 4.86392
87.9883 4.85374
88.4766 4.84316
88.9649 4.83212
89.4531 4.82056
89.6973 4.81458
89.9414 4.80844
90.1856 4.80215
90.4297 4.79568
90.6738 4.78904
90.9180 4.78221
91.1621 4.77518
91.4063 4.76793
91.6748 4.75968
91.9434 4.75113
92.2119 4.74225
92.4805 4.73303
92.7490 4.72344
93.0176 4.71344
93.2861 4.70301
93.5547 4.69212
93.7866 4.68230
94.0186 4.67210
94.2505 4.66147
94.3665 4.65599
94.4824 4.65040
94.5984 4.64469
94.7144 4.63887
94.8303 4.63292
94.9463 4.62685
95.0623 4.62066
95.1782 4.61434
95.2942 4.60789
95.4102 4.60131
95.5444 4.59353
95.6787 4.58559
95.8130 4.57748
95.9473 4.56923
96.0816 4.56084
96.2158 4.55234
96.3501 4.54376
96.4844 4.53514
96.6187 4.52653
96.6858 4.52226
96.7529 4.51802
96.8201 4.51382
96.8872 4.50969
96.9544 4.50564
97.0215 4.50169
97.0886 4.49786
97.1558 4.49419
97.2229 4.49069
97.2901 4.48742
97.3572 4.48441
97.4243 4.48171
97.4915 4.47939
97.5586 4.47750
97.6257 4.47614
97.6929 4.47540
97.7600 4.47538
97.8272 4.47624
97.8943 4.47811
97.9614 4.48120
98.0286 4.48573
98.0957 4.49197
98.1629 4.50025
98.2300 4.51097
98.2971 4.52464
98.3307 4.53276
98.3643 4.54185
98.3978 4.55202
98.4314 4.56337
98.4650 4.57603
98.4986 4.59013
98.5321 4.60584
98.5657 4.62334
98.5993 4.64282
98.6328 4.66451
98.6786 4.69815
98.7244 4.73719
98.7702 4.78258
98.8159 4.83547
98.8388 4.86517
98.8617 4.89731
98.8846 4.93213
98.9075 4.96986
98.9304 5.01084
98.9533 5.05538
98.9762 5.10386
98.9990 5.15670
99.0326 5.24320
99.0662 5.34207
99.0997 5.45568
99.1165 5.51895
99.1333 5.58707
99.1501 5.66065
99.1669 5.74023
99.1837 5.82662
99.2005 5.92058
99.2172 6.02323
99.2340 6.13566
99.2508 6.25937
99.2676 6.39614
99.2836 6.54093
99.2996 6.70172
99.3157 6.88129
99.3317 7.08294
99.3477 7.31078
99.3637 7.56936
99.3797 7.86462
99.3878 8.02814
99.3958 8.20357
99.4038 8.39224
99.4118 8.59490
99.4198 8.81308
99.4278 9.04823
99.4358 9.30191
99.4438 9.57583
99.4518 9.87185
99.4599 10.1920
99.4679 10.5389
99.4759 10.9141
99.4839 11.3205
99.4919 11.7610
99.4999 12.2386
99.5079 12.7563
99.5159 13.3178
99.5239 13.9267
99.5323 14.6205
99.5407 15.3747
99.5491 16.1954
99.5575 17.0881
99.5659 18.0598
99.5743 19.1146
99.5827 20.2601
99.5911 21.5033
99.5995 22.8532
99.6079 24.3143
99.6163 25.8960
99.6247 27.6068
99.6330 29.4552
99.6414 31.4502
99.6498 33.6009
99.6582 35.9169
99.6666 38.4107
99.6750 41.0862
99.6834 43.9561
99.6918 47.0302
99.7002 50.3226
99.7086 53.8350
99.7170 57.5810
99.7254 61.5698
99.7338 65.8158
99.7421 70.3175
99.7505 75.0880
99.7589 80.1346
99.7673 85.4708
99.7757 91.0899
99.7841 97.0031
99.7925 103.214
99.8039 112.177
99.8154 121.696
99.8268 131.786
99.8383 142.422
99.8497 153.612
99.8612 165.317
99.8726 177.534
99.8841 190.210
99.8993 207.781
99.9146 225.996
99.9314 246.663
99.9344 250.467
99.9428 260.996
99.9512 271.581
99.9680 292.872
99.9848 314.041
100.000 332.950
100.024 361.179
100.047 387.044
100.059 398.976
100.071 409.981
100.083 420.154
100.094 429.311
100.106 437.371
100.118 444.210
100.135 452.022
100.147 456.016
100.160 458.503
100.170 459.429
100.174 459.515
100.188 458.637
100.201 456.019
100.218 450.123
100.229 445.106
100.240 439.148
100.256 427.803
100.273 414.312
100.290 399.016
100.307 382.103
100.328 358.517
100.349 333.471
100.366 313.007
100.383 292.354
100.416 251.044
100.433 230.859
100.450 211.300
100.467 192.534
100.483 174.799
100.499 159.441
100.514 145.087
100.529 131.668
100.537 125.317
100.544 119.204
100.552 113.332
100.560 107.698
100.567 102.300
100.575 97.1366
100.582 92.2039
100.590 87.4982
100.598 83.0148
100.605 78.7490
100.614 74.2805
100.622 70.0632
100.630 66.0889
100.639 62.3918
100.647 58.8742
100.655 55.5727
100.664 52.4779
100.672 49.6138
100.681 46.9020
100.689 44.3688
100.697 42.0050
100.706 39.8266
100.714 37.7722
100.722 35.8604
100.731 34.0827
100.739 32.4496
100.745 31.4494
100.750 30.5132
100.755 29.6035
100.761 28.7524
100.766 27.9257
100.771 27.1525
100.782 25.7123
100.793 24.3919
100.803 23.2039
100.814 22.1146
100.824 21.1342
100.835 20.2346
100.846 19.4166
100.857 18.6722
100.867 18.0000
100.878 17.3807
100.888 16.8199
100.899 16.3016
100.910 15.8306
100.918 15.4845
100.927 15.1602
100.935 14.8560
100.943 14.5735
100.952 14.3045
100.960 14.0510
100.968 13.8118
100.977 13.5883
100.994 13.1713
101.010 12.7978
101.027 12.4571
101.044 12.1484
101.061 11.8639
101.077 11.6036
101.094 11.3614
101.111 11.1379
101.128 10.9283
101.144 10.7336
101.161 10.5499
101.178 10.3783
101.195 10.2155
101.211 10.0619
101.228 9.91650
101.245 9.77951
101.278 9.52502
101.312 9.29433
101.345 9.08422
101.379 8.89204
101.412 8.71559
101.446 8.55303
101.475 8.42232
101.504 8.30038
101.533 8.18562
101.562 8.07814
101.591 7.97662
101.620 7.88123
101.648 7.79113
101.677 7.70592
101.706 7.62493
101.735 7.54839
101.764 7.47571
101.793 7.40661
101.822 7.34061
101.851 7.27795
101.909 7.16112
101.942 7.09812
101.976 7.03828
102.009 6.98136
102.043 6.92717
102.076 6.87551
102.110 6.82623
102.177 6.73416
102.244 6.64987
102.311 6.57244
102.378 6.50109
102.445 6.43514
102.487 6.39565
102.530 6.35809
102.615 6.28786
102.701 6.22360
102.786 6.16467
102.871 6.11031
102.956 6.06012
103.042 6.01354
103.127 5.97028
103.194 5.93829
103.261 5.90804
103.328 5.87933
103.395 5.85207
103.462 5.82613
103.529 5.80144
103.596 5.77790
103.663 5.75543
103.730 5.73396
103.797 5.71343
103.931 5.67494
104.065 5.63953
104.199 5.60685
104.333 5.57657
104.467 5.54846
104.601 5.52228
104.735 5.49783
104.869 5.47494
105.003 5.45347
105.137 5.43330
105.271 5.41430
105.405 5.39634
105.539 5.37935
105.673 5.36325
105.807 5.34795
105.941 5.33341
106.075 5.31956
106.209 5.30636
106.343 5.29375
106.477 5.28170
106.611 5.27016
106.745 5.25910
106.879 5.24849
107.147 5.22849
107.415 5.20996
107.683 5.19272
107.951 5.17663
108.219 5.16155
108.487 5.14738
108.755 5.13402
109.023 5.12140
109.291 5.10944
109.559 5.09810
109.827 5.08731
110.095 5.07699
110.363 5.06712
110.631 5.05766
110.899 5.04858
111.167 5.03986
111.435 5.03146
111.703 5.02336
111.971 5.01553
112.239 5.00797
112.775 4.99354
113.311 4.97993
113.847 4.96705
114.262 4.95754
114.676 4.94837
115.090 4.93951
115.504 4.93094
116.333 4.91459
117.161 4.89906
117.989 4.88427
118.818 4.87012
119.646 4.85650
120.474 4.84335
121.352 4.82986
122.229 4.81677
123.106 4.80400
123.983 4.79157
124.860 4.77932
125.737 4.76732
126.614 4.75545
127.491 4.74380
128.369 4.73223
129.246 4.72083
131.000 4.69825
132.754 4.67594
134.508 4.65380
136.068 4.63419
137.627 4.61459
139.479 4.59125
141.330 4.56775
143.182 4.54408
145.034 4.52012
146.886 4.49596
148.737 4.47125
150.589 4.44627
152.441 4.42072
156.144 4.36809
159.847 4.31270
161.699 4.28378
163.551 4.25407
165.403 4.22363
167.254 4.19209
169.398 4.15405
171.542 4.11445
173.687 4.07305
175.831 4.02961
177.975 3.98410
180.119 3.93608
182.263 3.88540
184.407 3.83185
186.356 3.78019
187.331 3.75331
188.305 3.72550
189.280 3.69705
190.254 3.66757
192.203 3.60594
193.178 3.57343
194.153 3.53999
195.127 3.50541
196.102 3.46939
197.076 3.43236
198.051 3.39373
199.026 3.35393
200.000 3.31231
201.256 3.25622
202.511 3.19717
203.766 3.13485
205.022 3.06897
205.649 3.03463
206.277 2.99922
206.905 2.96289
207.533 2.92553
208.160 2.88686
208.788 2.84697
209.416 2.80582
210.043 2.76334
210.856 2.70629
211.668 2.64678
212.480 2.58466
213.293 2.51975
214.105 2.45188
214.917 2.38090
215.730 2.30661
216.542 2.22884
217.280 2.15496
218.019 2.07791
218.388 2.03817
218.757 1.99760
219.127 1.95619
219.496 1.91393
219.865 1.87081
220.234 1.82684
220.604 1.78201
220.973 1.73634
221.342 1.68984
221.711 1.64256
222.081 1.59453
222.450 1.54572
222.856 1.49122
223.262 1.43599
223.668 1.38017
224.075 1.32393
224.481 1.26748
224.887 1.21112
225.293 1.15516
225.699 1.10008
226.050 1.05363
226.401 1.00869
226.752 0.965826
227.102 0.925722
227.453 0.889186
227.804 0.857227
227.979 0.843322
228.155 0.831055
228.330 0.820656
228.505 0.812373
228.644 0.807488
228.782 0.804213
228.921 0.802698
229.059 0.803112
229.198 0.805643
229.267 0.807770
229.336 0.810503
229.405 0.813880
229.475 0.817919
229.544 0.822658
229.613 0.828129
229.692 0.835265
229.770 0.843440
229.849 0.852711
229.927 0.863122
230.005 0.874764
230.084 0.887674
230.162 0.901958
230.202 0.909622
230.241 0.917653
230.275 0.925077
230.310 0.932782
230.345 0.940795
230.379 0.949124
230.409 0.956607
230.416 0.958364
230.432 0.962539
230.490 0.978015
230.548 0.994464
230.605 1.01193
230.663 1.03045
230.721 1.05003
230.767 1.06656
230.813 1.08384
230.859 1.10191
230.905 1.12075
230.952 1.14046
230.998 1.16099
231.044 1.18246
231.090 1.20481
231.136 1.22816
231.182 1.25244
231.229 1.27780
231.275 1.30416
231.321 1.33167
231.367 1.36025
231.413 1.39007
231.459 1.42103
231.519 1.46329
231.579 1.50771
231.639 1.55446
231.699 1.60366
231.759 1.65541
231.819 1.70985
231.879 1.76711
231.939 1.82732
231.990 1.88072
232.041 1.93643
232.092 1.99455
232.142 2.05507
232.193 2.11832
232.244 2.18417
232.295 2.25299
232.345 2.32464
232.396 2.39953
232.447 2.47765
232.498 2.55915
232.549 2.64401
232.599 2.73271
232.650 2.82527
232.701 2.92185
232.752 3.02244
232.802 3.12763
232.853 3.23744
232.904 3.35208
232.955 3.47154
233.006 3.59653
233.056 3.72682
233.107 3.86320
233.158 4.00540
233.209 4.15430
233.259 4.30994
233.310 4.47267
233.361 4.64250
233.412 4.82048
233.462 5.00671
233.513 5.20159
233.564 5.40520
233.615 5.61881
233.666 5.84257
233.716 6.07701
233.767 6.32225
233.818 6.57987
233.869 6.84954
233.919 7.13304
233.970 7.43002
234.021 7.74247
234.072 8.07071
234.122 8.41568
234.173 8.77767
234.224 9.15920
234.275 9.56075
234.326 9.98357
234.376 10.4281
234.427 10.8977
234.478 11.3929
234.529 11.9155
234.579 12.4662
234.630 13.0493
234.681 13.6657
234.732 14.3180
234.782 15.0072
234.822 15.5694
234.861 16.1562
234.900 16.7703
234.939 17.4134
234.979 18.0889
235.018 18.7953
235.057 19.5361
235.096 20.3136
235.136 21.1321
235.175 21.9899
235.214 22.8918
235.253 23.8406
235.292 24.8421
235.332 25.8945
235.371 27.0041
235.410 28.1746
235.461 29.7896
235.512 31.5247
235.562 33.3917
235.613 35.3995
235.664 37.5707
235.715 39.9181
235.766 42.4605
235.816 45.2136
235.867 48.2128
235.918 51.4809
235.969 55.0502
236.019 58.9501
236.070 63.2392
236.121 67.9611
236.146 70.5027
236.172 73.1757
236.197 75.9893
236.222 78.9417
236.248 82.0672
236.273 85.3664
236.299 88.8527
236.324 92.5407
236.349 96.4464
236.375 100.588
236.400 104.985
236.426 109.640
236.451 114.615
236.476 119.919
236.502 125.582
236.527 131.615
236.552 138.103
236.578 145.067
236.603 152.555
236.629 160.590
236.651 168.091
236.672 176.081
236.694 184.683
236.716 193.874
236.738 203.799
236.760 214.437
236.782 225.907
236.804 238.292
236.826 251.750
236.848 266.260
236.870 281.993
236.892 299.074
236.914 317.727
236.936 337.931
236.958 359.928
236.979 383.892
237.005 414.400
237.018 430.839
237.030 448.124
237.043 466.298
237.056 485.405
237.068 505.492
237.081 526.435
237.094 548.615
237.106 571.920
237.119 596.400
237.132 622.106
237.144 649.091
237.157 677.406
237.170 707.104
237.182 737.987
237.195 770.597
237.208 804.746
237.233 877.863
237.259 957.728
237.284 1044.70
237.309 1139.09
237.335 1241.17
237.360 1351.10
237.386 1468.52
237.410 1588.73
237.434 1715.57
237.458 1849.87
237.483 1990.21
237.507 2137.27
237.531 2289.25
237.579 2606.68
237.681 3298.44
237.732 3634.10
237.757 3793.23
237.782 3943.56
237.819 4142.97
237.856 4316.43
237.892 4459.31
237.911 4518.01
237.929 4567.66
237.964 4637.08
237.982 4657.88
238.000 4669.20
238.012 4671.45
238.031 4666.05
238.051 4649.51
238.070 4621.98
238.089 4583.73
238.108 4535.09
238.128 4476.47
238.147 4408.38
238.166 4331.37
238.201 4173.96
238.235 3994.66
238.269 3797.24
238.304 3586.09
238.442 2679.30
238.477 2458.44
238.512 2246.72
238.546 2045.04
238.581 1856.13
238.611 1703.01
238.641 1560.68
238.671 1428.34
238.686 1366.10
238.701 1306.82
238.716 1249.70
238.731 1195.08
238.746 1142.92
238.761 1093.49
238.776 1046.06
238.791 1000.90
238.806 957.937
238.821 917.369
238.838 872.548
238.855 830.596
238.873 790.904
238.890 753.805
238.907 718.745
238.925 686.007
238.942 655.264
238.959 626.400
238.977 599.150
238.994 573.721
239.011 549.845
239.029 527.424
239.046 506.246
239.063 486.462
239.081 467.863
239.098 450.369
239.117 432.338
239.136 415.541
239.155 399.794
239.174 385.018
239.192 371.139
239.211 358.090
239.230 345.807
239.249 334.233
239.268 323.259
239.287 312.951
239.306 303.206
239.325 293.981
239.363 276.948
239.400 261.586
239.435 248.765
239.470 237.019
239.505 226.223
239.539 216.297
239.574 207.093
239.609 198.561
239.643 190.632
239.678 183.267
239.713 176.372
239.747 169.923
239.782 163.879
239.817 158.221
239.851 152.885
239.886 147.858
239.921 143.118
239.955 138.652
239.990 134.416
240.025 130.404
240.059 126.601
240.094 123.000
240.163 116.304
240.233 110.241
240.302 104.715
240.371 99.6752
240.441 95.0570
240.510 90.8127
240.567 87.5836
240.623 84.5633
240.680 81.7235
240.737 79.0586
240.794 76.5450
240.850 74.1791
240.907 71.9451
240.964 69.8329
241.021 67.8298
241.077 65.9346
241.134 64.1363
241.191 62.4280
241.304 59.2545
241.418 56.3764
241.487 54.7434
241.556 53.2011
241.626 51.7385
241.695 50.3538
241.764 49.0376
241.834 47.7888
241.972 45.4683
242.111 43.3606
242.250 41.4393
242.389 39.6820
242.527 38.0695
242.691 36.3287
242.855 34.7448
243.019 33.2986
243.183 31.9740
243.347 30.7571
243.511 29.6356
243.675 28.5989
243.838 27.6384
243.977 26.8785
244.116 26.1632
244.254 25.4891
244.393 24.8528
244.532 24.2515
244.671 23.6825
244.809 23.1434
244.948 22.6323
245.087 22.1465
245.225 21.6846
245.364 21.2449
245.503 20.8262
245.641 20.4266
245.780 20.0451
246.057 19.3321
246.335 18.6785
246.612 18.0776
246.889 17.5236
247.167 17.0115
247.444 16.5366
247.722 16.0952
247.999 15.6839
248.276 15.3001
248.503 15.0045
248.730 14.7245
248.957 14.4588
249.184 14.2066
249.411 13.9662
249.638 13.7371
249.865 13.5184
250.092 13.3095
250.319 13.1098
250.546 12.9189
250.999 12.5610
251.453 12.2318
251.907 11.9282
252.185 11.7539
252.462 11.5875
252.739 11.4286
253.017 11.2766
253.571 10.9915
254.126 10.7293
254.681 10.4874
255.236 10.2635
255.790 10.0556
256.345 9.86220
257.001 9.65023
257.656 9.45434
258.312 9.27275
258.967 9.10397
259.623 8.94673
260.279 8.80042
260.934 8.66278
261.590 8.53353
262.145 8.43022
262.699 8.33199
263.254 8.23843
263.809 8.14932
264.364 8.06426
264.918 7.98296
265.473 7.90523
266.028 7.83080
266.582 7.75942
267.137 7.69095
267.692 7.62521
268.247 7.56198
269.356 7.44257
270.465 7.33164
271.575 7.22827
272.684 7.13164
273.794 7.04106
274.903 6.95594
276.013 6.87572
277.122 6.79996
278.232 6.72823
279.341 6.66017
280.400 6.59860
281.459 6.53962
282.518 6.48326
283.577 6.42893
284.636 6.37703
285.695 6.32716
286.754 6.27890
287.813 6.23259
288.873 6.18781
289.932 6.14433
290.991 6.10239
292.050 6.06164
293.109 6.02192
294.168 5.98341
296.286 5.90903
297.698 5.86134
299.110 5.81493
300.522 5.76963
301.934 5.72527
303.346 5.68169
304.758 5.63877
306.170 5.59636
307.582 5.55430
309.095 5.50945
310.608 5.46461
312.121 5.41955
313.634 5.37402
314.390 5.35105
315.147 5.32782
315.903 5.30432
316.660 5.28051
317.416 5.25633
318.172 5.23174
318.929 5.20667
319.685 5.18106
320.543 5.15128
321.400 5.12057
322.257 5.08880
323.115 5.05580
323.972 5.02138
324.829 4.98538
325.687 4.94740
326.115 4.92757
326.544 4.90714
327.099 4.87971
327.653 4.85104
328.208 4.82099
328.763 4.78939
329.318 4.75604
329.872 4.72072
330.150 4.70223
330.427 4.68316
330.704 4.66344
330.982 4.64305
331.310 4.61800
331.637 4.59186
331.965 4.56454
332.293 4.53588
332.621 4.50576
332.949 4.47405
333.276 4.44061
333.604 4.40525
333.882 4.37368
334.159 4.34047
334.436 4.30544
334.714 4.26846
334.852 4.24916
334.991 4.22930
335.130 4.20884
335.268 4.18778
335.407 4.16605
335.546 4.14364
335.684 4.12052
335.823 4.09666
335.987 4.06742
336.151 4.03703
336.315 4.00542
336.479 3.97250
336.643 3.93821
336.806 3.90247
336.970 3.86522
337.052 3.84599
337.134 3.82638
337.273 3.79224
337.412 3.75689
337.550 3.72032
337.689 3.68255
337.758 3.66319
337.828 3.64356
337.897 3.62364
337.966 3.60344
338.036 3.58294
338.105 3.56223
338.174 3.54129
338.244 3.52016
338.338 3.49105
338.433 3.46176
338.527 3.43244
338.622 3.40330
338.716 3.37456
338.811 3.34662
338.858 3.33306
338.906 3.31987
338.953 3.30714
339.000 3.29497
339.069 3.27830
339.139 3.26345
339.208 3.25090
339.277 3.24131
339.347 3.23546
339.382 3.23426
339.416 3.23443
339.451 3.23613
339.486 3.23959
339.520 3.24505
339.555 3.25278
339.590 3.26318
339.624 3.27664
339.659 3.29369
339.694 3.31487
339.728 3.34108
339.763 3.37323
339.798 3.41253
339.832 3.46037
339.867 3.51898
339.902 3.59072
339.936 3.67878
339.971 3.78692
339.988 3.85056
340.006 3.92097
340.023 3.99987
340.040 4.08732
340.058 4.18547
340.075 4.29445
340.092 4.41618
340.110 4.55225
340.129 4.72030
340.148 4.90933
340.166 5.12308
340.185 5.36481
340.204 5.63819
340.223 5.94733
340.242 6.29680
340.252 6.48926
340.261 6.69167
340.270 6.90906
340.280 7.13760
340.289 7.38296
340.299 7.64081
340.308 7.91751
340.318 8.20817
340.327 8.51993
340.337 8.84723
340.346 9.19809
340.355 9.56623
340.365 9.96064
340.374 10.3742
340.384 10.8170
340.393 11.2809
340.403 11.7772
340.412 12.2969
340.426 13.0897
340.439 13.9474
340.452 14.8747
340.466 15.8762
340.479 16.9570
340.493 18.1221
340.506 19.3769
340.519 20.7271
340.533 22.1783
340.546 23.7364
340.560 25.4076
340.573 27.1981
340.586 29.1143
340.600 31.1625
340.613 33.3495
340.626 35.6638
340.641 38.4539
340.656 41.4438
340.671 44.6427
340.686 48.0364
340.701 51.6794
340.716 55.5585
340.731 59.6820
340.746 64.0280
340.762 68.9170
340.778 74.0689
340.789 77.8919
340.800 81.8307
340.811 85.9210
340.822 90.1644
340.839 97.1927
340.857 104.568
340.874 112.376
340.891 120.529
340.909 129.116
340.926 138.033
340.943 147.320
340.961 156.967
340.978 167.017
340.995 177.338
341.030 198.876
341.065 221.500
341.099 244.893
341.169 292.653
341.203 316.354
341.238 339.307
341.273 361.216
341.307 381.584
341.345 401.529
341.380 417.358
341.414 430.424
341.449 440.510
341.483 447.290
341.502 449.566
341.520 450.869
341.523 450.994
341.533 451.208
341.543 451.135
341.563 450.136
341.582 448.114
341.601 445.067
341.621 440.900
341.640 435.715
341.660 429.551
341.679 422.496
341.710 409.835
341.740 395.358
341.779 374.210
341.818 351.000
341.857 326.215
341.897 300.582
341.975 248.767
342.014 223.584
342.053 199.518
342.073 187.952
342.092 176.762
342.112 165.976
342.132 155.615
342.151 145.697
342.171 136.233
342.190 127.233
342.210 118.742
342.223 113.175
342.237 107.865
342.250 102.731
342.263 97.8466
342.277 93.1361
342.290 88.6664
342.303 84.3664
342.317 80.2964
342.330 76.3903
342.343 72.7017
342.357 69.1698
342.370 65.8419
342.383 62.6623
342.397 59.6727
342.410 56.8428
342.423 54.1667
342.433 52.2897
342.443 50.4906
342.453 48.7668
342.463 47.1161
342.472 45.5359
342.482 44.0240
342.492 42.5780
342.502 41.2093
342.511 39.8874
342.521 38.6245
342.531 37.4185
342.541 36.2670
342.551 35.1680
342.560 34.1193
342.570 33.1190
342.580 32.1744
342.590 31.2643
342.600 30.3966
342.609 29.5696
342.619 28.7815
342.629 28.0304
342.639 27.3148
342.649 26.6330
342.658 25.9900
342.668 25.3708
342.678 24.7810
342.688 24.2191
342.697 23.6837
342.707 23.1735
342.717 22.6873
342.737 21.7866
342.756 20.9633
342.776 20.2140
342.795 19.5314
342.815 18.9117
342.834 18.3422
342.854 17.8209
342.874 17.3427
342.893 16.9052
342.913 16.5000
342.932 16.1257
342.952 15.7791
342.971 15.4590
342.991 15.1595
343.011 14.8800
343.030 14.6186
343.050 14.3746
343.069 14.1439
343.089 13.9265
343.109 13.7212
343.128 13.5267
343.148 13.3422
343.167 13.1668
343.206 12.8410
343.246 12.5425
343.285 12.2688
343.324 12.0152
343.363 11.7803
343.402 11.5609
343.441 11.3562
343.481 11.1637
343.520 10.9832
343.559 10.8126
343.598 10.6518
343.637 10.4993
343.676 10.3552
343.715 10.2179
343.755 10.0878
343.794 9.96360
343.833 9.84550
343.872 9.73250
343.911 9.62480
343.989 9.42289
344.068 9.23745
344.146 9.06651
344.224 8.90843
344.303 8.76179
344.360 8.66154
344.417 8.56647
344.474 8.47586
344.530 8.38971
344.587 8.30741
344.644 8.22896
344.701 8.15385
344.758 8.08211
344.872 7.94740
344.986 7.82337
345.100 7.70877
345.214 7.60254
345.292 7.53381
345.371 7.46844
345.449 7.40612
345.527 7.34662
345.605 7.28976
345.684 7.23535
345.762 7.18325
345.840 7.13330
345.997 7.03932
346.154 6.95246
346.310 6.87192
346.467 6.79700
346.652 6.71487
346.837 6.63893
347.022 6.56846
347.207 6.50285
347.392 6.44159
347.577 6.38421
347.762 6.33030
347.947 6.27953
348.104 6.23876
348.261 6.19987
348.417 6.16270
348.574 6.12714
348.731 6.09305
348.887 6.06033
349.200 5.99864
349.514 5.94137
349.827 5.88796
350.140 5.83792
350.453 5.79084
350.667 5.76024
350.880 5.73076
351.307 5.67481
351.735 5.62235
352.162 5.57289
352.589 5.52591
353.016 5.48102
353.443 5.43793
353.870 5.39636
354.326 5.35341
354.781 5.31162
355.237 5.27074
355.693 5.23055
356.262 5.18094
356.832 5.13167
357.401 5.08233
357.971 5.03256
358.255 5.00738
358.540 4.98195
358.825 4.95620
359.110 4.93010
359.394 4.90356
359.679 4.87657
359.964 4.84904
360.248 4.82089
360.562 4.78910
360.875 4.75639
361.188 4.72262
361.501 4.68768
361.815 4.65142
362.128 4.61372
362.441 4.57439
362.754 4.53326
363.039 4.49412
363.324 4.45316
363.609 4.41016
363.751 4.38783
363.893 4.36493
364.036 4.34140
364.178 4.31722
364.320 4.29237
364.463 4.26681
364.605 4.24048
364.747 4.21339
364.890 4.18543
365.032 4.15662
365.189 4.12381
365.345 4.08983
365.502 4.05460
365.659 4.01804
365.815 3.98009
365.972 3.94069
366.128 3.89975
366.285 3.85721
366.442 3.81299
366.520 3.79026
366.598 3.76709
366.677 3.74349
366.755 3.71945
366.833 3.69498
366.912 3.67007
366.990 3.64473
367.068 3.61898
367.146 3.59282
367.225 3.56627
367.303 3.53937
367.381 3.51215
367.460 3.48465
367.538 3.45693
367.623 3.42650
367.709 3.39605
367.794 3.36570
367.880 3.33566
367.965 3.30613
368.051 3.27751
368.136 3.25019
368.221 3.22468
368.300 3.20347
368.378 3.18507
368.417 3.17718
368.456 3.17036
368.496 3.16472
368.535 3.16047
368.574 3.15781
368.613 3.15697
368.652 3.15823
368.691 3.16192
368.730 3.16845
368.770 3.17825
368.809 3.19197
368.848 3.21024
368.880 3.22928
368.912 3.25254
368.944 3.28089
368.976 3.31505
369.008 3.35633
369.040 3.40585
369.072 3.46540
369.104 3.53707
369.136 3.62376
369.168 3.72817
369.200 3.85454
369.232 4.00786
369.248 4.09707
369.264 4.19490
369.280 4.30287
369.296 4.42209
369.312 4.55377
369.328 4.69924
369.344 4.86000
369.360 5.03767
369.380 5.28101
369.400 5.55610
369.419 5.86704
369.429 6.03736
369.439 6.21839
369.449 6.41079
369.458 6.61525
369.468 6.83248
369.478 7.06325
369.488 7.30835
369.498 7.56863
369.507 7.84496
369.517 8.13520
369.527 8.44627
369.537 8.77629
369.546 9.12632
369.556 9.49746
369.566 9.89086
369.576 10.3077
369.586 10.7493
369.595 11.2121
369.605 11.7068
369.615 12.2303
369.625 12.7841
369.635 13.3696
369.644 13.9885
369.654 14.6423
369.664 15.3328
369.674 16.0540
369.684 16.8953
369.695 17.7869
369.706 18.7312
369.716 19.7213
369.727 20.7783
369.738 21.8959
369.748 23.0768
369.759 24.3120
369.770 25.6275
369.780 27.0151
369.791 28.4776
369.802 30.0034
369.812 31.6242
369.823 33.3293
369.834 35.1217
369.844 36.9865
369.856 39.0569
369.867 41.2137
369.878 43.4784
369.889 45.8545
369.900 48.3687
369.911 50.9795
369.922 53.7122
369.933 56.5701
369.941 58.4925
369.954 62.2172
369.967 66.1078
369.981 70.2277
369.994 74.5205
370.005 78.1241
370.015 81.8640
370.037 89.7215
370.058 98.1798
370.079 107.169
370.099 115.948
370.119 125.167
370.138 134.915
370.158 145.089
370.177 155.781
370.197 166.925
370.216 178.504
370.236 190.492
370.256 202.861
370.275 215.578
370.314 241.830
370.354 269.022
370.393 296.587
370.432 324.176
370.471 351.110
370.510 376.958
370.549 401.008
370.588 422.812
370.628 441.723
370.647 449.984
370.667 457.322
370.686 463.764
370.706 469.204
370.725 473.540
370.744 476.883
370.780 480.526
370.783 480.677
370.794 480.937
370.805 480.870
370.826 479.762
370.848 477.419
370.869 473.856
370.890 468.953
370.912 462.869
370.934 455.602
370.955 447.241
370.985 434.203
371.015 419.467
371.058 395.314
371.101 368.745
371.145 340.458
371.188 311.274
371.229 283.258
371.271 255.643
371.312 228.917
371.333 216.017
371.353 203.544
371.375 190.837
371.397 178.608
371.419 166.885
371.440 155.691
371.462 145.041
371.484 134.945
371.505 125.408
371.527 116.470
371.541 111.046
371.555 105.845
371.568 100.862
371.582 96.0950
371.596 91.5398
371.610 87.1922
371.624 83.0474
371.637 79.1006
371.651 75.3464
371.665 71.7791
371.679 68.3931
371.693 65.1823
371.706 62.1407
371.720 59.2620
371.734 56.5400
371.748 53.9684
371.764 51.2008
371.779 48.6127
371.795 46.1948
371.811 43.9520
371.827 41.8466
371.842 39.8847
371.858 38.0579
371.874 36.3682
371.890 34.7864
371.906 33.3159
371.921 31.9495
371.937 30.6879
371.953 29.5084
371.969 28.4197
371.984 27.4021
372.000 26.4628
372.011 25.8500
372.022 25.2728
372.033 24.7189
372.043 24.1969
372.054 23.6958
372.065 23.2234
372.076 22.7737
372.087 22.3454
372.108 21.5453
372.130 20.8183
372.152 20.1567
372.173 19.5560
372.195 19.0042
372.217 18.4987
372.239 18.0343
372.260 17.6084
372.282 17.2131
372.304 16.8470
372.325 16.5069
372.347 16.1915
372.365 15.9472
372.382 15.7170
372.400 15.4972
372.418 15.2894
372.453 14.9013
372.489 14.5479
372.524 14.2222
372.560 13.9215
372.595 13.6424
372.631 13.3831
372.666 13.1399
372.702 12.9117
372.737 12.6970
372.773 12.4950
372.808 12.3035
372.844 12.1221
372.879 11.9499
372.914 11.7867
372.958 11.5972
373.001 11.4184
373.045 11.2493
373.088 11.0896
373.131 10.9378
373.175 10.7939
373.218 10.6567
373.261 10.5263
373.305 10.4017
373.348 10.2828
373.435 10.0606
373.522 9.85681
373.608 9.66927
373.703 9.48095
373.797 9.30766
373.892 9.14766
373.987 8.99948
374.081 8.86185
374.176 8.73367
374.270 8.61400
374.365 8.50200
374.452 8.40537
374.539 8.31420
374.625 8.22795
374.712 8.14621
374.799 8.06856
374.885 7.99486
374.972 7.92473
375.059 7.85792
375.146 7.79412
375.232 7.73328
375.319 7.67513
375.406 7.61948
375.493 7.56612
375.579 7.51502
375.753 7.41890
375.926 7.33004
376.100 7.24772
376.273 7.17115
376.446 7.09982
376.620 7.03311
376.793 6.97067
376.967 6.91204
377.140 6.85689
377.298 6.80949
377.456 6.76449
377.613 6.72171
377.771 6.68098
377.929 6.64212
378.086 6.60500
378.244 6.56953
378.402 6.53559
378.717 6.47187
379.032 6.41317
379.348 6.35886
379.663 6.30846
380.010 6.25699
380.357 6.20923
380.704 6.16474
381.051 6.12318
381.397 6.08424
381.744 6.04766
382.091 6.01321
382.438 5.98068
383.006 5.93116
383.573 5.88574
384.141 5.84378
384.709 5.80481
385.276 5.76851
385.844 5.73457
386.411 5.70273
386.979 5.67275
387.673 5.63837
388.367 5.60619
389.060 5.57595
389.754 5.54743
390.448 5.52046
391.142 5.49487
391.836 5.47051
392.529 5.44729
393.854 5.40579
395.178 5.36729
396.503 5.33142
397.827 5.29780
399.152 5.26610
400.476 5.23609
401.800 5.20753
403.125 5.18026
405.395 5.13607
407.666 5.09470
409.936 5.05548
412.207 5.01811
414.478 4.98229
416.748 4.94778
419.019 4.91440
421.289 4.88197
424.064 4.84345
426.839 4.80589
429.614 4.76913
432.389 4.73310
435.164 4.69746
437.939 4.66230
443.490 4.59263
449.040 4.52343
451.815 4.48881
454.590 4.45405
460.140 4.38393
465.690 4.31244
468.465 4.27610
471.240 4.23920
476.790 4.16336
479.566 4.12442
482.341 4.08436
485.116 4.04344
487.891 4.00159
490.918 3.95429
493.945 3.90532
496.973 3.85431
500.000 3.80111
502.986 3.74591
504.478 3.71733
505.971 3.68781
507.464 3.65728
508.956 3.62563
510.449 3.59267
511.196 3.57557
511.942 3.55796
512.858 3.53551
513.316 3.52386
513.774 3.51187
514.232 3.49943
514.690 3.48649
514.919 3.47982
515.148 3.47306
515.377 3.46648
515.491 3.46357
515.606 3.46146
515.674 3.46094
515.741 3.46137
515.809 3.46325
515.877 3.46729
515.945 3.47453
516.013 3.48631
516.047 3.49447
516.081 3.50447
516.115 3.51661
516.149 3.53123
516.183 3.54875
516.216 3.56947
516.250 3.59383
516.284 3.62230
516.318 3.65542
516.352 3.69348
516.386 3.73704
516.420 3.78656
516.454 3.84264
516.488 3.90537
516.522 3.97525
516.556 4.05257
516.590 4.13779
516.624 4.23052
516.657 4.33099
516.691 4.43906
516.715 4.51794
516.738 4.59982
516.761 4.68485
516.785 4.77282
516.831 4.95697
516.878 5.14908
516.971 5.54628
517.018 5.74388
517.065 5.93466
517.101 6.07525
517.137 6.20691
517.173 6.32837
517.209 6.43704
517.247 6.53681
517.285 6.61877
517.308 6.65935
517.332 6.69244
517.355 6.71790
517.366 6.72675
517.389 6.74050
517.400 6.74436
517.425 6.74617
517.429 6.74564
517.441 6.74247
517.453 6.73711
517.480 6.71739
517.505 6.68994
517.530 6.65397
517.552 6.61395
517.575 6.56731
517.620 6.45554
517.646 6.38102
517.672 6.29983
517.724 6.12062
517.776 5.92346
517.828 5.71435
517.896 5.43299
517.963 5.15387
517.997 5.01810
518.031 4.88646
518.065 4.75988
518.099 4.63945
518.133 4.52505
518.167 4.41748
518.201 4.31704
518.234 4.22412
518.268 4.13821
518.302 4.05951
518.336 3.98784
518.370 3.92312
518.396 3.87771
518.422 3.83594
518.448 3.79762
518.474 3.76270
518.500 3.73070
518.526 3.70159
518.552 3.67516
518.578 3.65130
518.604 3.62964
518.630 3.61009
518.682 3.57669
518.734 3.54963
518.786 3.52786
518.838 3.51026
518.889 3.49604
518.941 3.48445
518.993 3.47493
519.045 3.46699
519.097 3.46029
519.201 3.44948
519.305 3.44093
519.409 3.43374
519.617 3.42164
519.825 3.41124
520.032 3.40185
520.285 3.39129
520.538 3.38140
521.044 3.36288
521.550 3.34532
522.056 3.32825
522.851 3.30187
523.646 3.27556
524.441 3.24899
525.236 3.22196
526.031 3.19431
526.826 3.16592
527.621 3.13669
528.416 3.10651
529.211 3.07528
530.006 3.04289
530.801 3.00922
531.596 2.97414
532.391 2.93753
533.186 2.89922
533.981 2.85904
534.776 2.81681
535.499 2.77643
536.221 2.73398
536.944 2.68925
537.667 2.64199
538.390 2.59192
539.112 2.53876
539.474 2.51091
539.835 2.48217
540.196 2.45248
540.558 2.42175
540.955 2.38666
541.353 2.35017
541.750 2.31217
542.148 2.27258
542.545 2.23128
542.943 2.18817
543.340 2.14310
543.738 2.09596
544.135 2.04660
544.533 1.99488
544.732 1.96807
544.930 1.94064
545.129 1.91252
545.328 1.88374
545.527 1.85424
545.725 1.82404
545.924 1.79309
546.123 1.76142
546.322 1.72898
546.520 1.69580
546.719 1.66184
546.918 1.62715
547.117 1.59169
547.315 1.55550
547.514 1.51862
547.713 1.48112
547.912 1.44302
548.110 1.40448
548.309 1.36558
548.508 1.32654
548.707 1.28754
548.905 1.24894
549.104 1.21108
549.204 1.19260
549.303 1.17453
549.402 1.15693
549.502 1.13992
549.601 1.12361
549.700 1.10816
549.800 1.09370
549.899 1.08042
549.998 1.06851
550.098 1.05823
550.233 1.04731
550.369 1.04077
550.504 1.03962
550.640 1.04517
550.708 1.05093
550.775 1.05900
550.843 1.06964
550.911 1.08313
550.979 1.09984
551.046 1.12010
551.114 1.14441
551.182 1.17318
551.241 1.20224
551.299 1.23546
551.358 1.27335
551.417 1.31644
551.476 1.36539
551.534 1.42072
551.593 1.48327
551.652 1.55393
551.717 1.64372
551.726 1.65701
551.760 1.70921
551.792 1.76160
551.823 1.81737
551.855 1.87694
551.887 1.94058
551.930 2.03404
551.972 2.13643
552.015 2.24872
552.058 2.37203
552.101 2.50767
552.144 2.65715
552.187 2.82224
552.208 2.91149
552.230 3.00503
552.255 3.12021
552.280 3.24223
552.304 3.37271
552.329 3.51127
552.354 3.65981
552.379 3.81798
552.404 3.98803
552.429 4.16966
552.454 4.36555
552.478 4.57549
552.503 4.80269
552.528 5.04706
552.553 5.31248
552.578 5.59902
552.603 5.91011
552.615 6.07572
552.627 6.24852
552.644 6.49784
552.661 6.76092
552.678 7.04204
552.695 7.33917
552.712 7.65720
552.729 7.99387
552.746 8.35475
552.763 8.73734
552.780 9.14802
552.797 9.58396
552.814 10.0525
552.831 10.5504
552.848 11.0861
552.865 11.6560
552.882 12.2659
552.898 12.9189
552.911 13.4315
552.923 13.9664
552.936 14.5290
552.948 15.1209
552.961 15.7488
552.973 16.4042
552.985 17.0938
552.998 17.8193
553.010 18.5890
553.023 19.3925
553.035 20.2378
553.048 21.1271
553.060 22.0625
553.072 23.0464
553.085 24.0811
553.097 25.1690
553.110 26.3223
553.122 27.5251
553.134 28.7891
553.147 30.1171
553.159 31.5237
553.172 32.9893
553.184 34.5279
553.197 36.1429
553.209 37.8514
553.221 39.6295
553.234 41.4940
553.246 43.4483
553.259 45.4961
553.271 47.6410
553.283 49.8868
553.296 52.2372
553.308 54.7164
553.321 57.2887
553.333 59.9773
553.346 62.7863
553.358 65.7438
553.370 68.8066
553.383 72.0020
553.395 75.3340
553.408 78.8352
553.420 82.4537
553.445 90.1410
553.470 98.4898
553.495 107.464
553.520 117.165
553.544 127.544
553.569 138.708
553.594 150.591
553.619 163.308
553.644 176.771
553.669 191.099
553.693 206.183
553.718 222.145
553.743 238.849
553.768 256.418
553.793 274.691
553.818 293.787
553.843 313.519
553.892 354.933
553.928 386.591
553.964 419.127
554.037 486.157
554.136 578.387
554.186 622.572
554.235 664.121
554.285 702.041
554.335 735.383
554.364 752.542
554.393 767.649
554.420 779.632
554.447 789.627
554.487 800.689
554.527 807.135
554.540 808.243
554.547 808.606
554.568 808.864
554.590 807.738
554.633 801.389
554.661 794.208
554.690 784.783
554.722 771.756
554.753 756.201
554.780 741.213
554.807 724.671
554.860 687.540
554.914 645.812
554.968 600.849
555.031 545.043
555.094 488.236
555.148 440.649
555.201 394.592
555.228 372.303
555.255 350.642
555.282 329.678
555.308 309.540
555.335 290.125
555.362 271.544
555.389 253.825
555.416 236.983
555.442 221.029
555.469 205.961
555.496 191.776
555.523 178.506
555.546 167.663
555.569 157.485
555.592 147.907
555.615 138.911
555.638 130.441
555.661 122.548
555.685 115.172
555.708 108.290
555.731 101.850
555.754 95.8834
555.777 90.3384
555.800 85.1905
555.823 80.3962
555.846 75.9737
555.870 71.8790
555.893 68.0903
555.919 64.0507
555.946 60.3635
555.973 56.9991
556.000 53.9298
556.027 51.1294
556.053 48.5736
556.080 46.2399
556.107 44.1150
556.134 42.1640
556.161 40.3776
556.187 38.7397
556.214 37.2359
556.241 35.8527
556.268 34.5784
556.295 33.4020
556.321 32.3177
556.353 31.1322
556.385 30.0484
556.416 29.0482
556.448 28.1281
556.480 27.2737
556.511 26.4829
556.543 25.7441
556.574 25.0563
556.606 24.4102
556.638 23.8055
556.669 23.2345
556.701 22.6976
556.733 22.1884
556.764 21.7075
556.796 21.2497
556.828 20.8158
556.881 20.1264
556.935 19.4891
556.988 18.8980
557.042 18.3488
557.096 17.8352
557.149 17.3555
557.203 16.9046
557.256 16.4815
557.310 16.0823
557.363 15.7056
557.417 15.3495
557.470 15.0131
557.524 14.6935
557.578 14.3907
557.631 14.1023
557.685 13.8283
557.738 13.5667
557.792 13.3172
557.899 12.8516
558.006 12.4251
558.113 12.0335
558.220 11.6723
558.328 11.3387
558.435 11.0294
558.542 10.7419
558.629 10.5211
558.717 10.3126
558.805 10.1150
558.892 9.92785
558.980 9.74997
559.068 9.58107
559.155 9.42014
559.243 9.26695
559.331 9.12066
559.418 8.98111
559.594 8.71993
559.769 8.48037
559.944 8.25988
560.051 8.13351
560.158 8.01313
560.266 7.89811
560.373 7.78832
560.587 7.58266
560.801 7.39390
561.016 7.21988
561.230 7.05908
561.444 6.90990
561.658 6.77125
561.804 6.68212
561.950 6.59706
562.097 6.51579
562.243 6.43807
562.535 6.29236
562.827 6.15833
563.119 6.03448
563.411 5.91968
563.703 5.81287
563.996 5.71331
564.210 5.64442
564.424 5.57877
564.638 5.51612
564.853 5.45628
565.281 5.34419
565.710 5.24115
566.138 5.14601
566.567 5.05787
566.995 4.97589
567.424 4.89939
567.930 4.81524
568.437 4.73710
568.943 4.66426
569.449 4.59614
569.956 4.53225
570.462 4.47217
570.969 4.41539
571.475 4.36157
572.332 4.27656
573.189 4.19823
574.046 4.12559
574.903 4.05785
575.760 3.99434
576.617 3.93453
577.474 3.87796
578.331 3.82421
579.033 3.78211
579.734 3.74153
581.136 3.66453
582.539 3.59193
583.941 3.52308
585.344 3.45739
586.746 3.39438
588.148 3.33360
589.551 3.27472
591.421 3.19865
593.291 3.12481
595.160 3.05273
597.030 2.98205
598.744 2.91822
600.458 2.85491
602.173 2.79205
603.887 2.72953
605.601 2.66711
607.315 2.60472
609.029 2.54222
610.743 2.47949
612.457 2.41649
614.171 2.35309
617.599 2.22478
619.313 2.15979
621.027 2.09406
624.455 1.96058
627.728 1.83009
629.364 1.76377
631.000 1.69654
632.636 1.62858
634.272 1.55985
635.909 1.49019
637.545 1.41987
639.181 1.34877
640.817 1.27688
642.453 1.20444
644.089 1.13139
645.725 1.05783
647.362 0.983991
648.998 0.909913
650.634 0.835855
652.192 0.765542
653.750 0.695722
655.309 0.626696
656.867 0.558851
658.425 0.492635
659.983 0.428602
660.762 0.397597
661.542 0.367364
662.321 0.337972
663.100 0.309665
663.723 0.287852
664.346 0.266843
664.970 0.246714
665.593 0.227539
666.216 0.209393
666.528 0.200738
666.840 0.192390
667.151 0.184358
667.463 0.176657
667.775 0.169296
668.086 0.162293
668.515 0.153270
668.943 0.144992
669.372 0.137503
669.800 0.130850
670.229 0.125081
670.657 0.120251
671.086 0.116413
671.300 0.114882
671.514 0.113622
671.816 0.112321
671.967 0.111886
672.118 0.111599
672.269 0.111463
672.420 0.111481
672.571 0.111657
672.647 0.111804
672.722 0.111992
672.800 0.112229
672.878 0.112511
672.956 0.112836
673.034 0.113207
673.053 0.113307
673.116 0.113651
673.180 0.114026
673.243 0.114431
673.306 0.114867
673.414 0.115677
673.521 0.116576
673.628 0.117568
673.735 0.118653
673.842 0.119833
673.949 0.121109
674.163 0.123955
674.348 0.126737
674.533 0.129825
674.718 0.133229
674.903 0.136952
675.274 0.145395
675.644 0.155221
676.014 0.166506
676.199 0.172722
676.384 0.179328
676.569 0.186343
676.754 0.193768
676.939 0.201620
677.124 0.209908
677.338 0.220069
677.553 0.230850
677.767 0.242269
677.981 0.254340
678.195 0.267095
678.410 0.280541
678.624 0.294713
678.838 0.309620
679.052 0.325298
679.267 0.341757
679.481 0.359036
679.695 0.377144
679.909 0.396124
680.124 0.415986
680.338 0.436776
680.552 0.458503
680.766 0.481218
680.981 0.504941
681.195 0.529704
681.409 0.555529
681.623 0.582473
681.838 0.610547
682.052 0.639814
682.266 0.670285
682.480 0.702026
682.695 0.735066
682.909 0.769447
683.123 0.805195
683.338 0.842390
683.552 0.881043
683.766 0.921241
683.980 0.962995
684.195 1.00640
684.409 1.05149
684.837 1.14692
685.266 1.24980
685.694 1.36064
686.123 1.48000
686.551 1.60848
686.980 1.74675
687.408 1.89551
687.837 2.05557
688.265 2.22768
688.694 2.41280
689.122 2.61189
689.551 2.82610
689.980 3.05648
690.408 3.30436
690.837 3.57115
691.265 3.85835
691.694 4.16765
692.122 4.50088
692.551 4.86005
692.979 5.24738
693.408 5.66532
693.836 6.11656
694.265 6.60410
694.693 7.13135
695.122 7.70174
695.550 8.31948
695.979 8.98909
696.407 9.71583
696.836 10.5050
697.264 11.3632
697.693 12.2975
698.121 13.3163
698.550 14.4281
698.978 15.6434
699.407 16.9740
699.835 18.4332
700.050 19.2158
700.264 20.0361
700.478 20.8970
700.692 21.8001
700.907 22.7490
701.121 23.7454
701.335 24.7933
701.549 25.8955
701.764 27.0554
701.978 28.2762
702.192 29.5630
702.406 30.9190
702.621 32.3503
702.835 33.8604
703.049 35.4565
703.264 37.1437
703.478 38.9287
703.692 40.8177
703.906 42.8201
704.121 44.9424
704.335 47.1960
704.549 49.5887
704.861 53.3438
705.172 57.4552
705.484 61.9684
705.796 66.9297
706.107 72.4007
706.263 75.3472
706.419 78.4478
706.575 81.7151
706.731 85.1560
706.886 88.7848
707.042 92.6143
707.257 98.2357
707.471 104.304
707.685 110.864
707.899 117.964
708.114 125.670
708.328 134.038
708.542 143.152
708.756 153.089
708.971 163.954
709.185 175.850
709.399 188.914
709.613 203.282
709.828 219.137
710.042 236.662
710.149 246.132
710.256 256.102
710.363 266.615
710.470 277.707
710.578 289.432
710.685 301.811
710.792 314.915
710.899 328.771
711.006 343.461
711.113 359.020
711.220 375.525
711.327 393.050
711.435 411.690
711.542 431.495
711.649 452.575
711.756 475.029
711.863 498.989
711.970 524.529
712.077 551.800
712.184 580.941
712.321 621.001
712.457 664.651
712.594 712.329
712.730 764.380
712.866 821.324
713.003 883.558
713.139 951.676
713.275 1026.10
713.382 1089.44
713.490 1157.22
713.597 1229.73
713.704 1307.17
713.811 1389.71
713.918 1477.48
714.025 1570.52
714.132 1668.79
714.299 1832.12
714.466 2006.36
714.633 2189.35
714.800 2377.66
714.967 2566.67
715.134 2750.63
715.301 2922.85
715.385 3002.34
715.468 3076.20
715.611 3187.16
715.754 3275.06
715.826 3309.36
715.897 3336.77
715.969 3357.02
716.040 3369.93
716.154 3375.20
716.247 3365.53
716.340 3343.66
716.433 3310.05
716.526 3265.45
716.619 3210.63
716.712 3146.70
716.805 3074.71
716.898 2995.81
717.084 2821.93
717.270 2634.53
717.641 2250.77
717.825 2068.74
718.009 1896.85
718.100 1815.38
718.192 1737.12
718.284 1662.15
718.376 1590.58
718.467 1522.25
718.559 1457.19
718.651 1395.33
718.743 1336.58
718.835 1280.84
718.926 1227.99
719.018 1177.89
719.110 1130.48
719.205 1084.10
719.299 1040.28
719.394 998.852
719.489 959.669
719.584 922.603
719.678 887.528
719.773 854.324
719.868 822.879
719.962 793.054
720.057 764.811
720.152 738.023
720.247 712.600
720.341 688.460
720.436 665.523
720.625 622.974
720.815 584.403
721.004 549.390
721.194 517.511
721.383 488.416
721.572 461.800
721.762 437.396
721.951 414.970
722.141 394.320
722.270 381.158
722.399 368.697
722.528 356.871
722.657 345.655
722.916 324.859
723.174 306.027
723.432 288.915
723.690 273.316
723.949 259.053
724.207 245.979
724.397 237.068
724.586 228.687
724.775 220.790
724.965 213.341
725.154 206.303
725.344 199.651
725.533 193.356
725.722 187.390
725.912 181.730
726.101 176.358
726.480 166.397
726.859 157.369
727.238 149.158
727.617 141.664
727.995 134.808
728.374 128.515
728.753 122.725
729.132 117.383
729.511 112.445
729.890 107.868
730.268 103.619
730.596 100.189
730.923 96.9636
731.250 93.9249
731.577 91.0568
731.904 88.3434
732.232 85.7743
732.559 83.3400
732.886 81.0322
733.213 78.8408
733.540 76.7586
733.867 74.7781
734.195 72.8931
734.849 69.3824
735.503 66.1835
735.882 64.4584
736.261 62.8193
736.640 61.2593
737.019 59.7740
737.776 57.0069
738.534 54.4835
739.292 52.1748
740.049 50.0559
740.807 48.1055
741.565 46.3056
742.460 44.3503
743.356 42.5606
744.251 40.9171
745.146 39.4036
746.042 38.0070
746.937 36.7182
747.833 35.5180
748.728 34.3998
749.486 33.5131
750.244 32.6763
751.001 31.8854
751.759 31.1371
752.517 30.4280
753.274 29.7551
754.032 29.1162
754.790 28.5087
755.547 27.9303
756.305 27.3791
757.063 26.8535
757.820 26.3516
759.336 25.4132
760.851 24.5533
762.366 23.7627
763.882 23.0337
765.397 22.3595
766.912 21.7344
768.428 21.1533
769.943 20.6119
771.458 20.1064
772.974 19.6335
774.214 19.2686
775.453 18.9220
776.693 18.5927
777.933 18.2814
779.173 17.9824
780.413 17.6976
781.652 17.4243
782.892 17.1647
784.132 16.9146
785.372 16.6767
786.612 16.4475
787.852 16.2283
790.331 15.8151
792.811 15.4333
794.326 15.2144
795.842 15.0049
797.357 14.8040
798.872 14.6123
801.903 14.2517
804.934 13.9200
807.964 13.6129
810.995 13.3286
814.026 13.0643
817.057 12.8179
820.638 12.5479
824.220 12.2978
827.802 12.0658
831.383 11.8502
834.965 11.6488
838.547 11.4623
842.129 11.2853
845.710 11.1194
848.741 10.9878
851.772 10.8620
854.802 10.7415
857.833 10.6278
863.894 10.4144
869.956 10.2201
876.017 10.0408
882.079 9.87621
888.140 9.72398
894.201 9.58233
900.263 9.45121
906.324 9.32853
912.386 9.21379
918.447 9.10656
924.508 9.00544
930.570 8.91050
936.631 8.82093
942.692 8.73606
949.856 8.64187
957.019 8.55340
964.183 8.46977
971.346 8.39132
985.673 8.24617
1000.00 8.11481
1011.40 8.01934
1022.81 7.93060
1034.21 7.84778
1045.61 7.77015
1057.01 7.69709
1068.42 7.62809
1091.22 7.50049
1104.05 7.43390
1116.88 7.37037
1142.53 7.25054
1168.19 7.13764
1181.02 7.08277
1193.85 7.02837
1209.53 6.96172
1225.20 6.89377
1240.88 6.82303
1256.56 6.74735
1265.11 6.70288
1273.67 6.65519
1282.22 6.60326
1290.77 6.54562
1296.47 6.50299
1302.17 6.45600
1307.87 6.40349
1313.58 6.34360
1317.50 6.29691
1321.42 6.24446
1325.34 6.18466
1329.25 6.11534
1331.39 6.07251
1333.53 6.02512
1335.67 5.97234
1337.81 5.91301
1339.77 5.85156
1341.73 5.78174
1343.69 5.70141
1344.67 5.65644
1345.65 5.60775
1346.72 5.54958
1347.78 5.48537
1348.85 5.41394
1349.92 5.33393
1350.90 5.25155
1351.88 5.15872
1352.37 5.10771
1352.86 5.05319
1353.35 4.99478
1353.84 4.93214
1354.55 4.83195
1354.91 4.77731
1355.27 4.71948
1355.62 4.65781
1355.98 4.59226
1356.34 4.52224
1356.69 4.44726
1357.18 4.33495
1357.43 4.27439
1357.67 4.21058
1357.92 4.14326
1358.16 4.07215
1358.41 3.99694
1358.65 3.91763
1358.87 3.84100
1359.10 3.76009
1359.32 3.67461
1359.54 3.58465
1359.77 3.48908
1359.99 3.38800
1360.21 3.28116
1360.43 3.16891
1360.56 3.10421
1360.68 3.03833
1360.80 2.97030
1360.92 2.90140
1361.05 2.83081
1361.17 2.76017
1361.29 2.68909
1361.41 2.61997
1361.54 2.55367
1361.66 2.49447
1361.72 2.46843
1361.78 2.44661
1361.84 2.42972
1361.90 2.41916
1361.97 2.41680
1362.03 2.42499
1362.09 2.44644
1362.15 2.48464
1362.21 2.54508
1362.24 2.58515
1362.27 2.63118
1362.30 2.68710
1362.33 2.75021
1362.36 2.82575
1362.39 2.90997
1362.44 3.07042
1362.47 3.16391
1362.49 3.26273
1362.51 3.37620
1362.54 3.50110
1362.56 3.63832
1362.58 3.78225
1362.61 3.94640
1362.63 4.12586
1362.66 4.32177
1362.68 4.52605
1362.70 4.75771
1362.73 4.99864
1362.75 5.27116
1362.77 5.55390
1362.80 5.87295
1362.82 6.21811
1362.84 6.59108
1362.87 6.97625
1362.89 7.40889
1362.91 7.85469
1362.94 8.35434
1362.96 8.86808
1362.99 9.44264
1363.01 10.0587
1363.03 10.7185
1363.06 11.3940
1363.08 12.1462
1363.10 12.9147
1363.13 13.7688
1363.15 14.6396
1363.17 15.4812
1363.19 16.3258
1363.21 17.2139
1363.23 18.1470
1363.25 19.1770
1363.27 20.2072
1363.29 21.2872
1363.31 22.4184
1363.33 23.6630
1363.35 24.9040
1363.37 26.2008
1363.39 27.5548
1363.41 28.9675
1363.43 30.4402
1363.45 31.9742
1363.47 33.5709
1363.50 36.1724
1363.54 38.9316
1363.57 42.3386
1363.61 45.9685
1363.63 48.5143
1363.66 51.1620
1363.68 53.9123
1363.70 56.6446
1363.75 62.5227
1363.80 68.7945
1363.83 73.1435
1363.86 77.6580
1363.89 82.3337
1363.92 87.0073
1363.98 96.9368
1364.04 107.387
1364.09 115.927
1364.14 124.513
1364.23 142.154
1364.35 165.345
1364.41 176.932
1364.48 187.994
1364.54 198.564
1364.60 208.483
1364.65 216.456
1364.70 223.727
1364.76 231.114
1364.83 237.427
1364.89 242.291
1364.93 244.979
1364.97 246.977
1365.00 247.900
1365.01 248.108
1365.03 248.570
1365.05 248.827
1365.10 248.728
1365.16 247.278
1365.23 244.053
1365.29 240.002
1365.35 234.834
1365.41 228.637
1365.46 221.516
1365.54 210.540
1365.62 198.377
1365.74 179.050
1365.85 158.883
1365.97 138.806
1366.03 129.052
1366.09 119.599
1366.13 112.053
1366.18 104.939
1366.23 97.9800
1366.28 91.4864
1366.32 85.1961
1366.37 79.3804
1366.42 73.9094
1366.46 68.7837
1366.49 65.6913
1366.52 62.8332
1366.55 60.1025
1366.58 57.4970
1366.61 55.0141
1366.64 52.6513
1366.67 50.4053
1366.70 48.2731
1366.73 46.2511
1366.76 44.3358
1366.78 42.5233
1366.81 40.8100
1366.84 39.1919
1366.87 37.6651
1366.90 36.2256
1366.93 34.8696
1366.96 33.3385
1367.00 31.9556
1367.03 30.6695
1367.07 29.4743
1367.10 28.3326
1367.14 27.3042
1367.17 26.3497
1367.20 25.4640
1367.24 24.6191
1367.27 23.8585
1367.31 23.1526
1367.34 22.4974
1367.37 21.8890
1367.41 21.3237
1367.44 20.7982
1367.48 20.3092
1367.51 19.9188
1367.53 19.5510
1367.59 18.8775
1367.65 18.2769
1367.71 17.7393
1367.77 17.2559
1367.82 16.8193
1367.88 16.4231
1367.94 16.0618
1368.00 15.7307
1368.06 15.4260
1368.11 15.1443
1368.17 14.8828
1368.23 14.6390
1368.29 14.4110
1368.40 13.9954
1368.52 13.6251
1368.64 13.2919
1368.75 12.9898
1368.87 12.7139
1368.98 12.4608
1369.10 12.2275
1369.22 12.0115
1369.33 11.8125
1369.52 11.5127
1369.71 11.2437
1369.90 11.0009
1370.09 10.7817
1370.28 10.5806
1370.47 10.3963
1370.66 10.2267
1370.85 10.0710
1371.08 9.89521
1371.31 9.73439
1371.55 9.58662
1371.78 9.45032
1372.01 9.32416
1372.24 9.20700
1372.71 8.99598
1373.02 8.86709
1373.34 8.74909
1373.65 8.64028
1373.97 8.53952
1374.60 8.35859
1375.23 8.20029
1375.70 8.09589
1376.16 7.99995
1376.63 7.91132
1377.09 7.82907
1378.02 7.68060
1378.95 7.54957
1380.04 7.41183
1381.14 7.28840
1382.23 7.17584
1383.33 7.07133
1384.17 6.99506
1385.02 6.92147
1385.86 6.84984
1386.70 6.77948
1387.55 6.70967
1388.39 6.63994
1389.23 6.56954
1390.08 6.49799
1390.92 6.42446
1391.76 6.34842
1392.61 6.26897
1393.45 6.18513
1394.38 6.08644
1395.30 5.97951
1396.23 5.86191
1396.70 5.79832
1397.16 5.73115
1397.92 5.61171
1398.30 5.54689
1398.68 5.47844
1399.06 5.40554
1399.44 5.32810
1399.82 5.24513
1400.19 5.15640
1400.66 5.03852
1401.12 4.90891
1401.35 4.83912
1401.59 4.76563
1401.82 4.68814
1402.05 4.60631
1402.28 4.51977
1402.51 4.42811
1402.75 4.33091
1402.98 4.22816
1403.21 4.11848
1403.44 4.00182
1403.67 3.87770
1403.90 3.74635
1404.02 3.67740
1404.14 3.60648
1404.25 3.53365
1404.37 3.45905
1404.48 3.38293
1404.60 3.30571
1404.72 3.22808
1404.83 3.15118
1404.95 3.07686
1405.06 3.00804
1405.18 2.94942
1405.24 2.92609
1405.30 2.90834
1405.35 2.89775
1405.41 2.89625
1405.47 2.90621
1405.53 2.93056
1405.59 2.97285
1405.64 3.03738
1405.70 3.12933
1405.73 3.18749
1405.76 3.25242
1405.79 3.32121
1405.81 3.39578
1405.84 3.47932
1405.86 3.57260
1405.89 3.67644
1405.91 3.79172
1405.94 3.91935
1405.96 4.06034
1405.99 4.21574
1406.01 4.38668
1406.04 4.57433
1406.06 4.77997
1406.09 5.00493
1406.11 5.25060
1406.14 5.51848
1406.16 5.81012
1406.19 6.12716
1406.21 6.47132
1406.24 6.84438
1406.26 7.24823
1406.29 7.68482
1406.31 8.15619
1406.34 8.66444
1406.36 9.21176
1406.39 9.80040
1406.41 10.4327
1406.44 11.1111
1406.46 11.8380
1406.49 12.6159
1406.51 13.4474
1406.54 14.3351
1406.56 15.2817
1406.59 16.3315
1406.61 17.4066
1406.64 18.5487
1406.66 19.7607
1406.69 21.0451
1406.71 22.4049
1406.74 23.8424
1406.76 25.3605
1406.79 26.9617
1406.81 28.6483
1406.84 30.4228
1406.86 32.2875
1406.89 34.2445
1406.91 36.2958
1406.94 38.4432
1406.96 40.6885
1406.99 43.0331
1407.01 45.4782
1407.04 48.0248
1407.06 50.6737
1407.10 55.1260
1407.14 59.8418
1407.19 66.1047
1407.24 72.7686
1407.29 79.8197
1407.34 87.2378
1407.40 96.2668
1407.46 105.700
1407.52 115.473
1407.57 125.332
1407.71 149.717
1407.83 169.774
1407.88 179.486
1407.94 188.767
1408.00 197.494
1408.06 205.548
1408.10 210.653
1408.14 215.239
1408.19 221.280
1408.25 226.315
1408.32 230.618
1408.36 232.693
1408.40 234.158
1408.41 234.367
1408.43 234.841
1408.45 235.129
1408.50 235.152
1408.57 233.743
1408.64 230.836
1408.69 227.782
1408.74 223.987
1408.80 217.584
1408.87 210.111
1408.94 201.510
1409.01 192.205
1409.07 183.016
1409.13 173.576
1409.25 154.037
1409.32 143.063
1409.39 132.226
1409.45 121.663
1409.52 111.634
1409.56 105.865
1409.60 100.279
1409.64 94.8883
1409.68 89.7050
1409.72 84.7371
1409.76 79.9909
1409.80 75.4703
1409.84 71.2820
1409.87 67.8075
1409.91 64.4969
1409.94 61.3487
1409.98 58.4461
1410.01 55.6103
1410.04 52.9281
1410.08 50.3954
1410.11 48.0760
1410.14 45.8247
1410.18 43.7086
1410.21 41.7224
1410.25 39.9138
1410.28 38.1675
1410.31 36.5346
1410.35 35.0093
1410.38 33.6264
1410.41 32.2966
1410.45 31.0578
1410.48 29.9045
1410.52 28.8314
1410.55 27.8336
1410.58 26.9060
1410.62 26.0440
1410.65 25.2657
1410.69 24.5199
1410.72 23.8268
1410.75 23.1825
1410.79 22.6006
1410.82 22.0422
1410.85 21.5225
1410.89 21.0385
1410.92 20.6002
1410.98 19.8862
1411.04 19.2613
1411.10 18.6933
1411.16 18.1924
1411.21 17.7333
1411.27 17.3248
1411.33 16.9530
1411.39 16.6131
1411.45 16.2957
1411.51 16.0080
1411.56 15.7415
1411.62 15.4935
1411.68 15.2581
1411.74 15.0413
1411.85 14.6453
1411.99 14.2341
1412.13 13.8716
1412.26 13.5465
1412.40 13.2525
1412.53 12.9851
1412.67 12.7404
1412.80 12.5155
1412.94 12.3080
1413.10 12.0818
1413.26 11.8744
1413.42 11.6834
1413.57 11.5080
1413.73 11.3444
1413.89 11.1931
1414.21 10.9194
1414.48 10.7139
1414.75 10.5288
1415.02 10.3610
1415.29 10.2081
1415.56 10.0683
1415.83 9.93980
1416.10 9.82138
1416.37 9.71183
1416.91 9.51526
1417.45 9.34447
1417.99 9.19438
1418.53 9.06136
1419.05 8.94757
1419.57 8.84478
1420.08 8.75139
1420.60 8.66629
1421.11 8.58811
1421.63 8.51629
1422.66 8.38827
1423.74 8.27254
1424.82 8.17188
1425.90 8.08339
1426.98 8.00494
1427.91 7.94391
1428.85 7.88818
1430.71 7.78968
1432.58 7.70519
1434.45 7.63170
1436.61 7.55743
1438.77 7.49239
1440.93 7.43474
1443.09 7.38309
1447.02 7.30140
1450.95 7.23149
1454.88 7.17049
1458.80 7.11631
1463.52 7.05815
1468.23 7.00575
1472.95 6.95773
1477.66 6.91313
1483.16 6.86421
1488.66 6.81777
1494.17 6.77297
1499.67 6.72915
1508.31 6.66074
1516.95 6.59080
1525.60 6.51685
1534.24 6.43588
1538.56 6.39153
1542.88 6.34371
1547.21 6.29162
1551.53 6.23419
1555.85 6.17007
1560.17 6.09745
1564.49 6.01387
1566.66 5.96695
1568.82 5.91602
1570.98 5.86029
1573.14 5.79888
1575.30 5.73086
1577.46 5.65499
1579.62 5.56966
1581.78 5.47284
1583.94 5.36187
1585.02 5.30005
1586.10 5.23328
1587.48 5.14004
1588.85 5.03634
1590.23 4.91993
1591.60 4.78830
1592.68 4.67212
1593.76 4.54279
1594.85 4.39768
1595.39 4.31843
1595.93 4.23409
1596.39 4.15668
1596.86 4.07476
1597.33 3.98793
1597.79 3.89598
1598.26 3.79804
1598.73 3.69401
1599.19 3.58287
1599.66 3.46443
1600.20 3.31684
1600.74 3.15704
1601.01 3.07220
1601.28 2.98385
1601.55 2.89186
1601.82 2.79609
1602.09 2.69604
1602.36 2.59236
1602.63 2.48464
1602.90 2.37291
1603.17 2.25729
1603.44 2.13805
1603.71 2.01568
1603.98 1.89100
1604.21 1.78206
1604.45 1.67405
1604.68 1.56789
1604.80 1.51649
1604.91 1.46717
1605.03 1.41965
1605.15 1.37501
1605.26 1.33408
1605.38 1.29816
1605.50 1.26790
1605.61 1.24540
1605.73 1.23232
1605.85 1.23154
1605.95 1.24471
1606.01 1.25746
1606.06 1.27465
1606.12 1.29758
1606.17 1.32670
1606.22 1.36287
1606.28 1.40618
1606.33 1.45940
1606.38 1.52311
1606.44 1.59886
1606.49 1.68667
1606.55 1.79189
1606.60 1.91297
1606.65 2.05725
1606.71 2.22251
1606.74 2.36115
1606.78 2.51183
1606.82 2.67956
1606.86 2.86617
1606.88 2.96171
1606.90 3.10262
1606.93 3.25365
1606.95 3.41549
1606.98 3.58171
1607.01 3.86044
1607.05 4.16883
1607.09 4.50988
1607.12 4.87613
1607.16 5.29136
1607.18 5.52110
1607.20 5.74974
1607.22 6.00322
1607.23 6.25539
1607.25 6.51980
1607.27 6.79699
1607.29 7.07103
1607.30 7.35748
1607.32 7.65683
1607.34 7.96961
1607.35 8.29637
1607.37 8.63766
1607.39 8.99406
1607.41 9.36617
1607.42 9.75460
1607.44 10.1600
1607.46 10.5830
1607.47 11.0242
1607.49 11.4844
1607.51 11.9642
1607.54 12.9545
1607.57 14.0608
1607.61 15.2608
1607.64 16.5608
1607.68 17.9249
1607.71 19.4425
1607.74 21.0812
1607.78 22.8486
1607.81 24.6945
1607.84 26.7384
1607.88 28.9345
1607.91 31.2910
1607.95 33.7394
1607.98 36.4362
1608.01 39.3180
1608.05 42.3929
1608.08 45.5696
1608.11 49.0485
1608.15 52.7437
1608.18 56.6626
1608.22 60.6865
1608.25 65.0657
1608.28 69.6872
1608.32 74.5564
1608.35 79.5233
1608.38 84.8924
1608.42 90.5197
1608.45 96.4068
1608.49 102.554
1608.52 108.962
1608.55 115.627
1608.59 122.548
1608.62 129.505
1608.69 144.559
1608.76 160.284
1608.82 176.807
1608.89 194.018
1609.02 228.842
1609.15 264.214
1609.22 282.425
1609.28 300.234
1609.35 317.655
1609.42 333.937
1609.49 349.325
1609.55 363.139
1609.62 375.746
1609.69 386.364
1609.73 391.952
1609.77 396.757
1609.82 400.751
1609.86 403.911
1609.90 406.220
1609.92 406.836
1609.96 408.035
1610.01 408.200
1610.05 407.343
1610.10 405.513
1610.17 400.935
1610.23 394.268
1610.30 385.926
1610.36 376.059
1610.46 359.040
1610.55 339.462
1610.62 324.684
1610.69 309.427
1610.82 277.384
1610.95 244.900
1611.01 228.806
1611.08 213.328
1611.14 199.475
1611.20 186.339
1611.26 173.539
1611.32 161.551
1611.38 150.006
1611.44 139.313
1611.49 129.288
1611.55 119.933
1611.59 114.990
1611.62 110.254
1611.65 105.720
1611.68 101.515
1611.72 97.3716
1611.75 93.4195
1611.78 89.6541
1611.82 86.1764
1611.85 82.7636
1611.88 79.5214
1611.91 76.4440
1611.95 73.6115
1611.98 70.8409
1612.01 68.2169
1612.05 65.7332
1612.08 63.4530
1612.12 60.8365
1612.16 58.3890
1612.19 56.1008
1612.23 54.0153
1612.27 52.0137
1612.31 50.1438
1612.35 48.3969
1612.39 46.8054
1612.43 45.2778
1612.47 43.8499
1612.50 42.5147
1612.54 41.2966
1612.58 40.1252
1612.62 39.0552
1612.66 38.0247
1612.70 37.0818
1612.76 35.5745
1612.83 34.2345
1612.89 33.0021
1612.96 31.8991
1613.02 30.8776
1613.09 29.9567
1613.16 29.0976
1613.22 28.3175
1613.29 27.5845
1613.35 26.9143
1613.42 26.2804
1613.48 25.6973
1613.55 25.1425
1613.61 24.6292
1613.74 23.6891
1613.87 22.8415
1614.01 22.0778
1614.14 21.3853
1614.27 20.7539
1614.40 20.1756
1614.53 19.6435
1614.66 19.1523
1614.79 18.7006
1614.90 18.3339
1615.02 17.9890
1615.24 17.3572
1615.47 16.7923
1615.69 16.2843
1615.92 15.8248
1616.15 15.4071
1616.37 15.0259
1616.60 14.6766
1616.86 14.3064
1617.12 13.9689
1617.38 13.6601
1617.65 13.3763
1617.91 13.1147
1618.17 12.8728
1618.43 12.6484
1618.69 12.4405
1619.00 12.2117
1619.31 12.0011
1619.62 11.8060
1619.93 11.6248
1620.55 11.2979
1621.17 11.0122
1621.69 10.7962
1622.21 10.6012
1622.74 10.4236
1623.26 10.2617
1623.79 10.1130
1624.31 9.97655
1624.83 9.85034
1625.36 9.73370
1626.40 9.52416
1627.45 9.34182
1628.50 9.18155
1629.54 9.03958
1630.45 8.92936
1631.35 8.82914
1632.26 8.73738
1633.16 8.65306
1634.97 8.50342
1636.78 8.37479
1638.87 8.24653
1640.97 8.13600
1643.06 8.03970
1645.15 7.95497
1647.82 7.86069
1650.49 7.77882
1653.15 7.70704
1655.82 7.64327
1660.00 7.55637
1664.19 7.48236
1668.38 7.41839
1672.57 7.36242
1677.52 7.30450
1682.47 7.25376
1687.42 7.20892
1692.37 7.16865
1700.74 7.10915
1709.12 7.05810
1717.49 7.01350
1725.87 6.97399
1738.05 6.92356
1750.24 6.87957
1762.42 6.84043
1774.61 6.80511
1791.36 6.76139
1808.11 6.72195
1841.62 6.65204
1865.98 6.60634
1890.35 6.56339
1914.72 6.52212
1939.08 6.48164
1969.54 6.43078
2000.00 6.37792
2017.82 6.34501
2035.65 6.30978
2053.47 6.27127
2071.29 6.22799
2089.12 6.17757
2098.03 6.14857
2106.94 6.11614
2113.83 6.08810
2120.71 6.05680
2127.60 6.02148
2134.49 5.98089
2138.94 5.95111
2143.40 5.91790
2147.86 5.88053
2152.31 5.83801
2156.16 5.79613
2160.01 5.74830
2163.86 5.69300
2167.70 5.62827
2169.93 5.58526
2172.16 5.53734
2174.39 5.48356
2176.62 5.42271
2178.84 5.35325
2181.07 5.27310
2183.30 5.17954
2185.53 5.06885
2186.64 5.00549
2187.76 4.93563
2188.87 4.85822
2189.98 4.77198
2191.10 4.67531
2192.21 4.56618
2193.33 4.44203
2194.44 4.29967
2195.25 4.18202
2196.06 4.05049
2196.87 3.90235
2197.27 3.82106
2197.68 3.73432
2198.24 3.60516
2198.79 3.46315
2199.35 3.30650
2199.63 3.22190
2199.91 3.13318
2200.19 3.03942
2200.46 2.94102
2200.74 2.83699
2201.02 2.72786
2201.30 2.61269
2201.58 2.49226
2201.86 2.36588
2202.14 2.23503
2202.39 2.11224
2202.64 1.98875
2202.77 1.92732
2202.90 1.86760
2203.02 1.80961
2203.15 1.75561
2203.28 1.70667
2203.40 1.66627
2203.53 1.63766
2203.59 1.62962
2203.65 1.62678
2203.72 1.63028
2203.78 1.64127
2203.84 1.66121
2203.91 1.69181
2203.97 1.73591
2204.03 1.79454
2204.10 1.87106
2204.16 1.96871
2204.22 2.07841
2204.27 2.21168
2204.33 2.37216
2204.39 2.56395
2204.42 2.67501
2204.45 2.79169
2204.47 2.92301
2204.50 3.06059
2204.53 3.21503
2204.56 3.37645
2204.59 3.55722
2204.62 3.74574
2204.65 3.95640
2204.67 4.17562
2204.70 4.42009
2204.73 4.67398
2204.76 4.95657
2204.79 5.24948
2204.82 5.57488
2204.84 5.91155
2204.87 6.28486
2204.90 6.67041
2204.93 7.09715
2204.96 7.53709
2204.99 8.02317
2205.02 8.52339
2205.04 9.07511
2205.07 9.64188
2205.09 10.0681
2205.11 10.5128
2205.13 10.9766
2205.15 11.4602
2205.19 12.4888
2205.23 13.5748
2205.26 14.4998
2205.28 15.1908
2205.31 15.9116
2205.33 16.6630
2205.35 17.4459
2205.38 18.5275
2205.41 19.6270
2205.44 20.8251
2205.46 22.0408
2205.49 23.3630
2205.52 24.7023
2205.55 26.1561
2205.58 27.6260
2205.61 29.2186
2205.64 30.8258
2205.66 32.5638
2205.69 34.3144
2205.72 36.2039
2205.75 38.1032
2205.78 40.1494
2205.81 42.2022
2205.86 46.6189
2205.92 51.3590
2205.98 56.4253
2206.03 61.8175
2206.10 68.8802
2206.17 76.4153
2206.24 84.4003
2206.31 92.6805
2206.38 101.455
2206.45 110.423
2206.59 129.069
2206.74 150.250
2206.88 169.195
2206.95 178.373
2207.02 187.049
2207.09 195.373
2207.16 203.116
2207.23 210.088
2207.30 216.319
2207.37 221.805
2207.44 226.322
2207.51 230.033
2207.58 232.676
2207.60 233.165
2207.61 233.476
2207.65 234.218
2207.69 234.594
2207.78 234.302
2207.85 232.874
2207.92 230.420
2208.01 225.771
2208.10 219.589
2208.19 212.036
2208.29 203.303
2208.40 191.716
2208.50 179.249
2208.69 156.752
2208.78 145.342
2208.87 134.191
2208.96 123.094
2209.06 112.548
2209.10 107.470
2209.15 102.538
2209.19 97.7600
2209.24 93.1442
2209.31 86.3518
2209.38 79.9756
2209.42 76.9045
2209.45 74.0237
2209.49 71.1686
2209.52 68.4973
2209.56 65.8565
2209.59 63.3918
2209.63 60.9608
2209.67 58.6971
2209.70 56.4693
2209.74 54.3991
2209.77 52.4211
2209.81 50.5329
2209.85 48.1837
2209.90 45.9794
2209.94 43.9138
2209.99 41.9807
2210.04 40.1735
2210.08 38.4859
2210.13 36.9113
2210.17 35.4434
2210.22 34.0758
2210.27 32.8024
2210.31 31.6172
2210.36 30.5145
2210.40 29.4886
2210.45 28.5343
2210.50 27.6465
2210.54 26.8377
2210.59 26.0675
2210.63 25.3502
2210.68 24.6818
2210.73 24.0584
2210.77 23.4767
2210.82 22.9332
2210.91 21.9491
2211.00 21.0843
2211.09 20.3204
2211.19 19.6416
2211.28 19.0348
2211.37 18.4892
2211.46 17.9955
2211.55 17.5463
2211.65 17.1354
2211.74 16.7574
2211.83 16.4083
2212.01 15.7857
2212.20 15.2388
2212.38 14.7556
2212.56 14.3244
2212.75 13.9387
2212.93 13.5876
2213.12 13.2681
2213.30 12.9759
2213.48 12.7090
2213.67 12.4615
2213.85 12.2327
2214.22 11.8237
2214.49 11.5592
2214.75 11.3197
2215.02 11.1011
2215.29 10.9007
2215.82 10.5456
2216.36 10.2416
2216.72 10.0561
2217.09 9.88718
2217.83 9.59115
2218.56 9.33986
2219.30 9.12386
2220.03 8.93593
2220.77 8.77136
2221.50 8.62588
2222.24 8.49634
2222.97 8.38006
2223.71 8.27532
2225.18 8.09383
2226.65 7.94207
2228.12 7.81325
2229.59 7.70242
2231.06 7.60614
2232.53 7.52162
2234.00 7.44681
2236.27 7.34665
2238.54 7.26154
2240.82 7.18807
2243.09 7.12402
2246.03 7.05229
2248.97 6.99061
2251.91 6.93688
2254.85 6.88961
2258.59 6.83693
2262.34 6.79104
2266.08 6.75062
2269.82 6.71454
2275.70 6.66498
2281.58 6.62225
2287.46 6.58481
2293.34 6.55153
2301.90 6.50888
2310.45 6.47150
2319.01 6.43803
2327.56 6.40759
2340.39 6.36621
2353.22 6.32857
2366.06 6.29352
2378.89 6.26029
2396.00 6.21769
2413.10 6.17609
2436.63 6.11886
2460.15 6.05982
2483.68 5.99712
2507.20 5.92868
2524.31 5.87380
2541.42 5.81329
2558.53 5.74560
2575.64 5.66851
2587.40 5.60861
2599.16 5.54170
2610.92 5.46621
2622.69 5.38001
2631.77 5.30425
2640.86 5.21865
2649.95 5.12120
2659.04 5.00852
2664.92 4.92571
2670.80 4.83348
2676.68 4.73003
2682.56 4.61309
2687.91 4.49255
2693.26 4.35558
2698.60 4.19838
2703.95 4.01638
2706.89 3.90309
2709.83 3.77885
2712.77 3.64190
2715.71 3.49027
2718.65 3.32137
2721.59 3.13218
2723.07 3.02879
2724.54 2.91893
2726.01 2.80191
2727.48 2.67706
2729.21 2.51842
2730.95 2.34665
2732.69 2.15985
2733.56 2.06043
2734.43 1.95687
2735.90 1.77123
2736.63 1.67353
2737.37 1.57249
2738.10 1.46812
2738.84 1.36051
2739.57 1.24984
2740.31 1.13644
2740.94 1.03668
2741.58 0.935801
2742.21 0.834552
2742.85 0.733999
2743.48 0.635644
2743.80 0.587854
2744.12 0.541631
2744.43 0.497099
2744.75 0.455041
2745.07 0.415912
2745.39 0.380438
2745.61 0.357857
2745.84 0.337951
2746.06 0.321152
2746.29 0.308011
2746.51 0.298986
2746.74 0.294826
2746.97 0.296274
2747.19 0.304226
2747.37 0.316295
2747.56 0.334089
2747.67 0.347641
2747.78 0.363490
2747.88 0.382125
2747.99 0.403409
2748.13 0.436050
2748.28 0.474503
2748.42 0.519404
2748.56 0.571471
2748.70 0.631514
2748.84 0.700455
2748.99 0.779341
2749.13 0.869370
2749.21 0.925505
2749.29 0.985102
2749.37 1.04996
2749.45 1.11877
2749.53 1.19363
2749.61 1.27303
2749.68 1.35827
2749.76 1.44979
2749.84 1.54937
2749.92 1.65503
2750.00 1.77006
2750.08 1.89220
2750.16 2.02529
2750.24 2.16677
2750.32 2.31911
2750.40 2.48326
2750.49 2.69075
2750.58 2.91762
2750.67 3.16602
2750.77 3.43535
2750.81 3.58130
2750.86 3.73434
2750.90 3.89490
2750.95 4.06343
2751.00 4.24043
2751.04 4.42641
2751.09 4.62195
2751.13 4.82305
2751.18 5.03931
2751.22 5.26708
2751.27 5.50710
2751.32 5.76020
2751.36 6.02725
2751.41 6.30920
2751.45 6.60708
2751.50 6.92197
2751.55 7.25507
2751.59 7.60764
2751.64 7.98106
2751.68 8.37679
2751.73 8.79643
2751.78 9.24167
2751.82 9.71434
2751.87 10.2164
2751.91 10.7499
2751.96 11.3172
2752.01 11.9206
2752.05 12.5626
2752.10 13.2461
2752.14 13.9739
2752.19 14.7491
2752.24 15.5750
2752.28 16.4551
2752.33 17.3931
2752.37 18.3928
2752.42 19.4584
2752.47 20.5942
2752.51 21.8046
2752.56 23.0945
2752.60 24.4380
2752.65 25.8999
2752.70 27.4566
2752.74 29.1136
2752.79 30.8767
2752.83 32.7518
2752.88 34.7450
2752.93 36.8624
2752.97 39.1104
2753.02 41.4953
2753.06 44.0236
2753.11 46.7019
2753.16 49.5365
2753.20 52.5338
2753.25 55.7003
2753.29 59.0420
2753.34 62.4865
2753.41 68.2870
2753.48 74.5523
2753.55 81.3001
2753.62 88.5450
2753.69 96.2984
2753.76 104.568
2753.84 113.355
2753.91 122.659
2754.00 135.469
2754.09 149.099
2754.18 163.495
2754.27 178.418
2754.37 194.276
2754.46 210.451
2754.64 243.691
2754.83 276.814
2754.92 293.015
2755.01 308.476
2755.10 323.326
2755.19 337.039
2755.28 349.717
2755.37 360.899
2755.47 371.334
2755.57 379.711
2755.67 386.051
2755.77 390.119
2755.80 390.959
2755.83 391.571
2755.94 391.774
2756.05 389.275
2756.15 384.151
2756.26 376.623
2756.34 369.630
2756.42 361.505
2756.49 352.347
2756.57 342.401
2756.72 320.870
2756.87 297.381
2757.09 261.003
2757.31 224.416
2757.46 200.186
2757.53 188.554
2757.61 177.311
2757.68 166.499
2757.76 156.147
2757.83 146.279
2757.91 136.912
2757.98 128.053
2758.06 119.706
2758.13 111.866
2758.21 104.527
2758.28 97.6751
2758.36 91.2959
2758.43 85.3703
2758.51 79.9484
2758.57 75.2540
2758.64 70.9505
2758.71 66.9498
2758.78 63.2341
2758.85 59.7856
2758.91 56.5866
2758.98 53.6202
2759.05 50.8698
2759.12 48.2835
2759.19 45.9208
2759.26 43.7285
2759.32 41.6931
2759.39 39.8020
2759.46 38.0432
2759.53 36.4059
2759.60 34.8798
2759.67 33.3144
2759.75 31.8614
2759.82 30.5104
2759.90 29.2518
2759.97 28.0771
2760.05 26.9785
2760.12 25.9491
2760.19 24.9951
2760.27 24.0852
2760.34 23.2277
2760.49 21.6518
2760.64 20.2366
2760.79 18.9652
2760.92 17.9497
2761.05 17.0169
2761.18 16.1435
2761.31 15.3352
2761.44 14.5728
2761.57 13.8627
2761.70 13.1940
2761.83 12.5625
2761.96 11.9603
2762.09 11.3934
2762.22 10.8503
2762.35 10.3369
2762.48 9.84316
2762.61 9.37472
2762.73 8.92607
2762.86 8.49578
2763.08 7.80684
2763.30 7.16442
2763.54 6.48346
2763.79 5.85122
2764.03 5.26218
2764.16 4.98236
2764.28 4.71532
2764.40 4.45684
2764.52 4.21141
2764.65 3.97544
2764.77 3.75339
2764.89 3.54242
2765.01 3.34700
2765.14 3.16528
2765.26 3.00185
2765.33 2.91056
2765.41 2.82694
2765.48 2.75162
2765.56 2.68535
2765.63 2.62897
2765.71 2.58344
2765.78 2.54986
2765.86 2.52948
2765.93 2.52374
2766.01 2.53428
2766.08 2.56299
2766.16 2.61202
2766.23 2.68383
2766.31 2.78125
2766.38 2.90750
2766.42 2.98151
2766.46 3.06392
2766.51 3.18420
2766.55 3.32072
2766.60 3.47482
2766.65 3.64412
2766.70 3.83739
2766.74 4.04820
2766.79 4.28733
2766.84 4.54674
2766.88 4.77613
2766.91 5.01754
2766.95 5.28523
2766.99 5.56631
2767.03 5.87733
2767.06 6.20327
2767.10 6.56325
2767.14 6.93986
2767.18 7.35513
2767.21 7.78889
2767.25 8.26646
2767.29 8.76457
2767.33 9.31222
2767.36 9.88264
2767.40 10.4919
2767.44 11.1423
2767.48 11.8554
2767.51 12.5963
2767.55 13.4076
2767.59 14.2494
2767.63 15.1700
2767.66 16.1239
2767.70 17.1658
2767.74 18.2440
2767.78 19.4200
2767.81 20.6352
2767.85 21.9589
2767.89 23.3248
2767.93 24.8105
2767.96 26.3414
2768.00 28.0040
2768.04 29.7145
2768.08 31.5695
2768.11 33.4749
2768.15 35.5378
2768.19 37.6535
2768.23 39.9403
2768.26 42.2816
2768.30 44.8079
2768.34 47.3899
2768.38 50.1710
2768.41 53.0083
2768.45 55.9768
2768.49 59.0795
2768.53 62.4090
2768.56 65.7930
2768.60 69.3201
2768.64 72.9925
2768.67 76.9178
2768.71 80.8914
2768.79 89.4112
2768.86 98.5610
2768.94 108.344
2769.01 118.756
2769.09 129.785
2769.16 141.410
2769.24 153.603
2769.31 166.323
2769.39 179.523
2769.54 207.115
2769.69 235.793
2769.84 264.637
2769.99 293.194
2770.06 307.009
2770.14 320.357
2770.22 334.607
2770.30 347.810
2770.39 360.130
2770.47 371.133
2770.55 380.845
2770.64 389.156
2770.72 395.972
2770.80 401.168
2770.87 404.242
2770.98 406.940
2771.08 406.857
2771.19 404.045
2771.30 398.666
2771.41 390.539
2771.52 380.160
2771.63 367.625
2771.74 353.473
2771.85 337.490
2771.96 320.562
2772.19 284.696
2772.30 266.570
2772.41 248.647
2772.53 231.168
2772.64 214.332
2772.72 202.508
2772.80 191.163
2772.88 180.334
2772.96 170.169
2773.05 160.433
2773.13 151.371
2773.21 142.759
2773.29 134.801
2773.35 129.521
2773.40 124.584
2773.46 119.891
2773.52 115.433
2773.57 111.130
2773.63 107.124
2773.68 103.329
2773.74 99.7372
2773.80 96.2798
2773.85 93.0692
2773.91 90.0341
2773.97 87.1656
2774.02 84.4549
2774.08 81.8934
2774.13 79.4729
2774.19 77.1850
2774.25 74.9847
2774.30 72.9413
2774.36 71.0081
2774.41 69.1783
2774.53 65.8032
2774.64 62.7682
2774.75 60.0308
2774.86 57.5539
2774.97 55.3047
2775.09 53.2549
2775.20 51.3641
2775.31 49.6444
2775.42 48.0602
2775.54 46.5959
2775.65 45.2263
2775.76 43.9641
2775.87 42.7868
2775.98 41.6857
2776.21 39.6748
2776.43 37.8999
2776.66 36.3072
2776.88 34.8811
2777.11 33.5850
2777.33 32.4067
2777.56 31.3303
2777.78 30.3471
2778.01 29.4376
2778.23 28.6009
2778.46 27.8217
2778.68 27.1005
2779.07 25.9639
2779.46 24.9497
2779.84 24.0389
2780.23 23.2181
2780.62 22.4707
2781.01 21.7906
2781.39 21.1659
2781.78 20.5927
2782.23 19.9814
2782.68 19.4233
2783.13 18.9104
2783.58 18.4375
2784.03 18.0000
2784.48 17.5940
2785.37 16.8636
2786.07 16.3628
2786.76 15.9089
2787.46 15.4954
2788.15 15.1174
2788.84 14.7695
2789.54 14.4485
2790.92 13.8762
2791.82 13.5477
2792.72 13.2470
2794.52 12.7160
2796.31 12.2617
2798.11 11.8683
2800.23 11.4661
2802.35 11.1188
2804.48 10.8159
2806.60 10.5489
2808.39 10.3462
2810.19 10.1620
2813.78 9.83961
2817.37 9.56658
2820.96 9.33231
2824.56 9.12887
2828.15 8.95051
2831.74 8.79278
2835.33 8.65227
2842.19 8.42260
2849.05 8.23171
2855.90 8.07055
2862.76 7.93246
2869.94 7.80734
2877.13 7.69822
2884.31 7.60204
2891.50 7.51652
2903.25 7.39515
2915.01 7.29152
2926.76 7.20158
2938.52 7.12250
2952.88 7.03750
2967.25 6.96242
2981.62 6.89508
2995.99 6.83386
3018.19 6.74841
3040.39 6.67105
3062.60 6.59892
3084.80 6.53009
3105.70 6.46669
3130.52 6.39116
3155.33 6.31323
3180.15 6.23029
3204.97 6.13923
3219.34 6.08112
3233.70 6.01781
3248.07 5.94801
3262.44 5.86997
3274.85 5.79413
3287.25 5.70859
3299.66 5.61072
3312.07 5.49722
3326.44 5.33944
3333.62 5.24687
3340.81 5.14277
3347.99 5.02463
3355.17 4.88926
3362.36 4.73244
3369.54 4.54862
3373.13 4.44426
3376.72 4.32981
3380.32 4.20390
3383.91 4.06478
3387.50 3.91017
3391.09 3.73748
3394.68 3.54343
3396.48 3.43718
3398.27 3.32409
3401.05 3.13409
3403.83 2.92333
3405.21 2.80928
3406.60 2.68894
3407.99 2.56171
3409.38 2.42720
3411.17 2.24145
3412.97 2.04178
3413.87 1.93649
3414.77 1.82748
3415.66 1.71472
3416.56 1.59839
3417.46 1.47835
3418.36 1.35493
3419.25 1.22850
3420.15 1.09964
3421.05 0.969205
3421.95 0.838440
3422.85 0.709134
3423.74 0.583843
3424.19 0.523798
3424.64 0.466255
3425.09 0.411936
3425.54 0.361707
3425.99 0.316606
3426.21 0.296319
3426.44 0.277889
3426.66 0.261353
3426.89 0.247075
3427.11 0.235173
3427.34 0.226017
3427.58 0.219430
3427.83 0.216841
3428.07 0.218727
3428.19 0.221500
3428.32 0.225586
3428.48 0.233282
3428.62 0.242198
3428.77 0.253314
3428.98 0.274393
3429.19 0.301296
3429.41 0.334638
3429.62 0.375102
3429.85 0.426167
3430.07 0.486944
3430.30 0.558554
3430.52 0.641859
3430.63 0.688872
3430.75 0.739026
3430.86 0.792926
3430.97 0.850792
3431.08 0.913433
3431.19 0.979989
3431.31 1.05126
3431.42 1.12754
3431.52 1.19788
3431.61 1.27241
3431.71 1.35135
3431.81 1.43495
3431.90 1.52345
3432.00 1.61712
3432.10 1.71625
3432.19 1.82114
3432.29 1.93211
3432.39 2.04951
3432.49 2.17371
3432.58 2.30509
3432.68 2.44407
3432.78 2.59110
3432.87 2.74666
3432.97 2.90952
3433.08 3.11328
3433.19 3.32899
3433.31 3.55938
3433.42 3.80552
3433.53 4.07101
3433.64 4.35242
3433.76 4.65342
3433.87 4.97551
3433.98 5.32354
3434.09 5.69318
3434.20 6.08938
3434.32 6.51434
3434.43 6.97467
3434.54 7.46490
3434.65 7.99188
3434.77 8.55885
3434.88 9.17505
3434.99 9.83356
3435.10 10.5441
3435.21 11.3115
3435.33 12.1489
3435.44 13.0477
3435.55 14.0219
3435.66 15.0790
3435.78 16.2382
3435.89 17.4886
3436.00 18.8508
3436.11 20.3366
3436.23 21.9745
3436.34 23.7507
3436.45 25.6955
3436.56 27.8275
3436.67 30.1893
3436.79 32.7620
3436.84 34.1427
3436.90 35.5908
3436.95 37.1098
3437.01 38.7034
3437.07 40.3755
3437.12 42.1301
3437.18 43.9714
3437.23 45.9039
3437.29 47.9319
3437.35 50.0602
3437.40 52.2937
3437.46 54.6374
3437.52 57.1413
3437.57 59.7230
3437.63 62.4308
3437.68 65.2700
3437.74 68.3008
3437.80 71.4226
3437.85 74.6929
3437.91 78.1175
3437.97 81.7677
3438.02 85.5210
3438.08 89.4458
3438.13 93.5475
3438.25 102.303
3438.36 111.828
3438.47 122.255
3438.58 133.430
3438.69 145.463
3438.81 158.367
3438.92 172.144
3439.03 186.781
3439.14 202.251
3439.25 218.510
3439.37 235.496
3439.48 253.129
3439.70 289.746
3439.92 327.491
3440.15 365.073
3440.26 384.066
3440.38 402.233
3440.49 419.663
3440.61 435.834
3440.73 450.812
3440.84 464.140
3440.96 475.773
3441.07 485.553
3441.19 493.353
3441.30 499.074
3441.45 503.373
3441.58 503.998
3441.70 502.082
3441.83 497.700
3441.95 490.972
3442.08 482.059
3442.20 471.155
3442.33 458.485
3442.45 444.293
3442.61 424.315
3442.77 402.949
3443.09 357.631
3443.29 329.347
3443.49 301.875
3443.58 288.571
3443.68 275.633
3443.78 263.105
3443.88 251.024
3444.03 232.895
3444.11 224.352
3444.19 216.124
3444.26 208.111
3444.34 200.519
3444.42 193.241
3444.50 186.273
3444.57 179.524
3444.65 173.162
3444.73 167.089
3444.80 161.297
3444.88 155.777
3444.96 150.520
3445.04 145.514
3445.11 140.750
3445.19 136.160
3445.27 131.850
3445.34 127.751
3445.42 123.851
3445.58 116.566
3445.73 110.013
3445.89 104.032
3446.04 98.6367
3446.19 93.7258
3446.35 89.2465
3446.54 84.0705
3446.74 79.4592
3446.94 75.2922
3447.13 71.5501
3447.33 68.1418
3447.53 65.0576
3447.72 62.2418
3447.92 59.6626
3448.07 57.7722
3448.23 56.0120
3448.54 52.7943
3448.85 49.9396
3449.15 47.3998
3449.46 45.1133
3449.77 43.0518
3450.08 41.1849
3450.39 39.4925
3450.70 37.9424
3451.01 36.5227
3451.32 35.2180
3451.62 34.0192
3451.93 32.9074
3452.24 31.8803
3452.55 30.9230
3452.86 30.0343
3453.42 28.5613
3453.98 27.2557
3454.54 26.0892
3455.10 25.0411
3455.66 24.0933
3456.23 23.2354
3456.79 22.4542
3457.35 21.7402
3457.97 21.0218
3458.58 20.3671
3459.20 19.7663
3459.82 19.2149
3460.44 18.7056
3461.05 18.2353
3462.29 17.3935
3463.07 16.9165
3463.86 16.4788
3465.43 15.7048
3467.00 15.0409
3468.57 14.4654
3469.81 14.0643
3471.04 13.7014
3472.28 13.3717
3473.51 13.0711
3475.98 12.5425
3478.45 12.0929
3480.92 11.7059
3483.39 11.3696
3485.86 11.0747
3488.33 10.8139
3491.25 10.5425
3494.16 10.3039
3495.62 10.1950
3495.99 10.1689
3496.35 10.1436
3496.54 10.1313
3496.72 10.1196
3496.90 10.1084
3497.08 10.0980
3497.26 10.0886
3497.45 10.0806
3497.63 10.0743
3497.81 10.0703
3497.99 10.0690
3498.18 10.0710
3498.36 10.0767
3498.54 10.0868
3498.72 10.1015
3498.91 10.1211
3499.09 10.1457
3499.27 10.1749
3499.45 10.2087
3499.64 10.2459
3500.00 10.3278
3500.00 10.6954
3750.00 10.4709
4000.00 10.2653
4250.00 10.0832
4500.00 9.91464
4750.00 9.75787
5000.00 9.61154
5500.00 9.35816
6000.00 9.13291
6500.00 8.93922
7000.00 8.76370
7500.00 8.61002
8000.00 8.46880
8500.00 8.34510
9000.00 8.23021
10000.0 8.02275
10625.0 7.91406
11250.0 7.81301
12500.0 7.63032
13750.0 7.48012
15000.0 7.34580
16000.0 7.25344
17000.0 7.16784
18500.0 7.05685
20000.0 6.95624
21250.0 6.88510
22500.0 6.81882
23750.0 6.75682
25000.0 6.69862
27500.0 6.60113
30000.0 6.51366
32500.0 6.44038
35000.0 6.37347
37500.0 6.31604
40000.0 6.26293
42500.0 6.21759
45000.0 6.17528
47500.0 6.13563
50000.0 6.09835
55000.0 6.03612
60000.0 5.98011
65000.0 5.93304
70000.0 5.88992
75000.0 5.85244
80000.0 5.81768
90000.0 5.75887
99999.9 5.70688
100000 5.70213
112500 5.67733
125000 5.65532
137500 5.63555
150000 5.61761
175000 5.61885
200000 5.61997
250000 5.66357
300000 5.72889
373197 5.85725
446393 5.96470
448068 5.96734
449744 5.96999
453094 5.97532
456444 5.98069
459795 5.98609
466496 5.99699
473197 6.00801
479897 6.01912
486598 6.03031
493299 6.04156
500000 6.05287
512500 6.07409
525000 6.09480
537500 6.11504
550000 6.13482
562500 6.15416
575000 6.17309
587500 6.19162
600000 6.20977
612500 6.22755
625000 6.24498
637500 6.26207
650000 6.27883
662500 6.29529
675000 6.31144
687500 6.32730
700000 6.34288
712500 6.35781
725000 6.37248
737500 6.38691
750000 6.40110
762500 6.41507
775000 6.42881
787500 6.44234
800000 6.45567
812500 6.46730
825000 6.47876
837500 6.49005
850000 6.50118
862500 6.51215
875000 6.52298
887500 6.53365
900000 6.54418
919287 6.55742
938573 6.57040
957860 6.58313
977146 6.59562
980003 6.59717
982860 6.59873
988573 6.60185
1.00000E+06 6.60814
1.02063E+06 6.61794
1.04125E+06 6.62759
1.04451E+06 6.62825
1.04777E+06 6.62891
1.05430E+06 6.63023
1.06082E+06 6.63155
1.06734E+06 6.63286
1.08039E+06 6.63547
1.09344E+06 6.63806
1.10649E+06 6.64063
1.11953E+06 6.64319
1.13258E+06 6.64573
1.14563E+06 6.64826
1.15867E+06 6.65077
1.17172E+06 6.65327
1.18477E+06 6.65575
1.19781E+06 6.65821
1.21086E+06 6.66066
1.22391E+06 6.66309
1.23695E+06 6.66551
1.25000E+06 6.66792
1.26317E+06 6.66506
1.27634E+06 6.66225
1.28950E+06 6.65950
1.30267E+06 6.65679
1.31584E+06 6.65414
1.32901E+06 6.65153
1.34217E+06 6.64897
1.35534E+06 6.64645
1.37672E+06 6.64223
1.39811E+06 6.63812
1.41949E+06 6.63413
1.44087E+06 6.63025
1.44088E+06 6.63024
1.44457E+06 6.62872
1.44827E+06 6.62720
1.45566E+06 6.62419
1.47044E+06 6.61827
1.48522E+06 6.61246
1.50000E+06 6.60677
1.52387E+06 6.59439
1.54774E+06 6.58234
1.57161E+06 6.57060
1.59548E+06 6.55916
1.59549E+06 6.55915
1.60062E+06 6.55621
1.60576E+06 6.55328
1.61604E+06 6.54749
1.61605E+06 6.54748
1.62023E+06 6.54460
1.62442E+06 6.54174
1.63279E+06 6.53605
1.64953E+06 6.52482
1.66628E+06 6.51379
1.68302E+06 6.50295
1.69977E+06 6.49231
1.71651E+06 6.48185
1.73326E+06 6.47157
1.75000E+06 6.46147
1.75070E+06 6.46098
1.75771E+06 6.45549
1.76471E+06 6.45004
1.77872E+06 6.43924
1.79289E+06 6.42825
1.80707E+06 6.41741
1.82124E+06 6.40671
1.83541E+06 6.39616
1.84958E+06 6.38576
1.86376E+06 6.37549
1.87793E+06 6.36537
1.89210E+06 6.35537
1.89211E+06 6.35537
1.89885E+06 6.34965
1.90559E+06 6.34397
1.91908E+06 6.33273
1.93256E+06 6.32164
1.94605E+06 6.31069
1.95954E+06 6.29988
1.97303E+06 6.28922
1.98651E+06 6.27869
2.00000E+06 6.26830
2.01224E+06 6.25812
2.01225E+06 6.25812
2.01537E+06 6.25552
2.02340E+06 6.24830
2.03143E+06 6.24114
2.03946E+06 6.23403
2.04750E+06 6.22699
2.05553E+06 6.21999
2.06356E+06 6.21306
2.07159E+06 6.20617
2.07962E+06 6.19935
2.08765E+06 6.19257
2.09568E+06 6.18585
2.10371E+06 6.17918
2.11175E+06 6.17257
2.11978E+06 6.16600
2.12781E+06 6.15949
2.13584E+06 6.15302
2.14387E+06 6.14661
2.14388E+06 6.14660
2.15029E+06 6.14080
2.15671E+06 6.13504
2.16955E+06 6.12361
2.18239E+06 6.11232
2.19523E+06 6.10117
2.20806E+06 6.09016
2.22090E+06 6.07928
2.23374E+06 6.06853
2.24658E+06 6.05791
2.25260E+06 6.05264
2.25863E+06 6.04740
2.27067E+06 6.03701
2.27568E+06 6.03262
2.28070E+06 6.02826
2.29072E+06 6.01960
2.29073E+06 6.01959
2.29889E+06 6.01251
2.30399E+06 6.00792
2.30908E+06 6.00335
2.31928E+06 5.99429
2.32947E+06 5.98531
2.33966E+06 5.97642
2.34985E+06 5.96762
2.36005E+06 5.95890
2.37024E+06 5.95027
2.38043E+06 5.94172
2.38790E+06 5.93509
2.39537E+06 5.92851
2.40284E+06 5.92197
2.41031E+06 5.91547
2.41778E+06 5.90903
2.42525E+06 5.90262
2.43272E+06 5.89626
2.44019E+06 5.88995
2.44019E+06 5.88994
2.44987E+06 5.88158
2.45652E+06 5.87581
2.46317E+06 5.87008
2.46317E+06 5.87007
2.47290E+06 5.86157
2.48263E+06 5.85315
2.49235E+06 5.84480
2.50208E+06 5.83653
2.51130E+06 5.82854
2.52052E+06 5.82063
2.52052E+06 5.82063
2.53050E+06 5.81205
2.53050E+06 5.81205
2.53231E+06 5.81049
2.53232E+06 5.81048
2.54128E+06 5.80278
2.54129E+06 5.80277
2.54845E+06 5.79549
2.55562E+06 5.78824
2.56278E+06 5.78105
2.56995E+06 5.77389
2.57712E+06 5.76679
2.58429E+06 5.75973
2.59145E+06 5.75271
2.59862E+06 5.74574
2.60579E+06 5.73881
2.61296E+06 5.73193
2.62012E+06 5.72508
2.62729E+06 5.71828
2.63446E+06 5.71153
2.64163E+06 5.70481
2.64879E+06 5.69814
2.65596E+06 5.69151
2.66313E+06 5.68492
2.67030E+06 5.67837
2.67746E+06 5.67186
2.68463E+06 5.66539
2.69180E+06 5.65896
2.69897E+06 5.65257
2.70613E+06 5.64622
2.71330E+06 5.63990
2.72047E+06 5.63363
2.72764E+06 5.62739
2.73480E+06 5.62120
2.74197E+06 5.61503
2.74914E+06 5.60891
2.75631E+06 5.60282
2.76347E+06 5.59677
2.77064E+06 5.59076
2.77781E+06 5.58478
2.78498E+06 5.57884
2.79214E+06 5.57293
2.79931E+06 5.56706
2.80648E+06 5.56122
2.81365E+06 5.55542
2.82081E+06 5.54965
2.82798E+06 5.54392
2.83515E+06 5.53822
2.84232E+06 5.53255
2.84948E+06 5.52692
2.85665E+06 5.52132
2.86382E+06 5.51575
2.87099E+06 5.51022
2.87815E+06 5.50471
2.88532E+06 5.49924
2.89249E+06 5.49380
2.89966E+06 5.48840
2.90682E+06 5.48302
2.91399E+06 5.47768
2.92116E+06 5.47236
2.92833E+06 5.46708
2.93549E+06 5.46183
2.94266E+06 5.45660
2.94983E+06 5.45141
2.95700E+06 5.44625
2.96416E+06 5.44111
2.97133E+06 5.43601
2.97850E+06 5.43093
2.98567E+06 5.42589
2.99283E+06 5.42087
3.00000E+06 5.41588
3.00781E+06 5.40788
3.01563E+06 5.39992
3.02344E+06 5.39201
3.03125E+06 5.38415
3.03906E+06 5.37632
3.04688E+06 5.36854
3.05469E+06 5.36080
3.06250E+06 5.35311
3.07031E+06 5.34545
3.07813E+06 5.33784
3.08594E+06 5.33027
3.09375E+06 5.32273
3.10156E+06 5.31524
3.10938E+06 5.30779
3.11719E+06 5.30038
3.12500E+06 5.29301
3.13281E+06 5.28568
3.14063E+06 5.27839
3.14844E+06 5.27114
3.15625E+06 5.26392
3.16406E+06 5.25674
3.17188E+06 5.24961
3.17969E+06 5.24250
3.18750E+06 5.23544
3.19531E+06 5.22841
3.20313E+06 5.22142
3.21094E+06 5.21447
3.21875E+06 5.20755
3.22656E+06 5.20067
3.23438E+06 5.19383
3.24219E+06 5.18701
3.25000E+06 5.18024
3.25781E+06 5.17350
3.26563E+06 5.16679
3.27344E+06 5.16012
3.28125E+06 5.15349
3.28906E+06 5.14688
3.29688E+06 5.14031
3.30469E+06 5.13378
3.31250E+06 5.12727
3.32031E+06 5.12080
3.32813E+06 5.11437
3.33594E+06 5.10796
3.34375E+06 5.10159
3.35156E+06 5.09525
3.35938E+06 5.08894
3.36719E+06 5.08266
3.37500E+06 5.07642
3.38281E+06 5.07020
3.39063E+06 5.06402
3.39844E+06 5.05786
3.40625E+06 5.05174
3.41406E+06 5.04565
3.42188E+06 5.03958
3.42969E+06 5.03355
3.43750E+06 5.02755
3.44531E+06 5.02157
3.45313E+06 5.01563
3.46094E+06 5.00971
3.46875E+06 5.00383
3.47656E+06 4.99797
3.48438E+06 4.99214
3.49219E+06 4.98634
3.50000E+06 4.98056
3.50781E+06 4.97481
3.51563E+06 4.96910
3.52344E+06 4.96341
3.53125E+06 4.95774
3.53906E+06 4.95210
3.54688E+06 4.94650
3.55469E+06 4.94091
3.56250E+06 4.93535
3.57031E+06 4.92982
3.57813E+06 4.92432
3.58594E+06 4.91884
3.59375E+06 4.91339
3.60156E+06 4.90796
3.60938E+06 4.90256
3.61719E+06 4.89719
3.62500E+06 4.89183
3.63281E+06 4.88651
3.64063E+06 4.88121
3.64844E+06 4.87593
3.65625E+06 4.87068
3.66406E+06 4.86545
3.67188E+06 4.86025
3.67969E+06 4.85507
3.68750E+06 4.84991
3.69531E+06 4.84478
3.70313E+06 4.83967
3.71094E+06 4.83459
3.71875E+06 4.82952
3.72656E+06 4.82449
3.73438E+06 4.81947
3.74219E+06 4.81448
3.75000E+06 4.80951
3.75781E+06 4.80456
3.76563E+06 4.79963
3.77344E+06 4.79473
3.78125E+06 4.78985
3.78906E+06 4.78499
3.79688E+06 4.78015
3.80469E+06 4.77533
3.81250E+06 4.77054
3.82031E+06 4.76577
3.82813E+06 4.76102
3.83594E+06 4.75628
3.84375E+06 4.75157
3.85156E+06 4.74689
3.85938E+06 4.74222
3.86719E+06 4.73757
3.87500E+06 4.73294
3.88281E+06 4.72834
3.89063E+06 4.72375
3.89844E+06 4.71918
3.90625E+06 4.71464
3.91406E+06 4.71011
3.92188E+06 4.70560
3.92969E+06 4.70111
3.93750E+06 4.69665
3.94531E+06 4.69220
3.95313E+06 4.68777
3.96094E+06 4.68336
3.96875E+06 4.67897
3.97656E+06 4.67460
3.98438E+06 4.67024
3.99219E+06 4.66591
4.00000E+06 4.66159
4.00781E+06 4.65699
4.01563E+06 4.65241
4.02344E+06 4.64784
4.03125E+06 4.64328
4.03906E+06 4.63875
4.04688E+06 4.63423
4.05469E+06 4.62972
4.06250E+06 4.62524
4.07031E+06 4.62076
4.07813E+06 4.61631
4.08594E+06 4.61186
4.09375E+06 4.60744
4.10156E+06 4.60303
4.10938E+06 4.59863
4.11719E+06 4.59425
4.12500E+06 4.58988
4.13281E+06 4.58553
4.14063E+06 4.58120
4.14844E+06 4.57688
4.15625E+06 4.57257
4.16406E+06 4.56828
4.17188E+06 4.56401
4.17969E+06 4.55974
4.18750E+06 4.55550
4.19531E+06 4.55126
4.20313E+06 4.54704
4.21094E+06 4.54284
4.21875E+06 4.53865
4.22656E+06 4.53447
4.23438E+06 4.53031
4.24219E+06 4.52616
4.25000E+06 4.52203
4.25781E+06 4.51791
4.26563E+06 4.51380
4.27344E+06 4.50970
4.28125E+06 4.50562
4.28906E+06 4.50156
4.29688E+06 4.49750
4.30469E+06 4.49346
4.31250E+06 4.48944
4.32031E+06 4.48542
4.32813E+06 4.48142
4.33594E+06 4.47743
4.34375E+06 4.47346
4.35156E+06 4.46950
4.35938E+06 4.46555
4.36719E+06 4.46161
4.37500E+06 4.45769
4.38281E+06 4.45378
4.39063E+06 4.44988
4.39844E+06 4.44599
4.40625E+06 4.44212
4.41406E+06 4.43826
4.42188E+06 4.43441
4.42969E+06 4.43058
4.43750E+06 4.42675
4.44531E+06 4.42294
4.45313E+06 4.41914
4.46094E+06 4.41535
4.46875E+06 4.41157
4.47656E+06 4.40781
4.48438E+06 4.40406
4.49219E+06 4.40031
4.50000E+06 4.39659
4.50781E+06 4.39287
4.51563E+06 4.38916
4.52344E+06 4.38547
4.53125E+06 4.38178
4.53906E+06 4.37811
4.54688E+06 4.37445
4.55469E+06 4.37080
4.56250E+06 4.36716
4.57031E+06 4.36354
4.57813E+06 4.35992
4.58594E+06 4.35632
4.59375E+06 4.35272
4.60156E+06 4.34914
4.60938E+06 4.34557
4.61719E+06 4.34201
4.62500E+06 4.33846
4.63281E+06 4.33492
4.64063E+06 4.33139
4.64844E+06 4.32787
4.65625E+06 4.32436
4.66406E+06 4.32087
4.67188E+06 4.31738
4.67969E+06 4.31390
4.68750E+06 4.31044
4.69531E+06 4.30698
4.70313E+06 4.30354
4.71094E+06 4.30010
4.71875E+06 4.29667
4.72656E+06 4.29326
4.73438E+06 4.28986
4.74219E+06 4.28646
4.75000E+06 4.28308
4.75781E+06 4.27970
4.76563E+06 4.27634
4.77344E+06 4.27298
4.78125E+06 4.26963
4.78906E+06 4.26630
4.79688E+06 4.26297
4.80469E+06 4.25966
4.81250E+06 4.25635
4.82031E+06 4.25305
4.82813E+06 4.24976
4.83594E+06 4.24648
4.84375E+06 4.24322
4.85156E+06 4.23996
4.85938E+06 4.23671
4.86719E+06 4.23347
4.87500E+06 4.23023
4.88281E+06 4.22701
4.89063E+06 4.22380
4.89844E+06 4.22059
4.90625E+06 4.21740
4.91406E+06 4.21421
4.92188E+06 4.21103
4.92969E+06 4.20787
4.93750E+06 4.20471
4.94531E+06 4.20156
4.95313E+06 4.19841
4.96094E+06 4.19528
4.96875E+06 4.19216
4.97656E+06 4.18904
4.98438E+06 4.18593
4.99219E+06 4.18284
5.00000E+06 4.17975
5.00712E+06 4.17828
5.01423E+06 4.17682
5.02135E+06 4.17536
5.02847E+06 4.17391
5.03559E+06 4.17245
5.04270E+06 4.17101
5.04982E+06 4.16956
5.05694E+06 4.16812
5.06405E+06 4.16668
5.07117E+06 4.16524
5.07829E+06 4.16381
5.08540E+06 4.16238
5.09252E+06 4.16095
5.09964E+06 4.15953
5.10676E+06 4.15811
5.11387E+06 4.15669
5.12099E+06 4.15528
5.12811E+06 4.15387
5.13522E+06 4.15246
5.14234E+06 4.15105
5.14946E+06 4.14965
5.15657E+06 4.14825
5.16369E+06 4.14685
5.17081E+06 4.14546
5.17793E+06 4.14407
5.18504E+06 4.14268
5.19216E+06 4.14130
5.19928E+06 4.13992
5.20639E+06 4.13854
5.21351E+06 4.13716
5.22063E+06 4.13579
5.22774E+06 4.13442
5.23486E+06 4.13305
5.24198E+06 4.13169
5.24909E+06 4.13033
5.25621E+06 4.12897
5.26333E+06 4.12761
5.27045E+06 4.12626
5.27756E+06 4.12491
5.28468E+06 4.12356
5.29180E+06 4.12221
5.29891E+06 4.12087
5.30603E+06 4.11953
5.31315E+06 4.11819
5.32026E+06 4.11686
5.32738E+06 4.11553
5.33450E+06 4.11420
5.34161E+06 4.11287
5.34873E+06 4.11155
5.35585E+06 4.11023
5.36297E+06 4.10891
5.37008E+06 4.10759
5.37720E+06 4.10628
5.38432E+06 4.10497
5.39143E+06 4.10366
5.39855E+06 4.10236
5.40567E+06 4.10105
5.41278E+06 4.09975
5.41990E+06 4.09846
5.42702E+06 4.09716
5.43414E+06 4.09587
5.44125E+06 4.09458
5.44837E+06 4.09329
5.45549E+06 4.09200
5.46260E+06 4.09072
5.46972E+06 4.08944
5.47684E+06 4.08816
5.48395E+06 4.08689
5.49107E+06 4.08561
5.49819E+06 4.08434
5.50530E+06 4.08308
5.51242E+06 4.08181
5.51954E+06 4.08055
5.52666E+06 4.07929
5.53377E+06 4.07803
5.54089E+06 4.07677
5.54801E+06 4.07552
5.55512E+06 4.07427
5.56224E+06 4.07302
5.56936E+06 4.07177
5.57647E+06 4.07052
5.58359E+06 4.06928
5.59071E+06 4.06804
5.59783E+06 4.06681
5.60494E+06 4.06557
5.61206E+06 4.06434
5.61918E+06 4.06311
5.62629E+06 4.06188
5.63341E+06 4.06065
5.64053E+06 4.05943
5.64764E+06 4.05821
5.65476E+06 4.05699
5.66188E+06 4.05577
5.66900E+06 4.05455
5.67611E+06 4.05334
5.68323E+06 4.05213
5.69035E+06 4.05092
5.69746E+06 4.04972
5.70458E+06 4.04851
5.71170E+06 4.04731
5.71881E+06 4.04611
5.72593E+06 4.04491
5.73305E+06 4.04372
5.74016E+06 4.04252
5.74728E+06 4.04133
5.75440E+06 4.04014
5.76152E+06 4.03895
5.76863E+06 4.03777
5.77575E+06 4.03659
5.78287E+06 4.03541
5.78998E+06 4.03423
5.79710E+06 4.03305
5.80422E+06 4.03188
5.81133E+06 4.03070
5.81845E+06 4.02953
5.82557E+06 4.02836
5.83268E+06 4.02720
5.83980E+06 4.02603
5.84692E+06 4.02487
5.85404E+06 4.02371
5.86115E+06 4.02255
5.86827E+06 4.02139
5.87539E+06 4.02024
5.88250E+06 4.01909
5.88962E+06 4.01794
5.89674E+06 4.01679
5.90385E+06 4.01564
5.91097E+06 4.01450
5.91654E+06 4.01358
5.92210E+06 4.01268
5.92766E+06 4.01177
5.93323E+06 4.01086
5.93879E+06 4.00995
5.94436E+06 4.00905
5.94992E+06 4.00814
5.95549E+06 4.00724
5.96105E+06 4.00634
5.96661E+06 4.00544
5.97218E+06 4.00454
5.97774E+06 4.00364
5.98331E+06 4.00274
5.98887E+06 4.00185
5.99444E+06 4.00095
6.00000E+06 4.00006
6.01099E+06 4.00083
6.02199E+06 4.00161
6.03298E+06 4.00238
6.04397E+06 4.00315
6.05496E+06 4.00393
6.06595E+06 4.00470
6.07695E+06 4.00548
6.08794E+06 4.00625
6.09893E+06 4.00703
6.10992E+06 4.00780
6.12091E+06 4.00858
6.13191E+06 4.00935
6.14290E+06 4.01013
6.15389E+06 4.01090
6.16488E+06 4.01168
6.17587E+06 4.01246
6.18687E+06 4.01323
6.19786E+06 4.01401
6.20885E+06 4.01479
6.21984E+06 4.01556
6.23083E+06 4.01634
6.24183E+06 4.01712
6.25282E+06 4.01789
6.26381E+06 4.01867
6.27480E+06 4.01945
6.28579E+06 4.02023
6.29679E+06 4.02100
6.30778E+06 4.02178
6.31877E+06 4.02256
6.32976E+06 4.02334
6.34075E+06 4.02412
6.35175E+06 4.02489
6.36274E+06 4.02567
6.37373E+06 4.02645
6.38472E+06 4.02723
6.39571E+06 4.02801
6.40671E+06 4.02879
6.41770E+06 4.02957
6.42869E+06 4.03035
6.43968E+06 4.03112
6.45067E+06 4.03190
6.46167E+06 4.03268
6.47266E+06 4.03346
6.48365E+06 4.03424
6.49464E+06 4.03502
6.50563E+06 4.03580
6.51663E+06 4.03658
6.52762E+06 4.03737
6.53861E+06 4.03815
6.54960E+06 4.03893
6.56059E+06 4.03971
6.57159E+06 4.04049
6.58258E+06 4.04128
6.59357E+06 4.04206
6.60456E+06 4.04284
6.61555E+06 4.04363
6.62655E+06 4.04441
6.63754E+06 4.04520
6.64853E+06 4.04598
6.65952E+06 4.04677
6.67051E+06 4.04756
6.68151E+06 4.04834
6.69250E+06 4.04913
6.70349E+06 4.04992
6.72202E+06 4.05115
6.74055E+06 4.05238
6.75909E+06 4.05361
6.77762E+06 4.05484
6.79615E+06 4.05607
6.81468E+06 4.05729
6.83321E+06 4.05852
6.85175E+06 4.05975
6.87028E+06 4.06097
6.88881E+06 4.06220
6.90734E+06 4.06343
6.92587E+06 4.06465
6.94441E+06 4.06588
6.96294E+06 4.06710
6.98147E+06 4.06833
7.00000E+06 4.06955
7.01510E+06 4.07248
7.03021E+06 4.07540
7.04531E+06 4.07833
7.06041E+06 4.08125
7.07552E+06 4.08418
7.09062E+06 4.08710
7.10573E+06 4.09002
7.12083E+06 4.09295
7.13593E+06 4.09587
7.15104E+06 4.09879
7.16614E+06 4.10171
7.18124E+06 4.10463
7.19635E+06 4.10755
7.21145E+06 4.11047
7.22655E+06 4.11339
7.24166E+06 4.11631
7.25676E+06 4.11923
7.27186E+06 4.12215
7.28697E+06 4.12507
7.30207E+06 4.12798
7.31717E+06 4.13090
7.33228E+06 4.13382
7.34738E+06 4.13673
7.36248E+06 4.13965
7.37759E+06 4.14256
7.39269E+06 4.14547
7.40779E+06 4.14839
7.42290E+06 4.15130
7.43800E+06 4.15421
7.45310E+06 4.15712
7.46821E+06 4.16003
7.48331E+06 4.16294
7.49946E+06 4.16594
7.51560E+06 4.16894
7.53175E+06 4.17193
7.54790E+06 4.17493
7.56404E+06 4.17793
7.58019E+06 4.18092
7.59634E+06 4.18392
7.61248E+06 4.18691
7.62863E+06 4.18990
7.64478E+06 4.19289
7.66092E+06 4.19588
7.67707E+06 4.19887
7.69322E+06 4.20186
7.70936E+06 4.20485
7.72551E+06 4.20783
7.74166E+06 4.21082
7.75780E+06 4.21380
7.77395E+06 4.21679
7.79010E+06 4.21977
7.80624E+06 4.22275
7.82239E+06 4.22574
7.83854E+06 4.22872
7.85468E+06 4.23170
7.87083E+06 4.23467
7.88698E+06 4.23765
7.90312E+06 4.24063
7.91927E+06 4.24360
7.93541E+06 4.24658
7.95156E+06 4.24955
7.96771E+06 4.25253
7.98385E+06 4.25550
8.00000E+06 4.25847
8.00945E+06 4.26035
8.01889E+06 4.26224
8.02834E+06 4.26412
8.03779E+06 4.26601
8.04724E+06 4.26790
8.05668E+06 4.26979
8.06613E+06 4.27167
8.07558E+06 4.27356
8.08502E+06 4.27545
8.09447E+06 4.27734
8.10392E+06 4.27923
8.11336E+06 4.28112
8.12281E+06 4.28301
8.13226E+06 4.28490
8.14170E+06 4.28679
8.15115E+06 4.28868
8.16217E+06 4.29086
8.17319E+06 4.29305
8.18421E+06 4.29523
8.19523E+06 4.29741
8.20625E+06 4.29959
8.21727E+06 4.30178
8.22829E+06 4.30396
8.23931E+06 4.30615
8.24700E+06 4.30765
8.25468E+06 4.30915
8.26237E+06 4.31065
8.27006E+06 4.31215
8.27774E+06 4.31365
8.28543E+06 4.31515
8.29312E+06 4.31665
8.30080E+06 4.31815
8.30849E+06 4.31965
8.31618E+06 4.32115
8.32386E+06 4.32265
8.33155E+06 4.32415
8.33924E+06 4.32566
8.34692E+06 4.32716
8.35461E+06 4.32866
8.36230E+06 4.33016
8.36998E+06 4.33167
8.37767E+06 4.33317
8.38536E+06 4.33468
8.39304E+06 4.33618
8.40073E+06 4.33768
8.40842E+06 4.33919
8.41610E+06 4.34069
8.42379E+06 4.34220
8.43148E+06 4.34370
8.43916E+06 4.34521
8.44685E+06 4.34671
8.45453E+06 4.34822
8.46222E+06 4.34973
8.46991E+06 4.35123
8.47759E+06 4.35274
8.48528E+06 4.35425
8.49167E+06 4.35546
8.49806E+06 4.35668
8.50445E+06 4.35790
8.51084E+06 4.35911
8.51723E+06 4.36033
8.52362E+06 4.36155
8.53001E+06 4.36277
8.53640E+06 4.36398
8.54279E+06 4.36520
8.54918E+06 4.36642
8.55557E+06 4.36764
8.56196E+06 4.36885
8.56836E+06 4.37007
8.57475E+06 4.37129
8.58114E+06 4.37251
8.58753E+06 4.37373
8.59392E+06 4.37494
8.60031E+06 4.37616
8.60670E+06 4.37738
8.61309E+06 4.37860
8.61948E+06 4.37982
8.62587E+06 4.38104
8.63226E+06 4.38226
8.63865E+06 4.38348
8.64504E+06 4.38470
8.65143E+06 4.38592
8.65782E+06 4.38714
8.66421E+06 4.38836
8.67060E+06 4.38958
8.67699E+06 4.39080
8.68338E+06 4.39202
8.68977E+06 4.39324
8.69616E+06 4.39446
8.70255E+06 4.39568
8.70894E+06 4.39690
8.71533E+06 4.39812
8.72172E+06 4.39934
8.72811E+06 4.40056
8.73450E+06 4.40178
8.74089E+06 4.40301
8.74728E+06 4.40423
8.75367E+06 4.40545
8.76006E+06 4.40667
8.76645E+06 4.40789
8.77285E+06 4.40912
8.77924E+06 4.41034
8.78563E+06 4.41156
8.79202E+06 4.41278
8.79841E+06 4.41401
8.80480E+06 4.41523
8.81119E+06 4.41645
8.81758E+06 4.41767
8.82397E+06 4.41890
8.83036E+06 4.42012
8.83675E+06 4.42134
8.84314E+06 4.42257
8.84953E+06 4.42379
8.85592E+06 4.42501
8.86231E+06 4.42624
8.86870E+06 4.42746
8.87509E+06 4.42869
8.88148E+06 4.42991
8.88787E+06 4.43113
8.89426E+06 4.43236
8.90087E+06 4.43360
8.90748E+06 4.43484
8.91409E+06 4.43607
8.92070E+06 4.43731
8.92730E+06 4.43855
8.93391E+06 4.43979
8.94052E+06 4.44103
8.94713E+06 4.44227
8.95374E+06 4.44351
8.96035E+06 4.44475
8.96696E+06 4.44599
8.97357E+06 4.44723
8.98017E+06 4.44847
8.98678E+06 4.44971
8.99339E+06 4.45095
9.00000E+06 4.45219
9.00761E+06 4.45339
9.01521E+06 4.45460
9.02282E+06 4.45581
9.03043E+06 4.45701
9.03803E+06 4.45822
9.04564E+06 4.45943
9.05325E+06 4.46064
9.06085E+06 4.46185
9.06846E+06 4.46306
9.07607E+06 4.46427
9.08368E+06 4.46548
9.09128E+06 4.46669
9.09889E+06 4.46790
9.10650E+06 4.46911
9.11410E+06 4.47033
9.12171E+06 4.47154
9.12932E+06 4.47275
9.13692E+06 4.47397
9.14453E+06 4.47518
9.15214E+06 4.47640
9.15974E+06 4.47761
9.16735E+06 4.47883
9.17496E+06 4.48004
9.18256E+06 4.48126
9.19017E+06 4.48248
9.19778E+06 4.48370
9.20538E+06 4.48492
9.21299E+06 4.48614
9.22060E+06 4.48736
9.22820E+06 4.48858
9.23581E+06 4.48980
9.24342E+06 4.49102
9.25102E+06 4.49224
9.25863E+06 4.49346
9.26624E+06 4.49468
9.27384E+06 4.49591
9.28145E+06 4.49713
9.28906E+06 4.49835
9.29666E+06 4.49958
9.30427E+06 4.50081
9.31188E+06 4.50203
9.31948E+06 4.50326
9.32709E+06 4.50448
9.33470E+06 4.50571
9.34230E+06 4.50694
9.34991E+06 4.50817
9.35752E+06 4.50939
9.36512E+06 4.51062
9.37273E+06 4.51185
9.38034E+06 4.51308
9.38794E+06 4.51431
9.39555E+06 4.51554
9.40316E+06 4.51677
9.41076E+06 4.51800
9.41837E+06 4.51924
9.42598E+06 4.52047
9.43358E+06 4.52170
9.44119E+06 4.52294
9.44880E+06 4.52417
9.45640E+06 4.52541
9.46401E+06 4.52664
9.47162E+06 4.52788
9.47922E+06 4.52911
9.48683E+06 4.53035
9.49340E+06 4.53137
9.49998E+06 4.53240
9.50655E+06 4.53342
9.51312E+06 4.53445
9.51970E+06 4.53547
9.52627E+06 4.53650
9.53284E+06 4.53752
9.53942E+06 4.53855
9.54599E+06 4.53958
9.55256E+06 4.54061
9.55914E+06 4.54163
9.56571E+06 4.54266
9.57228E+06 4.54369
9.57885E+06 4.54472
9.58543E+06 4.54575
9.59200E+06 4.54678
9.59857E+06 4.54781
9.60515E+06 4.54884
9.61172E+06 4.54986
9.61829E+06 4.55090
9.62487E+06 4.55193
9.63144E+06 4.55296
9.63801E+06 4.55399
9.64459E+06 4.55502
9.65116E+06 4.55605
9.65773E+06 4.55708
9.66431E+06 4.55812
9.67088E+06 4.55915
9.67745E+06 4.56018
9.68402E+06 4.56122
9.69060E+06 4.56225
9.69717E+06 4.56328
9.70663E+06 4.56473
9.71610E+06 4.56618
9.72556E+06 4.56763
9.73502E+06 4.56908
9.74449E+06 4.57053
9.75395E+06 4.57199
9.76342E+06 4.57344
9.77288E+06 4.57489
9.78234E+06 4.57634
9.79181E+06 4.57780
9.80127E+06 4.57925
9.81073E+06 4.58070
9.82020E+06 4.58216
9.82966E+06 4.58361
9.83912E+06 4.58507
9.84859E+06 4.58653
9.85805E+06 4.58798
9.86751E+06 4.58944
9.87698E+06 4.59089
9.88644E+06 4.59235
9.89590E+06 4.59381
9.90537E+06 4.59527
9.91483E+06 4.59672
9.92429E+06 4.59818
9.93376E+06 4.59964
9.94322E+06 4.60110
9.95268E+06 4.60256
9.96215E+06 4.60402
9.97161E+06 4.60548
9.98107E+06 4.60694
9.99054E+06 4.60841
1.00000E+07 4.60987
1.00076E+07 4.61056
1.00153E+07 4.61126
1.00229E+07 4.61195
1.00305E+07 4.61265
1.00381E+07 4.61335
1.00458E+07 4.61406
1.00534E+07 4.61477
1.00610E+07 4.61548
1.00687E+07 4.61619
1.00763E+07 4.61691
1.00839E+07 4.61762
1.00915E+07 4.61834
1.00992E+07 4.61907
1.01068E+07 4.61979
1.01144E+07 4.62052
1.01220E+07 4.62125
1.01297E+07 4.62199
1.01373E+07 4.62272
1.01449E+07 4.62347
1.01525E+07 4.62421
1.01602E+07 4.62495
1.01678E+07 4.62570
1.01754E+07 4.62645
1.01830E+07 4.62720
1.01907E+07 4.62796
1.01983E+07 4.62871
1.02059E+07 4.62947
1.02136E+07 4.63024
1.02212E+07 4.63100
1.02288E+07 4.63177
1.02364E+07 4.63254
1.02441E+07 4.63331
1.02517E+07 4.63409
1.02593E+07 4.63487
1.02669E+07 4.63565
1.02746E+07 4.63643
1.02822E+07 4.63722
1.02898E+07 4.63801
1.02975E+07 4.63880
1.03051E+07 4.63959
1.03127E+07 4.64039
1.03203E+07 4.64119
1.03280E+07 4.64199
1.03356E+07 4.64280
1.03432E+07 4.64360
1.03508E+07 4.64441
1.03585E+07 4.64522
1.03661E+07 4.64604
1.03737E+07 4.64685
1.03813E+07 4.64767
1.03890E+07 4.64850
1.03966E+07 4.64932
1.04042E+07 4.65015
1.04118E+07 4.65098
1.04195E+07 4.65181
1.04271E+07 4.65264
1.04347E+07 4.65348
1.04424E+07 4.65432
1.04500E+07 4.65516
1.04576E+07 4.65600
1.04652E+07 4.65685
1.04729E+07 4.65770
1.04805E+07 4.65855
1.04881E+07 4.65941
1.04961E+07 4.66026
1.05041E+07 4.66111
1.05121E+07 4.66197
1.05201E+07 4.66283
1.05281E+07 4.66370
1.05361E+07 4.66457
1.05441E+07 4.66543
1.05521E+07 4.66630
1.05601E+07 4.66718
1.05681E+07 4.66806
1.05761E+07 4.66894
1.05841E+07 4.66982
1.05921E+07 4.67070
1.06001E+07 4.67159
1.06081E+07 4.67248
1.06161E+07 4.67338
1.06241E+07 4.67427
1.06321E+07 4.67517
1.06401E+07 4.67607
1.06481E+07 4.67697
1.06561E+07 4.67788
1.06641E+07 4.67879
1.06721E+07 4.67970
1.06801E+07 4.68061
1.06881E+07 4.68153
1.06961E+07 4.68245
1.07041E+07 4.68337
1.07121E+07 4.68430
1.07201E+07 4.68522
1.07281E+07 4.68615
1.07361E+07 4.68709
1.07441E+07 4.68802
1.07521E+07 4.68896
1.07601E+07 4.68990
1.07681E+07 4.69084
1.07761E+07 4.69179
1.07841E+07 4.69273
1.07921E+07 4.69369
1.08001E+07 4.69464
1.08080E+07 4.69559
1.08160E+07 4.69655
1.08240E+07 4.69751
1.08320E+07 4.69848
1.08400E+07 4.69944
1.08480E+07 4.70041
1.08560E+07 4.70138
1.08640E+07 4.70236
1.08720E+07 4.70333
1.08800E+07 4.70431
1.08880E+07 4.70529
1.08960E+07 4.70627
1.09040E+07 4.70726
1.09120E+07 4.70825
1.09200E+07 4.70924
1.09280E+07 4.71024
1.09360E+07 4.71123
1.09440E+07 4.71223
1.09520E+07 4.71323
1.09600E+07 4.71423
1.09680E+07 4.71524
1.09760E+07 4.71625
1.09840E+07 4.71726
1.09920E+07 4.71827
1.10000E+07 4.71929
1.10077E+07 4.71993
1.10153E+07 4.72057
1.10229E+07 4.72122
1.10306E+07 4.72187
1.10382E+07 4.72252
1.10459E+07 4.72317
1.10535E+07 4.72382
1.10611E+07 4.72448
1.10688E+07 4.72514
1.10764E+07 4.72580
1.10841E+07 4.72647
1.10917E+07 4.72713
1.10994E+07 4.72780
1.11070E+07 4.72847
1.11146E+07 4.72915
1.11223E+07 4.72982
1.11299E+07 4.73050
1.11376E+07 4.73118
1.11452E+07 4.73186
1.11529E+07 4.73254
1.11605E+07 4.73323
1.11681E+07 4.73392
1.11758E+07 4.73461
1.11834E+07 4.73530
1.11911E+07 4.73600
1.11987E+07 4.73670
1.12064E+07 4.73740
1.12140E+07 4.73810
1.12216E+07 4.73881
1.12293E+07 4.73951
1.12369E+07 4.74022
1.12446E+07 4.74093
1.12522E+07 4.74165
1.12598E+07 4.74236
1.12675E+07 4.74308
1.12751E+07 4.74380
1.12828E+07 4.74452
1.12904E+07 4.74525
1.12981E+07 4.74598
1.13057E+07 4.74671
1.13133E+07 4.74744
1.13210E+07 4.74817
1.13286E+07 4.74891
1.13363E+07 4.74965
1.13439E+07 4.75039
1.13516E+07 4.75113
1.13592E+07 4.75187
1.13668E+07 4.75262
1.13745E+07 4.75337
1.13821E+07 4.75412
1.13898E+07 4.75487
1.13974E+07 4.75563
1.14051E+07 4.75639
1.14127E+07 4.75715
1.14203E+07 4.75791
1.14280E+07 4.75867
1.14356E+07 4.75944
1.14433E+07 4.76021
1.14509E+07 4.76098
1.14585E+07 4.76175
1.14662E+07 4.76253
1.14738E+07 4.76331
1.14815E+07 4.76409
1.14891E+07 4.76487
1.14971E+07 4.76568
1.15051E+07 4.76649
1.15131E+07 4.76731
1.15210E+07 4.76813
1.15290E+07 4.76895
1.15370E+07 4.76977
1.15450E+07 4.77060
1.15530E+07 4.77143
1.15610E+07 4.77226
1.15689E+07 4.77309
1.15769E+07 4.77392
1.15849E+07 4.77476
1.15929E+07 4.77560
1.16009E+07 4.77644
1.16089E+07 4.77729
1.16168E+07 4.77813
1.16248E+07 4.77898
1.16328E+07 4.77983
1.16408E+07 4.78069
1.16488E+07 4.78154
1.16568E+07 4.78240
1.16647E+07 4.78326
1.16727E+07 4.78412
1.16807E+07 4.78499
1.16887E+07 4.78585
1.16967E+07 4.78672
1.17046E+07 4.78759
1.17126E+07 4.78847
1.17206E+07 4.78935
1.17286E+07 4.79022
1.17366E+07 4.79110
1.17446E+07 4.79199
1.17525E+07 4.79287
1.17605E+07 4.79376
1.17685E+07 4.79465
1.17765E+07 4.79554
1.17845E+07 4.79644
1.17925E+07 4.79734
1.18004E+07 4.79824
1.18084E+07 4.79914
1.18164E+07 4.80004
1.18244E+07 4.80095
1.18324E+07 4.80186
1.18404E+07 4.80277
1.18483E+07 4.80368
1.18563E+07 4.80459
1.18643E+07 4.80551
1.18723E+07 4.80643
1.18803E+07 4.80735
1.18883E+07 4.80828
1.18962E+07 4.80920
1.19042E+07 4.81013
1.19122E+07 4.81106
1.19202E+07 4.81200
1.19282E+07 4.81293
1.19361E+07 4.81387
1.19441E+07 4.81481
1.19521E+07 4.81575
1.19601E+07 4.81669
1.19681E+07 4.81764
1.19761E+07 4.81859
1.19840E+07 4.81954
1.19920E+07 4.82049
1.20000E+07 4.82145
1.20078E+07 4.82198
1.20156E+07 4.82252
1.20234E+07 4.82305
1.20313E+07 4.82359
1.20391E+07 4.82413
1.20469E+07 4.82467
1.20547E+07 4.82521
1.20625E+07 4.82576
1.20703E+07 4.82630
1.20781E+07 4.82685
1.20859E+07 4.82740
1.20938E+07 4.82794
1.21016E+07 4.82850
1.21094E+07 4.82905
1.21172E+07 4.82960
1.21250E+07 4.83016
1.21328E+07 4.83071
1.21406E+07 4.83127
1.21484E+07 4.83183
1.21563E+07 4.83239
1.21641E+07 4.83295
1.21719E+07 4.83351
1.21797E+07 4.83408
1.21875E+07 4.83464
1.21953E+07 4.83521
1.22031E+07 4.83578
1.22109E+07 4.83635
1.22188E+07 4.83692
1.22266E+07 4.83749
1.22344E+07 4.83807
1.22422E+07 4.83864
1.22500E+07 4.83922
1.22578E+07 4.83980
1.22656E+07 4.84038
1.22734E+07 4.84096
1.22813E+07 4.84154
1.22891E+07 4.84213
1.22969E+07 4.84271
1.23047E+07 4.84330
1.23125E+07 4.84389
1.23203E+07 4.84448
1.23281E+07 4.84507
1.23359E+07 4.84566
1.23438E+07 4.84625
1.23516E+07 4.84685
1.23594E+07 4.84744
1.23672E+07 4.84804
1.23750E+07 4.84864
1.23828E+07 4.84924
1.23906E+07 4.84984
1.23984E+07 4.85044
1.24063E+07 4.85105
1.24141E+07 4.85166
1.24219E+07 4.85226
1.24297E+07 4.85287
1.24375E+07 4.85348
1.24453E+07 4.85409
1.24531E+07 4.85470
1.24609E+07 4.85532
1.24688E+07 4.85593
1.24766E+07 4.85655
1.24844E+07 4.85717
1.24922E+07 4.85779
1.25000E+07 4.85841
1.25078E+07 4.85903
1.25156E+07 4.85966
1.25234E+07 4.86028
1.25313E+07 4.86091
1.25391E+07 4.86153
1.25469E+07 4.86216
1.25547E+07 4.86279
1.25625E+07 4.86343
1.25703E+07 4.86406
1.25781E+07 4.86469
1.25859E+07 4.86533
1.25938E+07 4.86597
1.26016E+07 4.86660
1.26094E+07 4.86724
1.26172E+07 4.86789
1.26250E+07 4.86853
1.26328E+07 4.86917
1.26406E+07 4.86982
1.26484E+07 4.87046
1.26563E+07 4.87111
1.26641E+07 4.87176
1.26719E+07 4.87241
1.26797E+07 4.87306
1.26875E+07 4.87372
1.26953E+07 4.87437
1.27031E+07 4.87503
1.27109E+07 4.87568
1.27188E+07 4.87634
1.27266E+07 4.87700
1.27344E+07 4.87766
1.27422E+07 4.87833
1.27500E+07 4.87899
1.27578E+07 4.87966
1.27656E+07 4.88032
1.27734E+07 4.88099
1.27813E+07 4.88166
1.27891E+07 4.88233
1.27969E+07 4.88300
1.28047E+07 4.88368
1.28125E+07 4.88435
1.28203E+07 4.88503
1.28281E+07 4.88571
1.28359E+07 4.88638
1.28438E+07 4.88707
1.28516E+07 4.88775
1.28594E+07 4.88843
1.28672E+07 4.88911
1.28750E+07 4.88980
1.28828E+07 4.89049
1.28906E+07 4.89118
1.28984E+07 4.89186
1.29063E+07 4.89256
1.29141E+07 4.89325
1.29219E+07 4.89394
1.29297E+07 4.89464
1.29375E+07 4.89533
1.29453E+07 4.89603
1.29531E+07 4.89673
1.29609E+07 4.89743
1.29688E+07 4.89813
1.29766E+07 4.89884
1.29844E+07 4.89954
1.29922E+07 4.90025
1.30000E+07 4.90095
1.30078E+07 4.90148
1.30156E+07 4.90201
1.30234E+07 4.90253
1.30313E+07 4.90306
1.30391E+07 4.90359
1.30469E+07 4.90412
1.30547E+07 4.90466
1.30625E+07 4.90519
1.30703E+07 4.90572
1.30781E+07 4.90626
1.30859E+07 4.90679
1.30938E+07 4.90733
1.31016E+07 4.90787
1.31094E+07 4.90840
1.31172E+07 4.90894
1.31250E+07 4.90948
1.31328E+07 4.91002
1.31406E+07 4.91057
1.31484E+07 4.91111
1.31563E+07 4.91165
1.31641E+07 4.91220
1.31719E+07 4.91274
1.31797E+07 4.91329
1.31875E+07 4.91383
1.31953E+07 4.91438
1.32031E+07 4.91493
1.32109E+07 4.91548
1.32188E+07 4.91603
1.32266E+07 4.91658
1.32344E+07 4.91714
1.32422E+07 4.91769
1.32500E+07 4.91824
1.32578E+07 4.91880
1.32656E+07 4.91935
1.32734E+07 4.91991
1.32813E+07 4.92047
1.32891E+07 4.92103
1.32969E+07 4.92159
1.33047E+07 4.92215
1.33125E+07 4.92271
1.33203E+07 4.92327
1.33281E+07 4.92383
1.33359E+07 4.92440
1.33438E+07 4.92496
1.33516E+07 4.92553
1.33594E+07 4.92609
1.33672E+07 4.92666
1.33750E+07 4.92723
1.33828E+07 4.92780
1.33906E+07 4.92837
1.33984E+07 4.92894
1.34063E+07 4.92951
1.34141E+07 4.93009
1.34219E+07 4.93066
1.34297E+07 4.93124
1.34375E+07 4.93181
1.34453E+07 4.93239
1.34531E+07 4.93297
1.34609E+07 4.93354
1.34688E+07 4.93412
1.34766E+07 4.93470
1.34844E+07 4.93529
1.34922E+07 4.93587
1.35000E+07 4.93645
1.35078E+07 4.93703
1.35156E+07 4.93762
1.35234E+07 4.93820
1.35313E+07 4.93879
1.35391E+07 4.93938
1.35469E+07 4.93997
1.35547E+07 4.94056
1.35625E+07 4.94115
1.35703E+07 4.94174
1.35781E+07 4.94233
1.35859E+07 4.94292
1.35938E+07 4.94352
1.36016E+07 4.94411
1.36094E+07 4.94471
1.36172E+07 4.94530
1.36250E+07 4.94590
1.36328E+07 4.94650
1.36406E+07 4.94710
1.36484E+07 4.94770
1.36563E+07 4.94830
1.36641E+07 4.94890
1.36719E+07 4.94951
1.36797E+07 4.95011
1.36875E+07 4.95071
1.36953E+07 4.95132
1.37031E+07 4.95193
1.37109E+07 4.95253
1.37188E+07 4.95314
1.37266E+07 4.95375
1.37344E+07 4.95437
1.37422E+07 4.95498
1.37500E+07 4.95559
1.37578E+07 4.95620
1.37656E+07 4.95682
1.37734E+07 4.95743
1.37813E+07 4.95805
1.37891E+07 4.95867
1.37969E+07 4.95929
1.38047E+07 4.95991
1.38125E+07 4.96053
1.38203E+07 4.96115
1.38281E+07 4.96177
1.38359E+07 4.96239
1.38438E+07 4.96302
1.38516E+07 4.96365
1.38594E+07 4.96427
1.38672E+07 4.96490
1.38750E+07 4.96553
1.38828E+07 4.96616
1.38906E+07 4.96679
1.38984E+07 4.96742
1.39063E+07 4.96805
1.39141E+07 4.96869
1.39219E+07 4.96932
1.39297E+07 4.96996
1.39375E+07 4.97060
1.39453E+07 4.97124
1.39531E+07 4.97188
1.39609E+07 4.97252
1.39688E+07 4.97316
1.39766E+07 4.97381
1.39844E+07 4.97445
1.39922E+07 4.97509
1.40000E+07 4.97574
1.40156E+07 4.97695
1.40313E+07 4.97816
1.40469E+07 4.97937
1.40625E+07 4.98059
1.40781E+07 4.98180
1.40938E+07 4.98302
1.41094E+07 4.98424
1.41250E+07 4.98547
1.41406E+07 4.98669
1.41563E+07 4.98792
1.41719E+07 4.98915
1.41875E+07 4.99038
1.42031E+07 4.99161
1.42188E+07 4.99285
1.42344E+07 4.99409
1.42500E+07 4.99533
1.42656E+07 4.99657
1.42813E+07 4.99782
1.42969E+07 4.99906
1.43125E+07 5.00031
1.43281E+07 5.00157
1.43438E+07 5.00282
1.43594E+07 5.00408
1.43750E+07 5.00534
1.43906E+07 5.00660
1.44063E+07 5.00786
1.44219E+07 5.00912
1.44375E+07 5.01039
1.44531E+07 5.01166
1.44688E+07 5.01294
1.44844E+07 5.01421
1.45000E+07 5.01549
1.45313E+07 5.01785
1.45625E+07 5.02021
1.45938E+07 5.02259
1.46250E+07 5.02497
1.46563E+07 5.02736
1.46875E+07 5.02975
1.47188E+07 5.03216
1.47500E+07 5.03457
1.47813E+07 5.03699
1.48125E+07 5.03942
1.48438E+07 5.04186
1.48750E+07 5.04431
1.49063E+07 5.04676
1.49375E+07 5.04923
1.49688E+07 5.05170
1.50000E+07 5.05418
1.50321E+07 5.05613
1.50641E+07 5.05809
1.50962E+07 5.06007
1.51282E+07 5.06205
1.51555E+07 5.06359
1.51827E+07 5.06514
1.52099E+07 5.06669
1.52372E+07 5.06825
1.52644E+07 5.06981
1.52917E+07 5.07138
1.53189E+07 5.07296
1.53462E+07 5.07454
1.53734E+07 5.07612
1.54006E+07 5.07771
1.54279E+07 5.07931
1.54551E+07 5.08091
1.54824E+07 5.08251
1.55096E+07 5.08413
1.55369E+07 5.08574
1.55641E+07 5.08737
1.55914E+07 5.08900
1.56186E+07 5.09063
1.56458E+07 5.09227
1.56731E+07 5.09392
1.57003E+07 5.09557
1.57276E+07 5.09723
1.57548E+07 5.09889
1.57821E+07 5.10056
1.58093E+07 5.10223
1.58365E+07 5.10392
1.58638E+07 5.10560
1.58910E+07 5.10730
1.59183E+07 5.10900
1.59455E+07 5.11070
1.59728E+07 5.11242
1.60000E+07 5.11414
1.60484E+07 5.11212
1.60967E+07 5.11016
1.61522E+07 5.10776
1.62077E+07 5.10538
1.62631E+07 5.10303
1.63186E+07 5.10071
1.63741E+07 5.09841
1.64296E+07 5.09613
1.64850E+07 5.09388
1.65405E+07 5.09166
1.65960E+07 5.08946
1.66515E+07 5.08729
1.67069E+07 5.08514
1.67624E+07 5.08302
1.68179E+07 5.08093
1.68734E+07 5.07886
1.69288E+07 5.07682
1.69843E+07 5.07481
1.70000E+07 5.07419
1.70625E+07 5.07168
1.71250E+07 5.06919
1.71875E+07 5.06673
1.72500E+07 5.06428
1.73125E+07 5.06186
1.73750E+07 5.05946
1.74375E+07 5.05709
1.75000E+07 5.05474
1.75625E+07 5.05241
1.76250E+07 5.05011
1.76875E+07 5.04783
1.77500E+07 5.04557
1.78125E+07 5.04334
1.78750E+07 5.04114
1.79375E+07 5.03896
1.80000E+07 5.03681
1.81250E+07 5.01676
1.82500E+07 4.99686
1.83750E+07 4.97711
1.85000E+07 4.95750
1.86250E+07 4.93804
1.87500E+07 4.91872
1.88750E+07 4.89955
1.90000E+07 4.88052
1.91250E+07 4.86221
1.92500E+07 4.84399
1.93750E+07 4.82587
1.95000E+07 4.80784
1.96250E+07 4.78992
1.97500E+07 4.77210
1.98750E+07 4.75437
2.00000E+07 4.73675
