Ba-134(n,tot) ENDFB-8.0
Energy(eV) XS(b)
1.00000E-05 368.484
1.03125E-05 362.878
1.06250E-05 357.522
1.09375E-05 352.397
1.12500E-05 347.487
1.15625E-05 342.778
1.18750E-05 338.257
1.21875E-05 333.911
1.25000E-05 329.729
1.28125E-05 325.701
1.31250E-05 321.818
1.34375E-05 318.071
1.37500E-05 314.453
1.43750E-05 307.575
1.50000E-05 301.133
1.56250E-05 295.081
1.62500E-05 289.383
1.68750E-05 284.005
1.75000E-05 278.918
1.81250E-05 274.097
1.87500E-05 269.519
1.93750E-05 265.166
2.00000E-05 261.018
2.09375E-05 255.150
2.18750E-05 249.663
2.28125E-05 244.520
2.37500E-05 239.684
2.46875E-05 235.128
2.56250E-05 230.824
2.65625E-05 226.752
2.75000E-05 222.889
2.84375E-05 219.220
2.93750E-05 215.729
3.03125E-05 212.401
3.12500E-05 209.225
3.21875E-05 206.189
3.31250E-05 203.283
3.40625E-05 200.499
3.50000E-05 197.827
3.59375E-05 195.262
3.68750E-05 192.795
3.78125E-05 190.420
3.87500E-05 188.133
3.96875E-05 185.928
4.06250E-05 183.799
4.25000E-05 179.757
4.43750E-05 175.975
4.62500E-05 172.426
4.81250E-05 169.088
5.00000E-05 165.940
5.15625E-05 163.449
5.31250E-05 161.070
5.46875E-05 158.795
5.62500E-05 156.615
5.78125E-05 154.525
5.93750E-05 152.518
6.09375E-05 150.589
6.25000E-05 148.734
6.40625E-05 146.947
6.56250E-05 145.225
6.71875E-05 143.564
6.87500E-05 141.960
7.18750E-05 138.912
7.50000E-05 136.057
7.81250E-05 133.377
8.12500E-05 130.854
8.43750E-05 128.474
8.75000E-05 126.223
9.06250E-05 124.091
9.37500E-05 122.067
9.68750E-05 120.143
0.000100000 118.310
0.000103125 116.562
0.000106250 114.892
0.000109375 113.296
0.000112500 111.766
0.000115625 110.300
0.000118750 108.893
0.000121875 107.541
0.000125000 106.240
0.000128125 104.988
0.000131250 103.781
0.000134375 102.617
0.000137500 101.493
0.000143750 99.3578
0.000150000 97.3590
0.000156250 95.4827
0.000162500 93.7170
0.000168750 92.0515
0.000175000 90.4772
0.000181250 88.9861
0.000187500 87.5712
0.000193750 86.2262
0.000200000 84.9456
0.000209375 83.1347
0.000218750 81.4432
0.000228125 79.8586
0.000237500 78.3701
0.000246875 76.9684
0.000256250 75.6455
0.000265625 74.3944
0.000275000 73.2088
0.000284375 72.0833
0.000293750 71.0129
0.000303125 69.9933
0.000312500 69.0208
0.000321875 68.0917
0.000331250 67.2030
0.000340625 66.3518
0.000350000 65.5357
0.000359375 64.7522
0.000368750 63.9993
0.000378125 63.2750
0.000387500 62.5777
0.000396875 61.9056
0.000406250 61.2573
0.000425000 60.0268
0.000443750 58.8764
0.000462500 57.7979
0.000481250 56.7842
0.000500000 55.8289
0.000515625 55.0737
0.000531250 54.3527
0.000546875 53.6633
0.000562500 53.0033
0.000578125 52.3707
0.000593750 51.7636
0.000609375 51.1805
0.000625000 50.6197
0.000640625 50.0799
0.000656250 49.5599
0.000671875 49.0584
0.000687500 48.5743
0.000718750 47.6548
0.000750000 46.7943
0.000781250 45.9868
0.000812500 45.2271
0.000843750 44.5106
0.000875000 43.8334
0.000906250 43.1922
0.000937500 42.5837
0.000968750 42.0054
0.00100000 41.4547
0.00103125 40.9297
0.00106250 40.4284
0.00109375 39.9489
0.00112500 39.4899
0.00115625 39.0499
0.00118750 38.6276
0.00121875 38.2219
0.00125000 37.8317
0.00128125 37.4560
0.00131250 37.0940
0.00134375 36.7449
0.00137500 36.4079
0.00143750 35.7676
0.00150000 35.1682
0.00156250 34.6056
0.00162500 34.0761
0.00168750 33.5767
0.00175000 33.1046
0.00181250 32.6574
0.00187500 32.2329
0.00193750 31.8295
0.00200000 31.4452
0.00209375 30.9018
0.00218750 30.3941
0.00228125 29.9183
0.00237500 29.4713
0.00246875 29.0502
0.00256250 28.6526
0.00265625 28.2765
0.00275000 27.9199
0.00284375 27.5813
0.00293750 27.2592
0.00303125 26.9523
0.00312500 26.6594
0.00321875 26.3795
0.00331250 26.1117
0.00340625 25.8551
0.00350000 25.6090
0.00359375 25.3726
0.00368750 25.1454
0.00378125 24.9268
0.00387500 24.7162
0.00396875 24.5131
0.00406250 24.3172
0.00425000 23.9452
0.00443750 23.5971
0.00462500 23.2706
0.00481250 22.9635
0.00500000 22.6740
0.00515625 22.4450
0.00531250 22.2262
0.00546875 22.0169
0.00562500 21.8165
0.00578125 21.6242
0.00593750 21.4397
0.00609375 21.2624
0.00625000 21.0918
0.00640625 20.9275
0.00656250 20.7691
0.00671875 20.6164
0.00687500 20.4689
0.00718750 20.1886
0.00750000 19.9260
0.00781250 19.6795
0.00812500 19.4474
0.00843750 19.2283
0.00875000 19.0212
0.00906250 18.8249
0.00937500 18.6386
0.00968750 18.4614
0.0100000 18.2926
0.0103125 18.1316
0.0106250 17.9778
0.0109375 17.8306
0.0112500 17.6897
0.0115625 17.5545
0.0118750 17.4247
0.0121875 17.3000
0.0125000 17.1800
0.0128125 17.0645
0.0131250 16.9531
0.0134375 16.8457
0.0137500 16.7419
0.0143750 16.5447
0.0150000 16.3599
0.0156250 16.1864
0.0162500 16.0230
0.0168750 15.8689
0.0175000 15.7230
0.0181250 15.5848
0.0187500 15.4536
0.0193750 15.3288
0.0200000 15.2099
0.0206625 15.0899
0.0213250 14.9755
0.0219875 14.8663
0.0226500 14.7620
0.0233125 14.6621
0.0239750 14.5665
0.0246375 14.4747
0.0253000 14.3866
0.0264578 14.2406
0.0276156 14.1039
0.0287734 13.9757
0.0299313 13.8549
0.0310891 13.7410
0.0322469 13.6333
0.0334047 13.5313
0.0345625 13.4344
0.0355274 13.3573
0.0364922 13.2833
0.0374570 13.2122
0.0384219 13.1437
0.0393867 13.0778
0.0403516 13.0143
0.0413164 12.9530
0.0422813 12.8938
0.0442109 12.7813
0.0461406 12.6759
0.0480703 12.5770
0.0500000 12.4838
0.0515625 12.4123
0.0531250 12.3439
0.0546875 12.2785
0.0562500 12.2158
0.0578125 12.1557
0.0593750 12.0980
0.0609375 12.0425
0.0625000 11.9891
0.0640625 11.9377
0.0656250 11.8881
0.0671875 11.8403
0.0687500 11.7942
0.0718750 11.7064
0.0750000 11.6241
0.0781250 11.5468
0.0812500 11.4739
0.0843750 11.4052
0.0875000 11.3401
0.0906250 11.2784
0.0937500 11.2199
0.0968750 11.1642
0.100000 11.1111
0.103125 11.0604
0.106250 11.0120
0.109375 10.9657
0.112500 10.9213
0.115625 10.8787
0.118750 10.8378
0.121875 10.7985
0.125000 10.7606
0.128125 10.7242
0.131250 10.6891
0.134375 10.6552
0.137500 10.6225
0.143750 10.5602
0.150000 10.5018
0.156250 10.4469
0.162500 10.3952
0.168750 10.3463
0.175000 10.3001
0.181250 10.2562
0.187500 10.2146
0.193750 10.1750
0.200000 10.1373
0.209375 10.0838
0.218750 10.0337
0.228125 9.98675
0.237500 9.94253
0.246875 9.90082
0.256250 9.86138
0.265625 9.82402
0.275000 9.78856
0.284375 9.75483
0.293750 9.72270
0.303125 9.69204
0.312500 9.66275
0.321875 9.63472
0.331250 9.60786
0.340625 9.58209
0.350000 9.55733
0.359375 9.53353
0.368750 9.51062
0.378125 9.48854
0.387500 9.46726
0.396875 9.44672
0.406250 9.42690
0.425000 9.38915
0.443750 9.35369
0.462500 9.32031
0.500000 9.25918
0.531250 9.21306
0.562500 9.17056
0.593750 9.13130
0.625000 9.09486
0.687500 9.02915
0.750000 8.97131
0.812500 8.91979
0.875000 8.87355
0.937500 8.83158
1.00000 8.79311
1.06250 8.75772
1.12500 8.72498
1.18750 8.69453
1.25000 8.66608
1.37500 8.61427
1.50000 8.56804
1.62500 8.52630
1.75000 8.48829
1.87500 8.45333
2.00000 8.42086
2.18750 8.37618
2.37500 8.33549
2.56250 8.29803
2.75000 8.26328
2.93750 8.23077
3.12500 8.20014
3.31250 8.17114
3.50000 8.14357
3.68750 8.11724
3.87500 8.09201
4.25000 8.04435
4.62500 7.99982
5.00000 7.95785
5.31250 7.92451
5.62500 7.89242
5.93750 7.86145
6.25000 7.83146
6.87500 7.77399
7.50000 7.71934
8.12500 7.66700
8.75000 7.61661
9.37500 7.56788
10.0000 7.52055
10.6250 7.47446
11.2500 7.42947
11.8750 7.38546
12.5000 7.34232
13.1250 7.29997
13.7500 7.25835
15.0000 7.17701
16.2500 7.09790
17.5000 7.02070
18.7500 6.94517
20.0000 6.87106
20.9375 6.81633
21.8750 6.76224
23.7500 6.65580
25.6250 6.55132
27.5000 6.44846
29.3750 6.34689
31.2500 6.24633
33.1250 6.14651
35.0000 6.04718
36.8750 5.94809
38.7500 5.84900
40.6250 5.74966
42.5000 5.64982
44.3750 5.54922
46.2500 5.44758
48.1250 5.34463
50.0000 5.24007
51.5625 5.15147
53.1250 5.06132
54.6875 4.96941
56.2500 4.87552
57.8125 4.77939
59.3750 4.68076
60.9375 4.57935
62.5000 4.47484
63.9649 4.37374
65.4297 4.26930
66.8945 4.16120
68.3594 4.04913
69.0918 3.99184
69.8242 3.93313
70.5567 3.87325
71.2891 3.81215
72.0215 3.74977
72.7539 3.68607
73.4863 3.62100
74.2188 3.55450
75.0000 3.48196
76.0742 3.37934
77.1484 3.27344
78.2227 3.16410
78.7598 3.10811
79.2969 3.05123
79.8340 2.99358
80.3711 2.93505
80.9082 2.87566
81.4453 2.81558
81.9824 2.75477
82.5195 2.69324
83.0567 2.63119
83.5938 2.56870
84.0820 2.51157
84.5703 2.45433
85.0586 2.39710
85.5469 2.34008
86.0352 2.28351
86.5234 2.22770
87.0117 2.17297
87.5000 2.11977
88.0371 2.06364
88.5742 2.01082
89.1113 1.96238
89.6484 1.91965
90.1856 1.88428
90.4541 1.86999
90.7227 1.85836
90.9912 1.84974
91.2598 1.84454
91.5283 1.84317
91.7969 1.84615
92.0166 1.85211
92.2363 1.86143
92.4561 1.87487
92.6758 1.89293
92.8955 1.91590
93.0054 1.92937
93.1152 1.94428
93.2251 1.96073
93.3350 1.97879
93.4448 1.99855
93.5547 2.02007
93.6340 2.03677
93.7134 2.05448
93.7927 2.07324
93.8721 2.09310
93.9514 2.11410
94.0308 2.13629
94.1101 2.15971
94.1895 2.18442
94.2566 2.20637
94.3237 2.22930
94.3909 2.25326
94.4580 2.27827
94.5252 2.30437
94.5923 2.33160
94.6594 2.36000
94.7266 2.38961
94.7815 2.41477
94.8090 2.42768
94.8364 2.44080
94.8639 2.45414
94.8914 2.46771
94.9188 2.48151
94.9463 2.49554
94.9860 2.51623
95.0257 2.53741
95.0653 2.55911
95.1050 2.58133
95.1447 2.60409
95.1843 2.62739
95.2240 2.65125
95.2637 2.67568
95.3308 2.71835
95.3980 2.76275
95.4651 2.80893
95.5322 2.85697
95.5994 2.90694
95.6665 2.95890
95.7337 3.01294
95.8008 3.06912
95.8344 3.09805
95.8679 3.12754
95.9015 3.15762
95.9351 3.18829
95.9686 3.21956
96.0022 3.25144
96.0358 3.28395
96.0694 3.31710
96.1029 3.35090
96.1365 3.38537
96.1701 3.42051
96.2036 3.45634
96.2372 3.49287
96.2708 3.53012
96.3043 3.56810
96.3379 3.60681
96.4050 3.68656
96.4722 3.76948
96.5393 3.85569
96.6065 3.94531
96.6736 4.03852
96.7407 4.13545
96.8079 4.23626
96.8750 4.34109
96.9421 4.45014
97.0093 4.56359
97.0764 4.68161
97.1436 4.80442
97.2107 4.93221
97.2778 5.06523
97.3450 5.20369
97.4121 5.34786
97.4640 5.46334
97.5159 5.58250
97.5678 5.70548
97.6196 5.83241
97.6715 5.96342
97.7234 6.09865
97.7753 6.23825
97.8272 6.38238
97.8790 6.53119
97.9309 6.68486
97.9828 6.84357
98.0347 7.00752
98.0866 7.17690
98.1384 7.35192
98.1903 7.53281
98.2422 7.71974
98.3093 7.97113
98.3765 8.23366
98.4436 8.50789
98.5108 8.79444
98.5779 9.09395
98.6450 9.40711
98.7122 9.73466
98.7793 10.0773
98.8464 10.4360
98.9136 10.8116
98.9807 11.2050
99.0479 11.6172
99.1150 12.0494
99.1821 12.5026
99.2493 12.9782
99.3164 13.4773
99.4019 14.1490
99.4873 14.8645
99.5728 15.6272
99.6582 16.4410
99.7437 17.3099
99.8291 18.2386
99.9146 19.2320
100.000 20.2959
100.088 21.4735
100.176 22.7391
100.264 24.1043
100.352 25.5754
100.440 27.1664
100.528 28.8856
100.616 30.7505
100.704 32.7720
100.793 34.9720
100.881 37.3653
100.969 39.9797
101.057 42.8349
101.101 44.3665
101.145 45.9670
101.189 47.6442
101.233 49.4027
101.277 51.2521
101.321 53.1894
101.365 55.2246
101.409 57.3640
101.453 59.6199
101.497 61.9895
101.541 64.4859
101.585 67.1180
101.629 69.9017
101.673 72.8349
101.717 75.9351
101.761 79.2146
101.805 82.6951
101.849 86.3756
101.893 90.2800
101.937 94.4260
101.981 98.8333
102.025 103.524
102.069 108.521
102.113 113.851
102.165 120.635
102.217 127.968
102.269 135.927
102.321 144.582
102.373 154.034
102.425 164.342
102.477 175.632
102.529 188.028
102.573 199.518
102.617 211.983
102.661 225.565
102.705 240.402
102.750 256.687
102.794 274.531
102.838 294.181
102.882 315.888
102.904 327.658
102.926 340.005
102.948 353.027
102.970 366.774
102.992 381.301
103.014 396.666
103.036 412.938
103.058 430.187
103.080 448.580
103.102 468.039
103.124 488.743
103.146 510.801
103.168 534.334
103.190 559.477
103.212 586.382
103.234 615.217
103.251 639.084
103.268 664.178
103.285 690.741
103.302 718.891
103.319 748.755
103.336 780.474
103.353 814.203
103.370 850.112
103.387 888.387
103.404 929.236
103.421 972.884
103.438 1019.58
103.455 1069.59
103.472 1123.23
103.489 1180.81
103.506 1242.70
103.528 1330.23
103.550 1426.18
103.572 1531.95
103.594 1648.67
103.616 1777.57
103.638 1919.96
103.649 1996.66
103.660 2077.26
103.671 2161.95
103.682 2250.93
103.693 2345.25
103.704 2443.40
103.715 2546.41
103.726 2654.47
103.737 2767.76
103.748 2886.46
103.770 3140.78
103.792 3418.71
103.814 3721.29
103.836 4049.30
103.858 4403.10
103.880 4782.60
103.902 5187.17
103.924 5615.51
103.946 6065.64
103.968 6534.78
103.990 7019.39
104.034 8016.69
104.079 9024.63
104.101 9510.19
104.123 9974.27
104.145 10409.2
104.167 10807.2
104.190 11161.2
104.212 11464.4
104.234 11709.9
104.256 11894.3
104.278 12014.1
104.300 12066.8
104.321 12055.1
104.341 11985.1
104.362 11858.6
104.382 11677.7
104.403 11444.6
104.423 11165.8
104.444 10845.1
104.464 10487.7
104.495 9904.67
104.525 9273.37
104.585 7940.94
104.614 7308.70
104.643 6692.39
104.672 6101.50
104.700 5545.09
104.720 5185.11
104.739 4845.44
104.759 4523.23
104.778 4222.03
104.798 3938.73
104.817 3675.92
104.837 3431.59
104.856 3205.07
104.871 3048.75
104.885 2902.34
104.899 2764.33
104.914 2634.36
104.928 2511.19
104.942 2396.14
104.957 2287.94
104.971 2186.20
104.985 2089.90
105.000 2000.00
105.014 1915.46
105.028 1835.95
105.043 1760.62
105.057 1690.23
105.071 1623.93
105.086 1561.46
105.100 1502.16
105.114 1446.61
105.129 1394.16
105.143 1344.60
105.157 1297.41
105.172 1253.08
105.200 1171.27
105.229 1097.40
105.258 1030.92
105.286 970.486
105.315 915.748
105.337 876.614
105.359 840.277
105.381 806.173
105.403 774.398
105.426 744.478
105.448 716.515
105.470 690.220
105.492 665.459
105.514 642.010
105.536 619.973
105.558 599.050
105.581 579.340
105.625 542.875
105.669 510.081
105.698 490.482
105.726 472.083
105.755 454.787
105.784 438.559
105.812 423.207
105.841 408.766
105.870 395.071
105.898 382.157
105.927 369.882
105.956 358.283
106.013 336.772
106.070 317.315
106.128 299.653
106.185 283.566
106.242 268.868
106.299 255.399
106.357 243.024
106.414 231.624
106.471 221.097
106.529 211.354
106.586 202.316
106.643 193.914
106.701 186.088
106.758 178.785
106.815 171.956
106.872 165.562
106.930 159.564
106.987 153.929
107.044 148.630
107.102 143.637
107.159 138.929
107.216 134.483
107.274 130.279
107.331 126.300
107.388 122.529
107.445 118.952
107.503 115.555
107.617 109.249
107.732 103.535
107.847 98.3340
107.961 93.5848
108.076 89.2346
108.190 85.2385
108.305 81.5579
108.420 78.1593
108.508 75.7067
108.597 73.3939
108.685 71.2103
108.774 69.1484
108.863 67.1941
108.951 65.3435
109.040 63.5843
109.128 61.9141
109.305 58.8096
109.482 55.9902
109.659 53.4212
109.837 51.0728
109.951 49.6573
110.066 48.3185
110.180 47.0495
110.295 45.8454
110.410 44.7016
110.524 43.6139
110.753 41.5920
110.983 39.7521
111.212 38.0733
111.441 36.5357
111.670 35.1230
111.900 33.8206
112.129 32.6178
112.358 31.5034
112.587 30.4685
112.816 29.5052
113.046 28.6066
113.275 27.7672
113.504 26.9826
113.733 26.2459
113.963 25.5520
114.192 24.8979
114.421 24.2808
114.650 23.6977
114.879 23.1461
115.109 22.6236
115.338 22.1277
115.567 21.6563
115.796 21.2081
116.026 20.7810
116.255 20.3737
116.484 19.9848
116.713 19.6129
116.942 19.2569
117.172 18.9157
117.401 18.5883
117.630 18.2740
118.088 17.6808
118.547 17.1299
118.776 16.8688
119.005 16.6163
119.235 16.3718
119.464 16.1351
119.693 15.9054
119.922 15.6824
120.151 15.4656
120.381 15.2546
120.610 15.0489
120.839 14.8482
121.068 14.6521
121.298 14.4608
121.527 14.2738
121.756 14.0910
121.985 13.9123
122.100 13.8246
122.214 13.7379
122.329 13.6525
122.444 13.5682
122.558 13.4853
122.673 13.4040
122.787 13.3242
122.902 13.2466
123.017 13.1713
123.131 13.0989
123.246 13.0298
123.360 12.9650
123.418 12.9346
123.475 12.9056
123.532 12.8782
123.590 12.8528
123.668 12.8216
123.746 12.7952
123.824 12.7745
123.902 12.7608
123.980 12.7557
124.020 12.7569
124.059 12.7610
124.098 12.7684
124.137 12.7794
124.176 12.7945
124.215 12.8141
124.272 12.8524
124.329 12.9040
124.358 12.9357
124.387 12.9716
124.415 13.0125
124.444 13.0586
124.473 13.1108
124.501 13.1694
124.530 13.2356
124.559 13.3097
124.587 13.3934
124.616 13.4871
124.645 13.5929
124.673 13.7116
124.710 13.8855
124.746 14.0889
124.764 14.2040
124.783 14.3281
124.801 14.4632
124.819 14.6103
124.837 14.7719
124.856 14.9478
124.874 15.1419
124.892 15.3544
124.910 15.5903
124.929 15.8502
124.947 16.1392
124.965 16.4616
124.979 16.7438
124.994 17.0512
125.008 17.3888
125.022 17.7608
125.037 18.1745
125.051 18.6294
125.065 19.1340
125.080 19.6951
125.094 20.3247
125.108 21.0227
125.123 21.8029
125.137 22.6761
125.151 23.6616
125.166 24.7595
125.180 25.9911
125.194 27.3733
125.206 28.6402
125.218 30.0207
125.229 31.5371
125.241 33.2016
125.253 35.0441
125.265 37.0476
125.276 39.2418
125.288 41.6425
125.300 44.2894
125.311 47.1548
125.323 50.2777
125.335 53.6760
125.347 57.3682
125.358 61.3725
125.370 65.7077
125.382 70.3920
125.396 76.6629
125.410 83.4724
125.425 90.8914
125.439 98.9467
125.453 107.725
125.468 117.123
125.482 127.214
125.496 138.004
125.511 149.578
125.525 161.768
125.539 174.729
125.554 188.256
125.568 202.504
125.582 217.230
125.597 232.476
125.611 248.177
125.625 264.257
125.640 280.630
125.654 297.202
125.668 313.867
125.679 326.098
125.707 358.980
125.736 390.535
125.750 405.491
125.765 419.589
125.779 432.806
125.793 445.019
125.808 456.113
125.822 465.980
125.835 473.749
125.848 480.331
125.864 487.216
125.881 491.961
125.900 494.642
125.915 494.815
125.926 493.783
125.938 491.782
125.960 484.892
125.982 474.720
126.004 461.435
126.025 445.320
126.047 426.753
126.069 406.148
126.090 383.948
126.111 361.696
126.132 338.786
126.152 315.586
126.173 292.441
126.195 268.574
126.217 245.421
126.238 223.242
126.260 202.246
126.274 189.492
126.288 177.403
126.301 165.906
126.315 155.015
126.329 144.737
126.343 135.072
126.357 126.014
126.370 117.554
126.381 111.284
126.392 105.421
126.403 99.8474
126.414 94.6536
126.425 89.7318
126.436 85.1600
126.446 80.8404
126.457 76.8391
126.468 73.0684
126.479 69.5839
126.490 66.3074
126.501 63.2858
126.512 60.4496
126.522 57.8382
126.533 55.3904
126.544 53.1391
126.555 51.0307
126.566 49.0929
126.577 47.2790
126.587 45.6120
126.598 44.0515
126.609 42.6169
126.620 41.2732
126.631 40.0370
126.642 38.8778
126.653 37.8099
126.663 36.8071
126.674 35.8817
126.685 35.0111
126.696 34.2059
126.707 33.4533
126.718 32.7490
126.727 32.1424
126.737 31.5702
126.747 31.0299
126.757 30.5240
126.777 29.5815
126.797 28.7368
126.816 27.9682
126.836 27.2728
126.856 26.6371
126.875 26.0535
126.895 25.5128
126.915 25.0151
126.935 24.5529
126.954 24.1221
126.974 23.7175
126.994 23.3403
127.014 22.9858
127.033 22.6520
127.055 22.3060
127.077 21.9806
127.098 21.6739
127.120 21.3843
127.142 21.1103
127.163 20.8507
127.185 20.6043
127.207 20.3702
127.250 19.9350
127.294 19.5388
127.337 19.1767
127.380 18.8442
127.414 18.6049
127.448 18.3804
127.481 18.1683
127.515 17.9686
127.548 17.7791
127.582 17.6001
127.615 17.4303
127.649 17.2690
127.682 17.1149
127.716 16.9686
127.783 16.6956
127.850 16.4455
127.917 16.2161
127.960 16.0772
128.004 15.9452
128.047 15.8194
128.091 15.6996
128.177 15.4759
128.264 15.2711
128.351 15.0826
128.438 14.9085
128.525 14.7470
128.611 14.5967
128.690 14.4686
128.769 14.3480
128.848 14.2339
128.927 14.1259
129.006 14.0234
129.085 13.9261
129.164 13.8338
129.243 13.7478
129.282 13.7080
129.321 13.6717
129.361 13.6399
129.381 13.6264
129.400 13.6150
129.420 13.6059
129.440 13.5998
129.460 13.5971
129.479 13.5985
129.499 13.6046
129.519 13.6163
129.529 13.6245
129.538 13.6343
129.548 13.6460
129.558 13.6596
129.568 13.6754
129.578 13.6933
129.588 13.7137
129.598 13.7362
129.608 13.7617
129.617 13.7895
129.627 13.8205
129.637 13.8542
129.647 13.8914
129.657 13.9318
129.667 13.9757
129.677 14.0226
129.686 14.0737
129.696 14.1279
129.706 14.1865
129.716 14.2485
129.726 14.3151
129.736 14.3858
129.746 14.4608
129.755 14.5391
129.765 14.6225
129.775 14.7093
129.795 14.8965
129.815 15.1017
129.834 15.3224
129.854 15.5588
129.874 15.8101
129.890 16.0214
129.905 16.2406
129.937 16.6978
129.968 17.1765
130.000 17.6645
130.000 22.1412
140.000 21.4646
150.000 20.8600
160.000 20.3104
170.000 19.8122
185.000 19.1390
200.000 18.5463
212.500 18.0977
225.000 17.6886
237.500 17.3137
250.000 16.9684
262.500 16.6450
275.000 16.3449
287.500 16.0653
300.000 15.8041
325.000 15.3249
350.000 14.8998
375.000 14.5166
400.000 14.1712
425.000 13.8550
450.000 13.5664
475.000 13.3017
500.000 13.0576
525.000 12.8300
550.000 12.6185
575.000 12.4212
600.000 12.2367
630.000 12.0291
660.000 11.8361
690.000 11.6561
720.000 11.4877
760.000 11.2784
800.000 11.0854
850.000 10.8633
900.000 10.6603
950.000 10.4736
1000.00 10.3012
1062.50 10.1033
1125.00 9.92210
1187.50 9.75538
1250.00 9.60127
1312.50 9.45883
1375.00 9.32611
1437.50 9.20205
1500.00 9.08571
1600.00 8.91470
1700.00 8.75870
1775.00 8.65109
1850.00 8.54990
2000.00 8.36436
2125.00 8.22639
2250.00 8.09963
2375.00 7.98257
2500.00 7.87401
2625.00 7.77489
2750.00 7.68222
2875.00 7.59530
3000.00 7.51356
3250.00 7.36664
3500.00 7.23464
3750.00 7.11756
4000.00 7.01072
4250.00 6.91560
4500.00 6.82774
4750.00 6.74621
5000.00 6.67026
5250.00 6.60209
5500.00 6.53807
6000.00 6.42084
6500.00 6.31988
7000.00 6.22851
7500.00 6.14827
8000.00 6.07459
8500.00 6.00995
9000.00 5.94992
9500.00 5.89394
10000.0 5.84153
10625.0 5.78468
11250.0 5.73180
12500.0 5.63613
13750.0 5.55737
15000.0 5.48683
16000.0 5.43824
17000.0 5.39315
18500.0 5.33458
20000.0 5.28140
22500.0 5.20849
25000.0 5.14456
27500.0 5.09240
30000.0 5.04552
32500.0 5.00596
35000.0 4.96980
37500.0 4.93847
40000.0 4.90950
45000.0 4.86094
50000.0 4.81831
55000.0 4.78305
60000.0 4.75134
65000.0 4.72399
70000.0 4.69897
75000.0 4.67674
80000.0 4.65615
90000.0 4.62007
99999.9 4.58830
100000 4.58834
112500 4.61329
125000 4.63606
137500 4.65703
150000 4.67646
175000 4.75325
200000 4.82108
250000 4.98862
300000 5.16407
342038 5.32530
384077 5.47200
468153 5.73192
469127 5.73498
470102 5.73804
472050 5.74414
475947 5.75631
479844 5.76844
483741 5.78052
491535 5.80455
499329 5.82839
500000 5.83043
512500 5.86965
525000 5.90805
537500 5.94564
550000 5.98248
562500 6.01859
575000 6.05401
587500 6.08875
600000 6.12285
612500 6.15634
625000 6.18922
637500 6.22154
650000 6.25331
662500 6.28454
675000 6.31526
687500 6.34549
700000 6.37524
712500 6.40502
725000 6.43434
737500 6.46323
750000 6.49169
762500 6.51974
775000 6.54739
787500 6.57466
800000 6.60155
812500 6.62742
825000 6.65294
837500 6.67812
850000 6.70297
862500 6.72750
875000 6.75173
887500 6.77564
900000 6.79927
912500 6.82129
925000 6.84305
937500 6.86455
950000 6.88580
962500 6.90680
975000 6.92755
987500 6.94808
1.00000E+06 6.96837
1.02146E+06 7.00054
1.03959E+06 7.02730
1.04261E+06 7.03136
1.04563E+06 7.03540
1.05167E+06 7.04346
1.06375E+06 7.05944
1.07583E+06 7.07524
1.08791E+06 7.09086
1.09998E+06 7.10630
1.11206E+06 7.12158
1.13622E+06 7.15165
1.13622E+06 7.15165
1.13978E+06 7.15530
1.14334E+06 7.15893
1.15045E+06 7.16615
1.15756E+06 7.17333
1.16467E+06 7.18047
1.17889E+06 7.19462
1.19311E+06 7.20860
1.20733E+06 7.22242
1.22156E+06 7.23608
1.23578E+06 7.24958
1.25000E+06 7.26292
1.26563E+06 7.27065
1.28125E+06 7.27832
1.29688E+06 7.28592
1.31250E+06 7.29345
1.32813E+06 7.30093
1.34375E+06 7.30834
1.35938E+06 7.31569
1.37500E+06 7.32299
1.39063E+06 7.33022
1.40625E+06 7.33740
1.42188E+06 7.34452
1.43750E+06 7.35159
1.45313E+06 7.35861
1.46875E+06 7.36557
1.48438E+06 7.37248
1.50000E+06 7.37934
1.51449E+06 7.38117
1.51449E+06 7.38117
1.51863E+06 7.38158
1.52276E+06 7.38199
1.52826E+06 7.38126
1.53376E+06 7.38054
1.54475E+06 7.37914
1.55575E+06 7.37778
1.56674E+06 7.37647
1.58873E+06 7.37396
1.61073E+06 7.37161
1.63272E+06 7.36941
1.65471E+06 7.36736
1.67670E+06 7.36544
1.69869E+06 7.36366
1.69869E+06 7.36366
1.70418E+06 7.36178
1.70967E+06 7.35991
1.72066E+06 7.35624
1.73164E+06 7.35263
1.74262E+06 7.34909
1.74263E+06 7.34909
1.74631E+06 7.34768
1.75000E+06 7.34628
1.77470E+06 7.33074
1.79940E+06 7.31566
1.82409E+06 7.30103
1.84879E+06 7.28683
1.87349E+06 7.27305
1.89819E+06 7.25967
1.92288E+06 7.24668
1.94758E+06 7.23405
1.94758E+06 7.23405
1.95413E+06 7.22879
1.96069E+06 7.22357
1.97379E+06 7.21324
1.98690E+06 7.20305
2.00000E+06 7.19300
2.00674E+06 7.18736
2.01348E+06 7.18175
2.01348E+06 7.18174
2.02074E+06 7.17538
2.02799E+06 7.16906
2.03525E+06 7.16279
2.04250E+06 7.15657
2.04250E+06 7.15657
2.04736E+06 7.15215
2.05223E+06 7.14775
2.06195E+06 7.13901
2.06928E+06 7.12577
2.07661E+06 7.11263
2.08394E+06 7.09958
2.09127E+06 7.08663
2.09859E+06 7.07378
2.10592E+06 7.06103
2.11325E+06 7.04837
2.12058E+06 7.03581
2.12791E+06 7.02334
2.13524E+06 7.01096
2.14257E+06 6.99867
2.14989E+06 6.98647
2.15722E+06 6.97436
2.16455E+06 6.96234
2.17188E+06 6.95041
2.17921E+06 6.93856
2.18654E+06 6.92680
2.19386E+06 6.91512
2.20119E+06 6.90353
2.20852E+06 6.89202
2.21585E+06 6.88059
2.22318E+06 6.86925
2.23051E+06 6.85798
2.23784E+06 6.84680
2.24516E+06 6.83569
2.25249E+06 6.82467
2.25982E+06 6.81372
2.26715E+06 6.80284
2.27448E+06 6.79205
2.28181E+06 6.78132
2.28914E+06 6.77068
2.29646E+06 6.76010
2.30379E+06 6.74960
2.31112E+06 6.73918
2.31845E+06 6.72882
2.32578E+06 6.71853
2.33311E+06 6.70832
2.34043E+06 6.69818
2.34776E+06 6.68810
2.35509E+06 6.67809
2.36242E+06 6.66815
2.36975E+06 6.65828
2.37708E+06 6.64847
2.38441E+06 6.63873
2.39173E+06 6.62906
2.39906E+06 6.61945
2.40639E+06 6.60990
2.41372E+06 6.60042
2.42105E+06 6.59100
2.42838E+06 6.58165
2.43571E+06 6.57235
2.44303E+06 6.56312
2.45036E+06 6.55394
2.45769E+06 6.54483
2.46502E+06 6.53577
2.47235E+06 6.52678
2.47968E+06 6.51784
2.48700E+06 6.50897
2.49433E+06 6.50015
2.50166E+06 6.49138
2.50899E+06 6.48267
2.51632E+06 6.47402
2.52365E+06 6.46543
2.53098E+06 6.45689
2.53830E+06 6.44840
2.54563E+06 6.43997
2.55296E+06 6.43159
2.56029E+06 6.42326
2.56762E+06 6.41499
2.57495E+06 6.40677
2.58228E+06 6.39860
2.58960E+06 6.39048
2.59693E+06 6.38241
2.60426E+06 6.37440
2.61159E+06 6.36643
2.61892E+06 6.35851
2.62625E+06 6.35064
2.63358E+06 6.34282
2.64090E+06 6.33505
2.64823E+06 6.32733
2.65556E+06 6.31965
2.66289E+06 6.31203
2.67022E+06 6.30444
2.67755E+06 6.29691
2.68488E+06 6.28942
2.69220E+06 6.28197
2.69953E+06 6.27457
2.70686E+06 6.26722
2.71419E+06 6.25991
2.72152E+06 6.25265
2.72885E+06 6.24542
2.73617E+06 6.23824
2.74350E+06 6.23111
2.75083E+06 6.22402
2.75816E+06 6.21696
2.76549E+06 6.20996
2.77282E+06 6.20299
2.78015E+06 6.19606
2.78747E+06 6.18918
2.79480E+06 6.18233
2.80213E+06 6.17553
2.80946E+06 6.16877
2.81679E+06 6.16204
2.82412E+06 6.15536
2.83145E+06 6.14871
2.83877E+06 6.14210
2.84610E+06 6.13553
2.85343E+06 6.12900
2.86076E+06 6.12251
2.86809E+06 6.11606
2.87542E+06 6.10964
2.88274E+06 6.10326
2.89007E+06 6.09691
2.89740E+06 6.09060
2.90473E+06 6.08433
2.91206E+06 6.07810
2.91939E+06 6.07189
2.92672E+06 6.06573
2.93404E+06 6.05960
2.94137E+06 6.05350
2.94870E+06 6.04744
2.95603E+06 6.04142
2.96336E+06 6.03542
2.97069E+06 6.02946
2.97802E+06 6.02354
2.98534E+06 6.01765
2.99267E+06 6.01179
3.00000E+06 6.00596
3.00781E+06 5.99593
3.01563E+06 5.98597
3.02344E+06 5.97606
3.03125E+06 5.96621
3.03906E+06 5.95642
3.04688E+06 5.94669
3.05469E+06 5.93701
3.06250E+06 5.92739
3.07031E+06 5.91783
3.07813E+06 5.90832
3.08594E+06 5.89886
3.09375E+06 5.88946
3.10156E+06 5.88011
3.10938E+06 5.87082
3.11719E+06 5.86158
3.12500E+06 5.85239
3.13281E+06 5.84326
3.14063E+06 5.83417
3.14844E+06 5.82514
3.15625E+06 5.81616
3.16406E+06 5.80723
3.17188E+06 5.79835
3.17969E+06 5.78952
3.18750E+06 5.78074
3.19531E+06 5.77201
3.20313E+06 5.76332
3.21094E+06 5.75469
3.21875E+06 5.74610
3.22656E+06 5.73756
3.23438E+06 5.72907
3.24219E+06 5.72062
3.25000E+06 5.71222
3.25781E+06 5.70387
3.26563E+06 5.69556
3.27344E+06 5.68730
3.28125E+06 5.67908
3.28906E+06 5.67091
3.29688E+06 5.66278
3.30469E+06 5.65470
3.31250E+06 5.64666
3.32031E+06 5.63866
3.32813E+06 5.63071
3.33594E+06 5.62280
3.34375E+06 5.61493
3.35156E+06 5.60710
3.35938E+06 5.59932
3.36719E+06 5.59157
3.37500E+06 5.58387
3.38281E+06 5.57621
3.39063E+06 5.56859
3.39844E+06 5.56101
3.40625E+06 5.55347
3.41406E+06 5.54597
3.42188E+06 5.53851
3.42969E+06 5.53108
3.43750E+06 5.52370
3.44531E+06 5.51635
3.45313E+06 5.50905
3.46094E+06 5.50178
3.46875E+06 5.49455
3.47656E+06 5.48735
3.48438E+06 5.48020
3.49219E+06 5.47308
3.50000E+06 5.46600
3.50781E+06 5.45895
3.51563E+06 5.45194
3.52344E+06 5.44496
3.53125E+06 5.43802
3.53906E+06 5.43112
3.54688E+06 5.42425
3.55469E+06 5.41742
3.56250E+06 5.41062
3.57031E+06 5.40386
3.57813E+06 5.39713
3.58594E+06 5.39043
3.59375E+06 5.38377
3.60156E+06 5.37714
3.60938E+06 5.37054
3.61719E+06 5.36398
3.62500E+06 5.35744
3.63281E+06 5.35095
3.64063E+06 5.34448
3.64844E+06 5.33805
3.65625E+06 5.33165
3.66406E+06 5.32527
3.67188E+06 5.31894
3.67969E+06 5.31263
3.68750E+06 5.30635
3.69531E+06 5.30011
3.70313E+06 5.29389
3.71094E+06 5.28770
3.71875E+06 5.28155
3.72656E+06 5.27543
3.73438E+06 5.26933
3.74219E+06 5.26327
3.75000E+06 5.25723
3.75781E+06 5.25122
3.76563E+06 5.24524
3.77344E+06 5.23929
3.78125E+06 5.23337
3.78906E+06 5.22748
3.79688E+06 5.22162
3.80469E+06 5.21578
3.81250E+06 5.20997
3.82031E+06 5.20419
3.82813E+06 5.19844
3.83594E+06 5.19271
3.84375E+06 5.18702
3.85156E+06 5.18134
3.85938E+06 5.17570
3.86719E+06 5.17008
3.87500E+06 5.16449
3.88281E+06 5.15892
3.89063E+06 5.15338
3.89844E+06 5.14787
3.90625E+06 5.14238
3.91406E+06 5.13692
3.92188E+06 5.13148
3.92969E+06 5.12607
3.93750E+06 5.12069
3.94531E+06 5.11532
3.95313E+06 5.10999
3.96094E+06 5.10468
3.96875E+06 5.09939
3.97656E+06 5.09412
3.98438E+06 5.08889
3.99219E+06 5.08367
4.00000E+06 5.07848
4.00781E+06 5.07308
4.01563E+06 5.06770
4.02344E+06 5.06234
4.03125E+06 5.05700
4.03906E+06 5.05167
4.04688E+06 5.04637
4.05469E+06 5.04109
4.06250E+06 5.03583
4.07031E+06 5.03058
4.07813E+06 5.02536
4.08594E+06 5.02015
4.09375E+06 5.01496
4.10156E+06 5.00979
4.10938E+06 5.00465
4.11719E+06 4.99951
4.12500E+06 4.99440
4.13281E+06 4.98930
4.14063E+06 4.98423
4.14844E+06 4.97917
4.15625E+06 4.97413
4.16406E+06 4.96911
4.17188E+06 4.96410
4.17969E+06 4.95912
4.18750E+06 4.95415
4.19531E+06 4.94920
4.20313E+06 4.94426
4.21094E+06 4.93934
4.21875E+06 4.93445
4.22656E+06 4.92956
4.23438E+06 4.92470
4.24219E+06 4.91985
4.25000E+06 4.91502
4.25781E+06 4.91020
4.26563E+06 4.90541
4.27344E+06 4.90062
4.28125E+06 4.89586
4.28906E+06 4.89111
4.29688E+06 4.88638
4.30469E+06 4.88166
4.31250E+06 4.87697
4.32031E+06 4.87228
4.32813E+06 4.86762
4.33594E+06 4.86296
4.34375E+06 4.85833
4.35156E+06 4.85371
4.35938E+06 4.84910
4.36719E+06 4.84452
4.37500E+06 4.83994
4.38281E+06 4.83539
4.39063E+06 4.83085
4.39844E+06 4.82632
4.40625E+06 4.82181
4.41406E+06 4.81731
4.42188E+06 4.81283
4.42969E+06 4.80836
4.43750E+06 4.80391
4.44531E+06 4.79948
4.45313E+06 4.79505
4.46094E+06 4.79065
4.46875E+06 4.78625
4.47656E+06 4.78188
4.48438E+06 4.77751
4.49219E+06 4.77316
4.50000E+06 4.76883
4.50781E+06 4.76451
4.51563E+06 4.76020
4.52344E+06 4.75591
4.53125E+06 4.75163
4.53906E+06 4.74737
4.54688E+06 4.74312
4.55469E+06 4.73888
4.56250E+06 4.73466
4.57031E+06 4.73045
4.57813E+06 4.72625
4.58594E+06 4.72207
4.59375E+06 4.71790
4.60156E+06 4.71375
4.60938E+06 4.70961
4.61719E+06 4.70548
4.62500E+06 4.70136
4.63281E+06 4.69726
4.64063E+06 4.69317
4.64844E+06 4.68910
4.65625E+06 4.68503
4.66406E+06 4.68098
4.67188E+06 4.67695
4.67969E+06 4.67292
4.68750E+06 4.66891
4.69531E+06 4.66491
4.70313E+06 4.66092
4.71094E+06 4.65695
4.71875E+06 4.65299
4.72656E+06 4.64904
4.73438E+06 4.64510
4.74219E+06 4.64118
4.75000E+06 4.63727
4.75781E+06 4.63337
4.76563E+06 4.62948
4.77344E+06 4.62560
4.78125E+06 4.62174
4.78906E+06 4.61789
4.79688E+06 4.61405
4.80469E+06 4.61022
4.81250E+06 4.60640
4.82031E+06 4.60260
4.82813E+06 4.59880
4.83594E+06 4.59502
4.84375E+06 4.59125
4.85156E+06 4.58749
4.85938E+06 4.58375
4.86719E+06 4.58001
4.87500E+06 4.57629
4.88281E+06 4.57258
4.89063E+06 4.56887
4.89844E+06 4.56518
4.90625E+06 4.56150
4.91406E+06 4.55784
4.92188E+06 4.55418
4.92969E+06 4.55053
4.93750E+06 4.54690
4.94531E+06 4.54327
4.95313E+06 4.53966
4.96094E+06 4.53606
4.96875E+06 4.53246
4.97656E+06 4.52888
4.98438E+06 4.52531
4.99219E+06 4.52175
5.00000E+06 4.51820
5.00643E+06 4.51674
5.01286E+06 4.51529
5.01929E+06 4.51383
5.02573E+06 4.51238
5.03216E+06 4.51093
5.03859E+06 4.50949
5.04502E+06 4.50805
5.05145E+06 4.50661
5.05788E+06 4.50517
5.06431E+06 4.50374
5.07074E+06 4.50230
5.07717E+06 4.50087
5.08361E+06 4.49945
5.09004E+06 4.49802
5.09647E+06 4.49660
5.10290E+06 4.49518
5.10933E+06 4.49377
5.11576E+06 4.49236
5.12219E+06 4.49094
5.12862E+06 4.48954
5.13505E+06 4.48813
5.14149E+06 4.48673
5.14792E+06 4.48533
5.15435E+06 4.48393
5.16078E+06 4.48253
5.16721E+06 4.48114
5.17364E+06 4.47975
5.18007E+06 4.47836
5.18650E+06 4.47698
5.19293E+06 4.47559
5.19936E+06 4.47421
5.20580E+06 4.47284
5.21223E+06 4.47146
5.21866E+06 4.47009
5.22509E+06 4.46872
5.23152E+06 4.46735
5.23795E+06 4.46598
5.24438E+06 4.46462
5.25081E+06 4.46326
5.25724E+06 4.46190
5.26368E+06 4.46054
5.27011E+06 4.45919
5.27654E+06 4.45784
5.28297E+06 4.45649
5.28940E+06 4.45515
5.29583E+06 4.45380
5.30226E+06 4.45246
5.30869E+06 4.45112
5.31513E+06 4.44979
5.32156E+06 4.44845
5.32799E+06 4.44712
5.33442E+06 4.44579
5.34085E+06 4.44446
5.34728E+06 4.44314
5.35371E+06 4.44182
5.36014E+06 4.44050
5.36657E+06 4.43918
5.37300E+06 4.43786
5.37944E+06 4.43655
5.38587E+06 4.43524
5.39230E+06 4.43393
5.39873E+06 4.43263
5.40516E+06 4.43132
5.41159E+06 4.43002
5.41880E+06 4.42855
5.42600E+06 4.42708
5.43321E+06 4.42562
5.44042E+06 4.42416
5.44762E+06 4.42270
5.45483E+06 4.42125
5.46203E+06 4.41979
5.46924E+06 4.41834
5.48583E+06 4.41497
5.50241E+06 4.41162
5.51900E+06 4.40828
5.53559E+06 4.40495
5.55217E+06 4.40164
5.56876E+06 4.39835
5.58534E+06 4.39507
5.60193E+06 4.39180
5.61852E+06 4.38855
5.63510E+06 4.38531
5.65169E+06 4.38209
5.66828E+06 4.37888
5.68486E+06 4.37568
5.70145E+06 4.37250
5.71803E+06 4.36933
5.73462E+06 4.36618
5.75121E+06 4.36304
5.76779E+06 4.35991
5.78438E+06 4.35680
5.80097E+06 4.35370
5.81755E+06 4.35061
5.83414E+06 4.34754
5.85072E+06 4.34448
5.86731E+06 4.34144
5.88390E+06 4.33840
5.90048E+06 4.33539
5.91707E+06 4.33238
5.93366E+06 4.32939
5.95024E+06 4.32641
5.96683E+06 4.32344
5.98341E+06 4.32049
6.00000E+06 4.31755
6.01854E+06 4.31853
6.03708E+06 4.31952
6.05562E+06 4.32050
6.07415E+06 4.32149
6.09269E+06 4.32248
6.11123E+06 4.32346
6.12977E+06 4.32445
6.14831E+06 4.32544
6.16684E+06 4.32643
6.18538E+06 4.32742
6.20392E+06 4.32841
6.22246E+06 4.32940
6.24100E+06 4.33039
6.25953E+06 4.33138
6.27807E+06 4.33237
6.29661E+06 4.33336
6.31515E+06 4.33436
6.33369E+06 4.33535
6.35223E+06 4.33634
6.37076E+06 4.33734
6.38930E+06 4.33833
6.40784E+06 4.33932
6.42638E+06 4.34032
6.44492E+06 4.34131
6.46345E+06 4.34231
6.48199E+06 4.34331
6.50053E+06 4.34430
6.51907E+06 4.34530
6.53761E+06 4.34629
6.55614E+06 4.34729
6.57468E+06 4.34829
6.59322E+06 4.34928
6.61864E+06 4.35055
6.64407E+06 4.35182
6.66949E+06 4.35308
6.69492E+06 4.35435
6.72034E+06 4.35562
6.74576E+06 4.35689
6.77119E+06 4.35815
6.79661E+06 4.35942
6.82203E+06 4.36069
6.84746E+06 4.36196
6.87288E+06 4.36322
6.89831E+06 4.36449
6.92373E+06 4.36576
6.94915E+06 4.36703
6.97458E+06 4.36830
7.00000E+06 4.36956
7.02311E+06 4.37167
7.04621E+06 4.37379
7.06932E+06 4.37592
7.09242E+06 4.37805
7.11553E+06 4.38019
7.13863E+06 4.38234
7.16174E+06 4.38449
7.18485E+06 4.38666
7.20795E+06 4.38882
7.23106E+06 4.39100
7.25416E+06 4.39318
7.27727E+06 4.39536
7.30037E+06 4.39756
7.32348E+06 4.39976
7.34659E+06 4.40196
7.36969E+06 4.40417
7.39280E+06 4.40639
7.41590E+06 4.40861
7.43901E+06 4.41083
7.46211E+06 4.41306
7.48522E+06 4.41530
7.50832E+06 4.41754
7.53143E+06 4.41978
7.55454E+06 4.42203
7.57764E+06 4.42429
7.60075E+06 4.42654
7.62385E+06 4.42881
7.64696E+06 4.43107
7.67006E+06 4.43334
7.69317E+06 4.43562
7.71628E+06 4.43789
7.73938E+06 4.44018
7.74753E+06 4.44091
7.75567E+06 4.44163
7.76381E+06 4.44236
7.77196E+06 4.44309
7.78010E+06 4.44383
7.78825E+06 4.44456
7.79639E+06 4.44529
7.80454E+06 4.44602
7.81268E+06 4.44675
7.82082E+06 4.44749
7.82897E+06 4.44822
7.83711E+06 4.44895
7.84526E+06 4.44969
7.85340E+06 4.45042
7.86155E+06 4.45116
7.86969E+06 4.45189
7.87784E+06 4.45263
7.88598E+06 4.45336
7.89412E+06 4.45410
7.90227E+06 4.45484
7.91041E+06 4.45557
7.91856E+06 4.45631
7.92670E+06 4.45705
7.93485E+06 4.45779
7.94299E+06 4.45853
7.95113E+06 4.45927
7.95928E+06 4.46000
7.96742E+06 4.46074
7.97557E+06 4.46148
7.98371E+06 4.46222
7.99186E+06 4.46296
8.00000E+06 4.46371
8.00827E+06 4.46444
8.01654E+06 4.46517
8.02481E+06 4.46590
8.03308E+06 4.46664
8.04134E+06 4.46738
8.04961E+06 4.46811
8.05788E+06 4.46885
8.06615E+06 4.46959
8.07442E+06 4.47034
8.08269E+06 4.47108
8.09096E+06 4.47182
8.09922E+06 4.47257
8.10749E+06 4.47332
8.11576E+06 4.47406
8.12403E+06 4.47481
8.13230E+06 4.47556
8.14057E+06 4.47632
8.14884E+06 4.47707
8.15711E+06 4.47782
8.16537E+06 4.47858
8.17364E+06 4.47933
8.18191E+06 4.48009
8.19018E+06 4.48085
8.19845E+06 4.48161
8.20672E+06 4.48237
8.21498E+06 4.48313
8.22325E+06 4.48390
8.23152E+06 4.48466
8.23979E+06 4.48543
8.24806E+06 4.48619
8.25633E+06 4.48696
8.26460E+06 4.48773
8.27286E+06 4.48850
8.28113E+06 4.48927
8.28940E+06 4.49004
8.29767E+06 4.49081
8.30594E+06 4.49159
8.31421E+06 4.49236
8.32248E+06 4.49314
8.33074E+06 4.49391
8.33901E+06 4.49469
8.34728E+06 4.49547
8.35555E+06 4.49625
8.36382E+06 4.49703
8.37209E+06 4.49781
8.38036E+06 4.49859
8.38863E+06 4.49938
8.39689E+06 4.50016
8.40516E+06 4.50095
8.41343E+06 4.50173
8.42170E+06 4.50252
8.42997E+06 4.50331
8.43824E+06 4.50410
8.44651E+06 4.50489
8.45477E+06 4.50568
8.46304E+06 4.50647
8.47131E+06 4.50726
8.47958E+06 4.50805
8.48785E+06 4.50885
8.49612E+06 4.50964
8.50439E+06 4.51044
8.51265E+06 4.51123
8.52092E+06 4.51203
8.52919E+06 4.51283
8.53655E+06 4.51346
8.54390E+06 4.51410
8.55126E+06 4.51473
8.55862E+06 4.51536
8.56597E+06 4.51600
8.57333E+06 4.51664
8.58069E+06 4.51727
8.58804E+06 4.51791
8.59540E+06 4.51855
8.60276E+06 4.51919
8.61011E+06 4.51983
8.61747E+06 4.52047
8.62483E+06 4.52111
8.63218E+06 4.52175
8.63954E+06 4.52239
8.64689E+06 4.52303
8.65425E+06 4.52367
8.66161E+06 4.52431
8.66896E+06 4.52496
8.67632E+06 4.52560
8.68368E+06 4.52625
8.69103E+06 4.52689
8.69839E+06 4.52754
8.70574E+06 4.52819
8.71310E+06 4.52883
8.72046E+06 4.52948
8.72781E+06 4.53013
8.73517E+06 4.53078
8.74253E+06 4.53143
8.74988E+06 4.53208
8.75724E+06 4.53273
8.76460E+06 4.53338
8.77195E+06 4.53403
8.77931E+06 4.53468
8.78667E+06 4.53533
8.79402E+06 4.53598
8.80138E+06 4.53664
8.80873E+06 4.53729
8.81609E+06 4.53794
8.82345E+06 4.53860
8.83080E+06 4.53925
8.83816E+06 4.53991
8.84552E+06 4.54056
8.85287E+06 4.54122
8.86023E+06 4.54188
8.86759E+06 4.54254
8.87494E+06 4.54319
8.88230E+06 4.54385
8.88966E+06 4.54451
8.89701E+06 4.54517
8.90437E+06 4.54583
8.91172E+06 4.54649
8.91908E+06 4.54715
8.92644E+06 4.54781
8.93379E+06 4.54847
8.94115E+06 4.54913
8.94851E+06 4.54980
8.95586E+06 4.55046
8.96322E+06 4.55112
8.97058E+06 4.55178
8.97793E+06 4.55245
8.98529E+06 4.55311
8.99264E+06 4.55378
9.00000E+06 4.55444
9.00686E+06 4.55516
9.01372E+06 4.55588
9.02058E+06 4.55660
9.02744E+06 4.55733
9.03430E+06 4.55805
9.04116E+06 4.55877
9.04802E+06 4.55950
9.05488E+06 4.56022
9.06174E+06 4.56094
9.06860E+06 4.56167
9.07546E+06 4.56239
9.08232E+06 4.56312
9.08918E+06 4.56385
9.09604E+06 4.56457
9.10290E+06 4.56530
9.10976E+06 4.56603
9.11662E+06 4.56676
9.12348E+06 4.56749
9.13034E+06 4.56822
9.13720E+06 4.56895
9.14406E+06 4.56968
9.15092E+06 4.57041
9.15778E+06 4.57114
9.16464E+06 4.57187
9.17150E+06 4.57260
9.17836E+06 4.57333
9.18522E+06 4.57407
9.19208E+06 4.57480
9.19894E+06 4.57554
9.20580E+06 4.57627
9.21266E+06 4.57700
9.21952E+06 4.57774
9.22638E+06 4.57847
9.23324E+06 4.57921
9.24010E+06 4.57995
9.24696E+06 4.58068
9.25382E+06 4.58142
9.26068E+06 4.58216
9.26754E+06 4.58290
9.27440E+06 4.58364
9.28126E+06 4.58437
9.28812E+06 4.58511
9.29498E+06 4.58585
9.30184E+06 4.58659
9.30870E+06 4.58733
9.31556E+06 4.58808
9.32242E+06 4.58882
9.32928E+06 4.58956
9.33614E+06 4.59030
9.34300E+06 4.59104
9.34986E+06 4.59178
9.35672E+06 4.59253
9.36358E+06 4.59327
9.37044E+06 4.59402
9.37730E+06 4.59476
9.38416E+06 4.59550
9.39102E+06 4.59625
9.39788E+06 4.59699
9.40474E+06 4.59774
9.41160E+06 4.59848
9.41846E+06 4.59923
9.42532E+06 4.59998
9.43218E+06 4.60072
9.43904E+06 4.60147
9.44590E+06 4.60222
9.45276E+06 4.60297
9.45962E+06 4.60372
9.46648E+06 4.60446
9.47334E+06 4.60521
9.48020E+06 4.60596
9.48706E+06 4.60671
9.49392E+06 4.60746
9.50078E+06 4.60821
9.50764E+06 4.60896
9.51450E+06 4.60971
9.52136E+06 4.61046
9.52822E+06 4.61121
9.53508E+06 4.61197
9.54194E+06 4.61272
9.54879E+06 4.61347
9.55565E+06 4.61422
9.56251E+06 4.61497
9.56937E+06 4.61573
9.57623E+06 4.61648
9.58309E+06 4.61723
9.58995E+06 4.61799
9.59681E+06 4.61874
9.60367E+06 4.61949
9.61053E+06 4.62025
9.61739E+06 4.62101
9.62425E+06 4.62176
9.63111E+06 4.62252
9.63797E+06 4.62327
9.64483E+06 4.62403
9.65169E+06 4.62478
9.65855E+06 4.62554
9.66541E+06 4.62630
9.67227E+06 4.62705
9.67913E+06 4.62781
9.68599E+06 4.62857
9.69285E+06 4.62932
9.69971E+06 4.63008
9.70657E+06 4.63084
9.71343E+06 4.63160
9.72029E+06 4.63236
9.72715E+06 4.63312
9.73401E+06 4.63388
9.74087E+06 4.63463
9.74773E+06 4.63539
9.75459E+06 4.63615
9.76145E+06 4.63691
9.76831E+06 4.63767
9.77517E+06 4.63843
9.78203E+06 4.63919
9.78889E+06 4.63995
9.79575E+06 4.64072
9.80261E+06 4.64148
9.80947E+06 4.64224
9.81633E+06 4.64300
9.82319E+06 4.64376
9.83005E+06 4.64452
9.83691E+06 4.64529
9.84377E+06 4.64605
9.85063E+06 4.64681
9.85749E+06 4.64757
9.86435E+06 4.64834
9.87121E+06 4.64910
9.87807E+06 4.64986
9.88569E+06 4.65066
9.89331E+06 4.65145
9.90093E+06 4.65224
9.90855E+06 4.65304
9.91617E+06 4.65383
9.92379E+06 4.65462
9.93142E+06 4.65542
9.93904E+06 4.65621
9.94666E+06 4.65701
9.95428E+06 4.65780
9.96190E+06 4.65860
9.96952E+06 4.65939
9.97714E+06 4.66019
9.98476E+06 4.66099
9.99238E+06 4.66178
1.00000E+07 4.66258
1.00076E+07 4.66341
1.00153E+07 4.66424
1.00229E+07 4.66508
1.00305E+07 4.66592
1.00381E+07 4.66677
1.00458E+07 4.66762
1.00534E+07 4.66847
1.00610E+07 4.66933
1.00687E+07 4.67020
1.00763E+07 4.67107
1.00839E+07 4.67194
1.00915E+07 4.67282
1.00992E+07 4.67370
1.01068E+07 4.67459
1.01144E+07 4.67548
1.01220E+07 4.67637
1.01297E+07 4.67727
1.01373E+07 4.67818
1.01449E+07 4.67908
1.01525E+07 4.67999
1.01602E+07 4.68091
1.01678E+07 4.68183
1.01754E+07 4.68276
1.01830E+07 4.68368
1.01907E+07 4.68462
1.01983E+07 4.68555
1.02059E+07 4.68650
1.02136E+07 4.68744
1.02212E+07 4.68839
1.02288E+07 4.68934
1.02364E+07 4.69030
1.02441E+07 4.69126
1.02517E+07 4.69223
1.02593E+07 4.69320
1.02669E+07 4.69417
1.02746E+07 4.69515
1.02822E+07 4.69613
1.02898E+07 4.69712
1.02975E+07 4.69811
1.03051E+07 4.69911
1.03127E+07 4.70010
1.03203E+07 4.70111
1.03280E+07 4.70211
1.03356E+07 4.70312
1.03432E+07 4.70414
1.03508E+07 4.70515
1.03585E+07 4.70618
1.03661E+07 4.70720
1.03737E+07 4.70823
1.03813E+07 4.70927
1.03890E+07 4.71030
1.03966E+07 4.71134
1.04042E+07 4.71239
1.04118E+07 4.71344
1.04195E+07 4.71449
1.04271E+07 4.71555
1.04347E+07 4.71661
1.04424E+07 4.71767
1.04500E+07 4.71874
1.04576E+07 4.71981
1.04652E+07 4.72089
1.04729E+07 4.72197
1.04805E+07 4.72305
1.04881E+07 4.72414
1.04961E+07 4.72511
1.05041E+07 4.72608
1.05121E+07 4.72706
1.05201E+07 4.72804
1.05281E+07 4.72903
1.05361E+07 4.73002
1.05441E+07 4.73102
1.05521E+07 4.73201
1.05601E+07 4.73301
1.05681E+07 4.73402
1.05761E+07 4.73503
1.05841E+07 4.73604
1.05921E+07 4.73706
1.06001E+07 4.73808
1.06081E+07 4.73911
1.06161E+07 4.74013
1.06241E+07 4.74117
1.06321E+07 4.74220
1.06401E+07 4.74324
1.06481E+07 4.74429
1.06561E+07 4.74533
1.06641E+07 4.74638
1.06721E+07 4.74744
1.06801E+07 4.74850
1.06881E+07 4.74956
1.06961E+07 4.75062
1.07041E+07 4.75169
1.07121E+07 4.75277
1.07201E+07 4.75384
1.07281E+07 4.75492
1.07361E+07 4.75601
1.07441E+07 4.75709
1.07521E+07 4.75818
1.07601E+07 4.75928
1.07681E+07 4.76038
1.07761E+07 4.76148
1.07841E+07 4.76259
1.07921E+07 4.76369
1.08001E+07 4.76481
1.08080E+07 4.76592
1.08160E+07 4.76704
1.08240E+07 4.76816
1.08320E+07 4.76929
1.08400E+07 4.77042
1.08480E+07 4.77155
1.08560E+07 4.77269
1.08640E+07 4.77383
1.08720E+07 4.77497
1.08800E+07 4.77612
1.08880E+07 4.77727
1.08960E+07 4.77843
1.09040E+07 4.77959
1.09120E+07 4.78075
1.09200E+07 4.78191
1.09280E+07 4.78308
1.09360E+07 4.78425
1.09440E+07 4.78543
1.09520E+07 4.78660
1.09600E+07 4.78778
1.09680E+07 4.78897
1.09760E+07 4.79016
1.09840E+07 4.79135
1.09920E+07 4.79254
1.10000E+07 4.79374
1.10077E+07 4.79449
1.10153E+07 4.79525
1.10229E+07 4.79600
1.10306E+07 4.79677
1.10382E+07 4.79753
1.10459E+07 4.79830
1.10535E+07 4.79907
1.10611E+07 4.79984
1.10688E+07 4.80062
1.10764E+07 4.80140
1.10841E+07 4.80219
1.10917E+07 4.80297
1.10994E+07 4.80377
1.11070E+07 4.80456
1.11146E+07 4.80536
1.11223E+07 4.80616
1.11299E+07 4.80696
1.11376E+07 4.80777
1.11452E+07 4.80858
1.11529E+07 4.80940
1.11605E+07 4.81021
1.11681E+07 4.81103
1.11758E+07 4.81186
1.11834E+07 4.81268
1.11911E+07 4.81351
1.11987E+07 4.81435
1.12064E+07 4.81518
1.12140E+07 4.81602
1.12216E+07 4.81687
1.12293E+07 4.81771
1.12369E+07 4.81856
1.12446E+07 4.81941
1.12522E+07 4.82027
1.12598E+07 4.82113
1.12675E+07 4.82199
1.12751E+07 4.82285
1.12828E+07 4.82372
1.12904E+07 4.82459
1.12981E+07 4.82547
1.13057E+07 4.82634
1.13133E+07 4.82723
1.13210E+07 4.82811
1.13286E+07 4.82900
1.13363E+07 4.82989
1.13439E+07 4.83078
1.13516E+07 4.83168
1.13592E+07 4.83257
1.13668E+07 4.83348
1.13745E+07 4.83438
1.13821E+07 4.83529
1.13898E+07 4.83620
1.13974E+07 4.83711
1.14051E+07 4.83803
1.14127E+07 4.83895
1.14203E+07 4.83988
1.14280E+07 4.84080
1.14356E+07 4.84173
1.14433E+07 4.84266
1.14509E+07 4.84360
1.14585E+07 4.84454
1.14662E+07 4.84548
1.14738E+07 4.84642
1.14815E+07 4.84737
1.14891E+07 4.84832
1.14971E+07 4.84929
1.15051E+07 4.85026
1.15131E+07 4.85124
1.15210E+07 4.85222
1.15290E+07 4.85320
1.15370E+07 4.85419
1.15450E+07 4.85518
1.15530E+07 4.85617
1.15610E+07 4.85716
1.15689E+07 4.85816
1.15769E+07 4.85917
1.15849E+07 4.86017
1.15929E+07 4.86118
1.16009E+07 4.86219
1.16089E+07 4.86321
1.16168E+07 4.86422
1.16248E+07 4.86524
1.16328E+07 4.86627
1.16408E+07 4.86730
1.16488E+07 4.86833
1.16568E+07 4.86936
1.16647E+07 4.87040
1.16727E+07 4.87144
1.16807E+07 4.87248
1.16887E+07 4.87353
1.16967E+07 4.87457
1.17046E+07 4.87563
1.17126E+07 4.87668
1.17206E+07 4.87774
1.17286E+07 4.87880
1.17366E+07 4.87987
1.17446E+07 4.88093
1.17525E+07 4.88201
1.17605E+07 4.88308
1.17685E+07 4.88416
1.17765E+07 4.88524
1.17845E+07 4.88632
1.17925E+07 4.88741
1.18004E+07 4.88850
1.18084E+07 4.88959
1.18164E+07 4.89068
1.18244E+07 4.89178
1.18324E+07 4.89288
1.18404E+07 4.89399
1.18483E+07 4.89510
1.18563E+07 4.89621
1.18643E+07 4.89732
1.18723E+07 4.89844
1.18803E+07 4.89956
1.18883E+07 4.90068
1.18962E+07 4.90180
1.19042E+07 4.90293
1.19122E+07 4.90406
1.19202E+07 4.90520
1.19282E+07 4.90633
1.19361E+07 4.90747
1.19441E+07 4.90862
1.19521E+07 4.90976
1.19601E+07 4.91091
1.19681E+07 4.91206
1.19761E+07 4.91322
1.19840E+07 4.91438
1.19920E+07 4.91554
1.20000E+07 4.91670
1.20077E+07 4.91722
1.20153E+07 4.91773
1.20230E+07 4.91825
1.20306E+07 4.91877
1.20383E+07 4.91929
1.20459E+07 4.91982
1.20536E+07 4.92034
1.20613E+07 4.92087
1.20689E+07 4.92140
1.20766E+07 4.92193
1.20842E+07 4.92247
1.20919E+07 4.92301
1.20995E+07 4.92355
1.21072E+07 4.92409
1.21149E+07 4.92463
1.21225E+07 4.92518
1.21302E+07 4.92572
1.21378E+07 4.92627
1.21455E+07 4.92683
1.21531E+07 4.92738
1.21608E+07 4.92794
1.21684E+07 4.92849
1.21761E+07 4.92905
1.21838E+07 4.92962
1.21914E+07 4.93018
1.21991E+07 4.93075
1.22067E+07 4.93132
1.22144E+07 4.93189
1.22220E+07 4.93246
1.22297E+07 4.93303
1.22374E+07 4.93361
1.22450E+07 4.93419
1.22527E+07 4.93477
1.22603E+07 4.93535
1.22680E+07 4.93594
1.22756E+07 4.93652
1.22833E+07 4.93711
1.22909E+07 4.93770
1.22986E+07 4.93830
1.23063E+07 4.93889
1.23139E+07 4.93949
1.23216E+07 4.94009
1.23292E+07 4.94069
1.23369E+07 4.94129
1.23445E+07 4.94190
1.23522E+07 4.94251
1.23599E+07 4.94311
1.23675E+07 4.94373
1.23752E+07 4.94434
1.23828E+07 4.94495
1.23905E+07 4.94557
1.23981E+07 4.94619
1.24058E+07 4.94681
1.24134E+07 4.94743
1.24211E+07 4.94806
1.24288E+07 4.94869
1.24364E+07 4.94932
1.24441E+07 4.94995
1.24517E+07 4.95058
1.24594E+07 4.95121
1.24670E+07 4.95185
1.24747E+07 4.95249
1.24824E+07 4.95313
1.24900E+07 4.95377
1.24980E+07 4.95443
1.25059E+07 4.95509
1.25139E+07 4.95575
1.25219E+07 4.95641
1.25299E+07 4.95708
1.25378E+07 4.95774
1.25458E+07 4.95841
1.25538E+07 4.95908
1.25617E+07 4.95975
1.25697E+07 4.96043
1.25777E+07 4.96111
1.25856E+07 4.96179
1.25936E+07 4.96247
1.26016E+07 4.96315
1.26095E+07 4.96384
1.26175E+07 4.96452
1.26255E+07 4.96521
1.26334E+07 4.96591
1.26414E+07 4.96660
1.26494E+07 4.96730
1.26574E+07 4.96799
1.26653E+07 4.96870
1.26733E+07 4.96940
1.26813E+07 4.97010
1.26892E+07 4.97081
1.26972E+07 4.97152
1.27052E+07 4.97223
1.27131E+07 4.97294
1.27211E+07 4.97365
1.27291E+07 4.97437
1.27370E+07 4.97509
1.27450E+07 4.97581
1.27530E+07 4.97653
1.27609E+07 4.97726
1.27689E+07 4.97798
1.27769E+07 4.97871
1.27849E+07 4.97944
1.27928E+07 4.98018
1.28008E+07 4.98091
1.28088E+07 4.98165
1.28167E+07 4.98239
1.28247E+07 4.98313
1.28327E+07 4.98387
1.28406E+07 4.98462
1.28486E+07 4.98537
1.28566E+07 4.98612
1.28645E+07 4.98687
1.28725E+07 4.98762
1.28805E+07 4.98838
1.28884E+07 4.98913
1.28964E+07 4.98989
1.29044E+07 4.99066
1.29124E+07 4.99142
1.29203E+07 4.99219
1.29283E+07 4.99296
1.29363E+07 4.99373
1.29442E+07 4.99450
1.29522E+07 4.99527
1.29602E+07 4.99605
1.29681E+07 4.99683
1.29761E+07 4.99761
1.29841E+07 4.99839
1.29920E+07 4.99918
1.30000E+07 4.99996
1.30077E+07 5.00049
1.30153E+07 5.00102
1.30230E+07 5.00155
1.30307E+07 5.00208
1.30383E+07 5.00261
1.30460E+07 5.00314
1.30537E+07 5.00368
1.30613E+07 5.00421
1.30690E+07 5.00475
1.30767E+07 5.00529
1.30844E+07 5.00583
1.30920E+07 5.00637
1.30997E+07 5.00692
1.31074E+07 5.00746
1.31150E+07 5.00801
1.31227E+07 5.00856
1.31304E+07 5.00910
1.31380E+07 5.00966
1.31457E+07 5.01021
1.31534E+07 5.01076
1.31610E+07 5.01132
1.31687E+07 5.01188
1.31764E+07 5.01243
1.31840E+07 5.01299
1.31917E+07 5.01356
1.31994E+07 5.01412
1.32070E+07 5.01468
1.32147E+07 5.01525
1.32224E+07 5.01582
1.32300E+07 5.01639
1.32377E+07 5.01696
1.32454E+07 5.01753
1.32530E+07 5.01810
1.32607E+07 5.01868
1.32684E+07 5.01925
1.32760E+07 5.01983
1.32837E+07 5.02041
1.32914E+07 5.02099
1.32990E+07 5.02157
1.33067E+07 5.02216
1.33144E+07 5.02274
1.33220E+07 5.02333
1.33297E+07 5.02392
1.33374E+07 5.02451
1.33450E+07 5.02510
1.33527E+07 5.02569
1.33604E+07 5.02628
1.33680E+07 5.02688
1.33757E+07 5.02748
1.33834E+07 5.02807
1.33910E+07 5.02868
1.33987E+07 5.02928
1.34064E+07 5.02988
1.34140E+07 5.03048
1.34217E+07 5.03109
1.34294E+07 5.03170
1.34370E+07 5.03231
1.34447E+07 5.03292
1.34524E+07 5.03353
1.34600E+07 5.03414
1.34677E+07 5.03476
1.34754E+07 5.03537
1.34830E+07 5.03599
1.34907E+07 5.03661
1.34987E+07 5.03721
1.35066E+07 5.03781
1.35146E+07 5.03841
1.35225E+07 5.03902
1.35305E+07 5.03963
1.35385E+07 5.04024
1.35464E+07 5.04085
1.35544E+07 5.04146
1.35623E+07 5.04207
1.35703E+07 5.04268
1.35783E+07 5.04330
1.35862E+07 5.04392
1.35942E+07 5.04454
1.36021E+07 5.04516
1.36101E+07 5.04578
1.36180E+07 5.04641
1.36260E+07 5.04703
1.36340E+07 5.04766
1.36419E+07 5.04829
1.36499E+07 5.04892
1.36578E+07 5.04955
1.36658E+07 5.05019
1.36737E+07 5.05082
1.36817E+07 5.05146
1.36897E+07 5.05210
1.36976E+07 5.05274
1.37056E+07 5.05338
1.37135E+07 5.05402
1.37215E+07 5.05467
1.37294E+07 5.05532
1.37374E+07 5.05596
1.37454E+07 5.05661
1.37533E+07 5.05727
1.37613E+07 5.05792
1.37692E+07 5.05858
1.37772E+07 5.05923
1.37852E+07 5.05989
1.37931E+07 5.06055
1.38011E+07 5.06121
1.38090E+07 5.06187
1.38170E+07 5.06254
1.38249E+07 5.06321
1.38329E+07 5.06387
1.38409E+07 5.06454
1.38488E+07 5.06522
1.38568E+07 5.06589
1.38647E+07 5.06656
1.38727E+07 5.06724
1.38806E+07 5.06792
1.38886E+07 5.06860
1.38966E+07 5.06928
1.39045E+07 5.06996
1.39125E+07 5.07065
1.39204E+07 5.07134
1.39284E+07 5.07202
1.39363E+07 5.07271
1.39443E+07 5.07341
1.39523E+07 5.07410
1.39602E+07 5.07480
1.39682E+07 5.07549
1.39761E+07 5.07619
1.39841E+07 5.07689
1.39921E+07 5.07760
1.40000E+07 5.07830
1.40156E+07 5.07868
1.40313E+07 5.07906
1.40469E+07 5.07944
1.40625E+07 5.07983
1.40781E+07 5.08022
1.40938E+07 5.08061
1.41094E+07 5.08101
1.41250E+07 5.08141
1.41406E+07 5.08181
1.41563E+07 5.08221
1.41719E+07 5.08261
1.41875E+07 5.08302
1.42031E+07 5.08343
1.42188E+07 5.08385
1.42344E+07 5.08426
1.42500E+07 5.08468
1.42656E+07 5.08510
1.42813E+07 5.08553
1.42969E+07 5.08595
1.43125E+07 5.08638
1.43281E+07 5.08682
1.43438E+07 5.08725
1.43594E+07 5.08769
1.43750E+07 5.08813
1.43906E+07 5.08858
1.44063E+07 5.08902
1.44219E+07 5.08947
1.44375E+07 5.08993
1.44531E+07 5.09038
1.44688E+07 5.09084
1.44844E+07 5.09130
1.45000E+07 5.09177
1.45327E+07 5.09259
1.45654E+07 5.09342
1.45981E+07 5.09427
1.46309E+07 5.09512
1.46636E+07 5.09599
1.46963E+07 5.09686
1.47290E+07 5.09775
1.47617E+07 5.09864
1.47915E+07 5.09939
1.48213E+07 5.10014
1.48511E+07 5.10090
1.48809E+07 5.10166
1.49106E+07 5.10244
1.49404E+07 5.10322
1.49702E+07 5.10401
1.50000E+07 5.10481
1.50150E+07 5.10478
1.50301E+07 5.10476
1.50451E+07 5.10473
1.50601E+07 5.10471
1.50751E+07 5.10469
1.50902E+07 5.10467
1.51052E+07 5.10466
1.51202E+07 5.10464
1.51353E+07 5.10462
1.51503E+07 5.10461
1.51653E+07 5.10460
1.51803E+07 5.10459
1.51954E+07 5.10458
1.52104E+07 5.10458
1.52254E+07 5.10457
1.52404E+07 5.10457
1.52555E+07 5.10457
1.52705E+07 5.10457
1.52855E+07 5.10457
1.53005E+07 5.10457
1.53156E+07 5.10458
1.53306E+07 5.10458
1.53456E+07 5.10459
1.53606E+07 5.10460
1.53757E+07 5.10461
1.53907E+07 5.10463
1.54057E+07 5.10464
1.54208E+07 5.10466
1.54358E+07 5.10468
1.54508E+07 5.10470
1.54658E+07 5.10472
1.54809E+07 5.10474
1.54959E+07 5.10477
1.55109E+07 5.10480
1.55259E+07 5.10483
1.55410E+07 5.10486
1.55560E+07 5.10489
1.55710E+07 5.10493
1.55861E+07 5.10496
1.56011E+07 5.10500
1.56161E+07 5.10504
1.56311E+07 5.10508
1.56462E+07 5.10512
1.56612E+07 5.10517
1.56762E+07 5.10522
1.56912E+07 5.10527
1.57063E+07 5.10532
1.57213E+07 5.10537
1.57363E+07 5.10543
1.57513E+07 5.10548
1.57664E+07 5.10554
1.57814E+07 5.10560
1.57964E+07 5.10566
1.58114E+07 5.10573
1.58265E+07 5.10579
1.58415E+07 5.10586
1.58565E+07 5.10593
1.58716E+07 5.10601
1.58866E+07 5.10608
1.59016E+07 5.10616
1.59166E+07 5.10623
1.59317E+07 5.10631
1.59467E+07 5.10640
1.59617E+07 5.10648
1.59713E+07 5.10649
1.59809E+07 5.10651
1.59904E+07 5.10652
1.60000E+07 5.10654
1.60313E+07 5.10581
1.60625E+07 5.10510
1.60938E+07 5.10438
1.61250E+07 5.10368
1.61563E+07 5.10298
1.61875E+07 5.10229
1.62188E+07 5.10161
1.62500E+07 5.10094
1.62813E+07 5.10027
1.63125E+07 5.09961
1.63438E+07 5.09895
1.63750E+07 5.09831
1.64063E+07 5.09767
1.64375E+07 5.09704
1.64688E+07 5.09642
1.65000E+07 5.09580
1.65313E+07 5.09519
1.65625E+07 5.09460
1.65938E+07 5.09400
1.66250E+07 5.09342
1.66563E+07 5.09285
1.66875E+07 5.09228
1.67188E+07 5.09172
1.67500E+07 5.09117
1.67813E+07 5.09063
1.68125E+07 5.09009
1.68438E+07 5.08956
1.68750E+07 5.08905
1.69063E+07 5.08854
1.69375E+07 5.08804
1.69688E+07 5.08755
1.70000E+07 5.08706
1.70272E+07 5.08652
1.70543E+07 5.08598
1.70815E+07 5.08544
1.71086E+07 5.08491
1.71358E+07 5.08439
1.71629E+07 5.08387
1.71901E+07 5.08336
1.72173E+07 5.08285
1.72444E+07 5.08234
1.72716E+07 5.08185
1.72987E+07 5.08135
1.73259E+07 5.08087
1.73530E+07 5.08039
1.73802E+07 5.07991
1.74074E+07 5.07944
1.74345E+07 5.07898
1.74345E+07 5.07898
1.74699E+07 5.07828
1.75052E+07 5.07758
1.75406E+07 5.07690
1.75759E+07 5.07622
1.76112E+07 5.07556
1.76466E+07 5.07490
1.76819E+07 5.07425
1.77173E+07 5.07360
1.77526E+07 5.07297
1.77880E+07 5.07234
1.78233E+07 5.07173
1.78586E+07 5.07112
1.78940E+07 5.07052
1.79293E+07 5.06994
1.79647E+07 5.06935
1.80000E+07 5.06878
1.80313E+07 5.06747
1.80625E+07 5.06617
1.80938E+07 5.06488
1.81250E+07 5.06359
1.81563E+07 5.06232
1.81875E+07 5.06105
1.82188E+07 5.05979
1.82500E+07 5.05854
1.82813E+07 5.05729
1.83125E+07 5.05606
1.83438E+07 5.05483
1.83750E+07 5.05362
1.84063E+07 5.05241
1.84375E+07 5.05121
1.84688E+07 5.05002
1.85000E+07 5.04883
1.85313E+07 5.04766
1.85625E+07 5.04650
1.85938E+07 5.04534
1.86250E+07 5.04419
1.86563E+07 5.04306
1.86875E+07 5.04193
1.87188E+07 5.04081
1.87500E+07 5.03970
1.87813E+07 5.03860
1.88125E+07 5.03750
1.88438E+07 5.03642
1.88750E+07 5.03535
1.89063E+07 5.03428
1.89375E+07 5.03322
1.89688E+07 5.03218
1.90000E+07 5.03114
1.90625E+07 5.02863
1.91250E+07 5.02615
1.91875E+07 5.02372
1.92500E+07 5.02132
1.93125E+07 5.01896
1.93750E+07 5.01664
1.94375E+07 5.01437
1.95000E+07 5.01213
1.95625E+07 5.00993
1.96250E+07 5.00777
1.96875E+07 5.00566
1.97500E+07 5.00358
1.98125E+07 5.00154
1.98750E+07 4.99955
1.99375E+07 4.99760
2.00000E+07 4.99568
