La-139(n,g) ENDFB-8.0
Energy(eV) XS(b)
1.00000E-05 2862.17
1.03125E-05 2818.47
1.06250E-05 2776.71
1.09375E-05 2736.75
1.12500E-05 2698.48
1.15625E-05 2661.76
1.18750E-05 2626.50
1.21875E-05 2592.61
1.25000E-05 2560.00
1.28125E-05 2528.59
1.31250E-05 2498.30
1.34375E-05 2469.08
1.37500E-05 2440.87
1.43750E-05 2387.21
1.50000E-05 2336.95
1.56250E-05 2289.73
1.62500E-05 2245.27
1.68750E-05 2203.30
1.75000E-05 2163.60
1.81250E-05 2125.97
1.87500E-05 2090.23
1.93750E-05 2056.24
2.00000E-05 2023.86
2.09375E-05 1978.03
2.18750E-05 1935.18
2.28125E-05 1895.00
2.37500E-05 1857.22
2.46875E-05 1821.62
2.56250E-05 1787.98
2.65625E-05 1756.15
2.75000E-05 1725.96
2.84375E-05 1697.27
2.93750E-05 1669.96
3.03125E-05 1643.94
3.12500E-05 1619.09
3.21875E-05 1595.34
3.31250E-05 1572.60
3.40625E-05 1550.81
3.50000E-05 1529.90
3.59375E-05 1509.81
3.68750E-05 1490.49
3.78125E-05 1471.90
3.87500E-05 1453.99
3.96875E-05 1436.71
4.06250E-05 1420.04
4.25000E-05 1388.36
4.43750E-05 1358.71
4.62500E-05 1330.89
4.81250E-05 1304.70
5.00000E-05 1280.01
5.15625E-05 1260.46
5.31250E-05 1241.79
5.46875E-05 1223.92
5.62500E-05 1206.80
5.78125E-05 1190.38
5.93750E-05 1174.62
6.09375E-05 1159.46
6.25000E-05 1144.87
6.40625E-05 1130.83
6.56250E-05 1117.28
6.71875E-05 1104.22
6.87500E-05 1091.60
7.18750E-05 1067.60
7.50000E-05 1045.12
7.81250E-05 1024.01
8.12500E-05 1004.12
8.43750E-05 985.353
8.75000E-05 967.598
9.06250E-05 950.769
9.37500E-05 934.789
9.68750E-05 919.589
0.000100000 905.106
0.000103125 891.287
0.000106250 878.083
0.000109375 865.448
0.000112500 853.344
0.000115625 841.733
0.000118750 830.584
0.000121875 819.867
0.000125000 809.554
0.000128125 799.621
0.000131250 790.045
0.000134375 780.804
0.000137500 771.881
0.000143750 754.915
0.000150000 739.021
0.000156250 724.090
0.000162500 710.029
0.000168750 696.757
0.000175000 684.202
0.000181250 672.303
0.000187500 661.003
0.000193750 650.255
0.000200000 640.015
0.000209375 625.523
0.000218750 611.972
0.000228125 599.266
0.000237500 587.320
0.000246875 576.061
0.000256250 565.426
0.000265625 555.359
0.000275000 545.811
0.000284375 536.740
0.000293750 528.106
0.000303125 519.876
0.000312500 512.019
0.000321875 504.508
0.000331250 497.318
0.000340625 490.427
0.000350000 483.815
0.000359375 477.463
0.000368750 471.355
0.000378125 465.475
0.000387500 459.811
0.000396875 454.348
0.000406250 449.075
0.000425000 439.059
0.000443750 429.684
0.000462500 420.885
0.000481250 412.605
0.000500000 404.796
0.000515625 398.616
0.000531250 392.711
0.000546875 387.061
0.000562500 381.648
0.000578125 376.456
0.000593750 371.471
0.000609375 366.678
0.000625000 362.066
0.000640625 357.624
0.000656250 353.342
0.000671875 349.210
0.000687500 345.220
0.000718750 337.633
0.000750000 330.525
0.000781250 323.849
0.000812500 317.561
0.000843750 311.626
0.000875000 306.012
0.000906250 300.691
0.000937500 295.638
0.000968750 290.832
0.00100000 286.253
0.00103125 281.884
0.00106250 277.709
0.00109375 273.714
0.00112500 269.886
0.00115625 266.215
0.00118750 262.690
0.00121875 259.302
0.00125000 256.041
0.00128125 252.900
0.00131250 249.873
0.00134375 246.951
0.00137500 244.130
0.00143750 238.765
0.00150000 233.740
0.00156250 229.020
0.00162500 224.574
0.00168750 220.378
0.00175000 216.408
0.00181250 212.646
0.00187500 209.074
0.00193750 205.675
0.00200000 202.438
0.00209375 197.856
0.00218750 193.572
0.00228125 189.555
0.00237500 185.778
0.00246875 182.219
0.00256250 178.856
0.00265625 175.674
0.00275000 172.655
0.00284375 169.787
0.00293750 167.058
0.00303125 164.456
0.00312500 161.972
0.00321875 159.598
0.00331250 157.325
0.00340625 155.147
0.00350000 153.057
0.00359375 151.049
0.00368750 149.118
0.00378125 147.260
0.00387500 145.469
0.00396875 143.742
0.00406250 142.076
0.00425000 138.910
0.00443750 135.946
0.00462500 133.165
0.00481250 130.549
0.00500000 128.081
0.00515625 126.127
0.00531250 124.261
0.00546875 122.476
0.00562500 120.765
0.00578125 119.124
0.00593750 117.549
0.00609375 116.034
0.00625000 114.577
0.00640625 113.174
0.00656250 111.820
0.00671875 110.515
0.00687500 109.254
0.00718750 106.857
0.00750000 104.611
0.00781250 102.502
0.00812500 100.515
0.00843750 98.6400
0.00875000 96.8663
0.00906250 95.1852
0.00937500 93.5889
0.00968750 92.0706
0.0100000 90.6240
0.0103125 89.2439
0.0106250 87.9251
0.0109375 86.6633
0.0112500 85.4546
0.0115625 84.2954
0.0118750 83.1822
0.0121875 82.1123
0.0125000 81.0828
0.0128125 80.0912
0.0131250 79.1354
0.0134375 78.2131
0.0137500 77.3225
0.0143750 75.6292
0.0150000 74.0430
0.0156250 72.5530
0.0162500 71.1498
0.0168750 69.8254
0.0175000 68.5726
0.0181250 67.3852
0.0187500 66.2578
0.0193750 65.1854
0.0200000 64.1639
0.0206625 63.1321
0.0213250 62.1489
0.0219875 61.2106
0.0226500 60.3139
0.0233125 59.4558
0.0239750 58.6336
0.0246375 57.8448
0.0253000 57.0874
0.0264578 55.8327
0.0276156 54.6582
0.0287734 53.5555
0.0299313 52.5178
0.0310891 51.5388
0.0322469 50.6133
0.0334047 49.7365
0.0345625 48.9042
0.0355274 48.2419
0.0364922 47.6061
0.0374570 46.9951
0.0384219 46.4072
0.0393867 45.8411
0.0403516 45.2955
0.0413164 44.7691
0.0422813 44.2610
0.0442109 43.2952
0.0461406 42.3910
0.0480703 41.5421
0.0500000 40.7431
0.0515625 40.1294
0.0531250 39.5432
0.0546875 38.9824
0.0562500 38.4454
0.0578125 37.9304
0.0593750 37.4360
0.0609375 36.9609
0.0625000 36.5040
0.0640625 36.0640
0.0656250 35.6401
0.0671875 35.2312
0.0687500 34.8364
0.0718750 34.0861
0.0750000 33.3834
0.0781250 32.7233
0.0812500 32.1020
0.0843750 31.5158
0.0875000 30.9616
0.0906250 30.4366
0.0937500 29.9384
0.0968750 29.4649
0.100000 29.0139
0.103125 28.5840
0.106250 28.1734
0.109375 27.7807
0.112500 27.4048
0.115625 27.0445
0.118750 26.6988
0.121875 26.3668
0.125000 26.0477
0.128125 25.7406
0.131250 25.4448
0.137500 24.8843
0.143750 24.3611
0.150000 23.8713
0.156250 23.4119
0.162500 22.9800
0.168750 22.5729
0.175000 22.1885
0.181250 21.8248
0.187500 21.4801
0.193750 21.1529
0.200000 20.8419
0.209375 20.4027
0.218750 19.9929
0.228125 19.6096
0.237500 19.2503
0.246875 18.9127
0.256250 18.5949
0.265625 18.2951
0.275000 18.0117
0.284375 17.7435
0.293750 17.4891
0.303125 17.2476
0.312500 17.0179
0.321875 16.7993
0.331250 16.5908
0.340625 16.3920
0.350000 16.2020
0.359375 16.0204
0.368750 15.8466
0.378125 15.6804
0.387500 15.5212
0.406250 15.2218
0.425000 14.9449
0.443750 14.6889
0.462500 14.4516
0.500000 14.0278
0.531250 13.7186
0.562500 13.4429
0.593750 13.1975
0.625000 12.9790
0.687500 12.6123
0.750000 12.3257
0.812500 12.1076
0.875000 11.9510
0.937500 11.8489
1.00000 11.7964
1.06250 11.7930
1.12500 11.8379
1.18750 11.9316
1.25000 12.0759
1.31250 12.2737
1.37500 12.5292
1.43750 12.8481
1.50000 13.2377
1.56250 13.7076
1.62500 14.2698
1.68750 14.9356
1.71875 15.3133
1.75000 15.7279
1.78125 16.1809
1.81250 16.6756
1.84375 17.2163
1.87500 17.8079
1.90625 18.4561
1.93750 19.1672
1.96875 19.9489
2.00000 20.8096
2.03679 21.9385
2.07358 23.2114
2.11037 24.6522
2.12876 25.4444
2.14716 26.2900
2.16555 27.1939
2.18395 28.1611
2.20234 29.1976
2.22074 30.3094
2.23913 31.5033
2.25752 32.7871
2.27592 34.1713
2.29431 35.6679
2.31455 37.4595
2.33478 39.4211
2.35502 41.5736
2.37525 43.9421
2.39548 46.5561
2.41572 49.4506
2.43595 52.6673
2.45619 56.2558
2.46906 58.7598
2.48194 61.4559
2.49481 64.3645
2.50769 67.5086
2.52057 70.9143
2.53344 74.6114
2.54632 78.6337
2.55919 83.0204
2.57207 87.8168
2.58495 93.0751
2.59782 98.8580
2.61070 105.239
2.62358 112.307
2.63645 120.163
2.64933 128.931
2.65577 133.702
2.66220 138.758
2.67232 147.336
2.68244 156.779
2.69256 167.209
2.70267 178.768
2.71279 191.626
2.71785 198.605
2.72291 205.986
2.72797 213.805
2.73302 222.093
2.73808 230.892
2.74314 240.243
2.74774 249.264
2.75234 258.820
2.75694 268.954
2.76154 279.712
2.76613 291.150
2.77073 303.323
2.77533 316.301
2.77993 330.149
2.78453 344.954
2.78913 360.802
2.79373 377.794
2.79832 396.037
2.80292 415.665
2.80752 436.810
2.81212 459.641
2.81672 484.325
2.82178 513.872
2.82684 546.210
2.83189 581.696
2.83695 620.710
2.84201 663.712
2.84707 711.190
2.85213 763.729
2.85719 821.940
2.86225 886.542
2.86477 921.463
2.86730 958.269
2.86983 997.078
2.87236 1037.97
2.87489 1081.05
2.87742 1126.45
2.87995 1174.29
2.88248 1224.63
2.88501 1277.61
2.88754 1333.32
2.89007 1391.88
2.89260 1453.34
2.89513 1517.80
2.89765 1585.33
2.90271 1729.83
2.90777 1886.98
2.91283 2056.74
2.91789 2238.45
2.92295 2431.12
2.92801 2632.99
2.93306 2841.84
2.93812 3054.63
2.94733 3440.02
2.95193 3625.20
2.95653 3800.63
2.96113 3962.62
2.96573 4107.54
2.97034 4231.97
2.97494 4332.84
2.97870 4396.04
2.98247 4440.62
2.98624 4465.82
2.99000 4471.17
2.99301 4461.11
2.99603 4438.41
3.00092 4375.30
3.00582 4281.51
3.01071 4159.75
3.01561 4013.52
3.02050 3846.74
3.02540 3663.74
3.03029 3468.88
3.03519 3266.48
3.04552 2832.21
3.05069 2619.46
3.05585 2413.93
3.06102 2217.94
3.06619 2033.29
3.07135 1861.05
3.07652 1701.76
3.07915 1625.56
3.08179 1552.76
3.08442 1483.31
3.08706 1417.12
3.08969 1354.11
3.09232 1294.22
3.09496 1237.35
3.09759 1183.36
3.10023 1132.15
3.10286 1083.62
3.10550 1037.63
3.10813 994.075
3.11076 952.812
3.11340 913.756
3.11603 876.774
3.11867 841.756
3.12130 808.581
3.12394 777.169
3.12657 747.407
3.12920 719.199
3.13447 667.079
3.13974 620.155
3.14501 577.810
3.15028 539.529
3.15555 504.834
3.16081 473.316
3.16465 452.179
3.16848 432.408
3.17231 413.892
3.17614 396.535
3.17997 380.235
3.18380 364.918
3.18764 350.501
3.19147 336.922
3.19530 324.112
3.19913 312.017
3.20296 300.586
3.20679 289.774
3.21446 269.826
3.22212 251.869
3.22739 240.542
3.23266 229.964
3.23793 220.069
3.24319 210.801
3.24846 202.107
3.25373 193.942
3.25900 186.262
3.26427 179.032
3.26954 172.215
3.27481 165.783
3.28007 159.705
3.28534 153.957
3.29588 143.359
3.30642 133.824
3.31695 125.215
3.32749 117.417
3.33803 110.330
3.34856 103.871
3.35910 97.9690
3.36964 92.5613
3.38018 87.5947
3.39071 83.0225
3.40029 79.1736
3.40987 75.5903
3.41945 72.2483
3.42903 69.1262
3.43861 66.2048
3.44819 63.4674
3.45777 60.8987
3.46735 58.4853
3.47692 56.2150
3.48650 54.0769
3.49608 52.0609
3.50566 50.1581
3.51524 48.3601
3.52482 46.6595
3.54398 43.5236
3.55451 41.9356
3.56505 40.4355
3.58613 37.6744
3.60720 35.1958
3.62827 32.9626
3.64935 30.9435
3.67042 29.1120
3.69150 27.4457
3.71257 25.9254
3.72790 24.9019
3.74322 23.9415
3.75855 23.0390
3.77388 22.1903
3.78920 21.3909
3.80453 20.6372
3.83518 19.2524
3.86584 18.0111
3.89649 16.8943
3.92714 15.8864
3.95779 14.9740
3.97887 14.3959
3.99994 13.8542
4.02102 13.3457
4.04209 12.8678
4.06317 12.4182
4.08424 11.9945
4.12639 11.2176
4.16854 10.5232
4.21068 9.90014
4.25283 9.33879
4.29498 8.83124
4.32372 8.51253
4.35245 8.21384
4.38119 7.93350
4.40993 7.67003
4.46740 7.18880
4.52488 6.76159
4.58235 6.37886
4.63983 6.03421
4.69730 5.72329
4.75478 5.44182
4.81608 5.16987
4.87739 4.92343
4.93869 4.69934
5.00000 4.49516
5.05371 4.33055
5.10742 4.17755
5.16113 4.03521
5.21484 3.90260
5.26856 3.77879
5.32227 3.66297
5.42969 3.45256
5.53711 3.26650
5.64453 3.10093
5.75195 2.95273
5.85938 2.81937
5.95703 2.70923
6.05469 2.60846
6.15234 2.51664
6.25000 2.43076
6.40625 2.30655
6.56250 2.19599
6.71875 2.09690
6.87500 2.00754
7.03125 1.92651
7.18750 1.85266
7.34375 1.78503
7.50000 1.72284
7.65625 1.66543
7.81250 1.61224
7.96875 1.56280
8.12500 1.51691
8.43750 1.43363
8.75000 1.35998
9.06250 1.29453
9.37500 1.23596
9.68750 1.18328
10.0000 1.13569
10.3125 1.09255
10.6250 1.05337
10.9375 1.01774
11.2500 0.985321
11.5625 0.955864
11.8750 0.929161
12.1875 0.905057
12.5000 0.883442
12.7734 0.866529
13.0469 0.851466
13.3203 0.838240
13.5938 0.826868
13.8672 0.817404
14.1406 0.809948
14.4141 0.804650
14.6875 0.801714
15.0000 0.801566
15.2734 0.804604
15.5469 0.811067
15.8203 0.821485
16.0938 0.836032
16.3672 0.856614
16.5039 0.869397
16.6406 0.884097
16.7774 0.900943
16.9141 0.920209
17.0508 0.942213
17.1875 0.967335
17.3438 1.00045
17.5000 1.03905
17.6270 1.07514
17.7539 1.11606
17.8809 1.16247
18.0078 1.21582
18.1348 1.27718
18.2617 1.34795
18.3252 1.38742
18.3887 1.42997
18.4522 1.47592
18.5156 1.52560
18.6035 1.60131
18.6914 1.68620
18.7793 1.78172
18.8672 1.88968
18.9111 1.94896
18.9551 2.01216
18.9990 2.07961
19.0430 2.15169
19.0869 2.22888
19.1309 2.31171
19.1748 2.40080
19.2188 2.49673
19.2725 2.62434
19.3262 2.76465
19.3799 2.91939
19.4336 3.09059
19.4873 3.28067
19.5410 3.49250
19.5947 3.72950
19.6216 3.85873
19.6484 3.99582
19.6924 4.23906
19.7363 4.50854
19.7803 4.80831
19.8242 5.14290
19.8462 5.32508
19.8682 5.51810
19.8901 5.72293
19.9121 5.94058
19.9341 6.17226
19.9561 6.41901
19.9780 6.68228
20.0000 6.96362
20.0334 7.43011
20.0668 7.94929
20.1003 8.52942
20.1170 8.84537
20.1337 9.18046
20.1504 9.53629
20.1671 9.91463
20.1838 10.3175
20.2005 10.7470
20.2172 11.2057
20.2339 11.6963
20.2507 12.2219
20.2674 12.7861
20.2878 13.5339
20.3082 14.3530
20.3286 15.2538
20.3491 16.2469
20.3695 17.3467
20.3899 18.5683
20.4103 19.9314
20.4205 20.6732
20.4308 21.4597
20.4410 22.2954
20.4512 23.1828
20.4614 24.1276
20.4716 25.1349
20.4818 26.2107
20.4920 27.3615
20.5022 28.5951
20.5124 29.9199
20.5227 31.3472
20.5329 32.8855
20.5431 34.5490
20.5533 36.3529
20.5635 38.3145
20.5737 40.4544
20.5839 42.7966
20.5941 45.3695
20.6053 48.4798
20.6164 51.9574
20.6220 53.8533
20.6276 55.8659
20.6331 58.0052
20.6387 60.2823
20.6443 62.7095
20.6498 65.3000
20.6554 68.0688
20.6610 71.0319
20.6665 74.2071
20.6721 77.6138
20.6777 81.2732
20.6833 85.2084
20.6884 89.0827
20.6935 93.2313
20.6986 97.6766
20.7037 102.433
20.7088 107.545
20.7139 113.020
20.7190 118.909
20.7241 125.218
20.7292 132.005
20.7343 139.292
20.7394 147.115
20.7445 155.492
20.7496 164.494
20.7547 174.124
20.7599 184.460
20.7650 195.500
20.7687 204.008
20.7724 212.935
20.7752 219.933
20.7779 227.156
20.7807 234.661
20.7835 242.402
20.7863 250.439
20.7891 258.719
20.7919 267.309
20.7947 276.151
20.7974 285.313
20.8002 294.735
20.8030 304.487
20.8058 314.504
20.8114 335.486
20.8169 357.698
20.8218 378.179
20.8267 399.569
20.8316 421.949
20.8364 445.217
20.8413 469.446
20.8462 494.511
20.8511 520.478
20.8559 547.195
20.8610 576.034
20.8661 605.565
20.8712 635.761
20.8763 666.528
20.8815 697.821
20.8866 729.462
20.8968 793.209
20.9070 856.702
20.9172 918.689
20.9274 977.836
20.9376 1032.77
20.9472 1079.32
20.9568 1119.85
20.9653 1150.01
20.9738 1174.15
20.9823 1191.79
20.9907 1202.60
21.0000 1206.34
21.0062 1204.12
21.0124 1198.15
21.0216 1182.31
21.0309 1158.58
21.0401 1127.52
21.0494 1089.84
21.0591 1044.05
21.0689 993.023
21.0786 937.880
21.0883 879.796
21.0980 819.932
21.1077 759.392
21.1272 640.279
21.1369 583.308
21.1466 528.961
21.1563 477.716
21.1660 429.960
21.1744 391.579
21.1828 356.028
21.1870 339.280
21.1912 323.227
21.1954 307.863
21.1996 293.210
21.2038 279.189
21.2080 265.821
21.2122 253.090
21.2164 241.007
21.2206 229.496
21.2248 218.594
21.2290 208.227
21.2332 198.424
21.2380 187.701
21.2429 177.642
21.2478 168.213
21.2526 159.380
21.2575 151.112
21.2623 143.375
21.2672 136.138
21.2721 129.371
21.2769 123.044
21.2818 117.129
21.2866 111.598
21.2915 106.426
21.2964 101.589
21.3012 97.0628
21.3061 92.8259
21.3109 88.8657
21.3167 84.4911
21.3224 80.4432
21.3282 76.6867
21.3339 73.1967
21.3397 69.9450
21.3454 66.9218
21.3511 64.1024
21.3569 61.4694
21.3626 59.0028
21.3684 56.6969
21.3741 54.5342
21.3798 52.5030
21.3856 50.5894
21.3913 48.7903
21.3971 47.0935
21.4028 45.4910
21.4125 42.9728
21.4223 40.6740
21.4320 38.5684
21.4417 36.6338
21.4514 34.8510
21.4611 33.2036
21.4709 31.6775
21.4806 30.2617
21.4903 28.9427
21.5000 27.7126
21.5097 26.5632
21.5194 25.4874
21.5292 24.4786
21.5389 23.5313
21.5486 22.6402
21.5583 21.8019
21.5680 21.0104
21.5778 20.2629
21.5972 18.8873
21.6166 17.6522
21.6361 16.5392
21.6555 15.5314
21.6749 14.6162
21.6944 13.7824
21.7138 13.0208
21.7306 12.4142
21.7474 11.8506
21.7642 11.3258
21.7810 10.8367
21.7978 10.3795
21.8145 9.95190
21.8313 9.55092
21.8481 9.17481
21.8649 8.82110
21.8817 8.48824
21.8985 8.17459
21.9153 7.87887
21.9320 7.59941
21.9488 7.33533
21.9824 6.84842
22.0018 6.58929
22.0213 6.34529
22.0407 6.11526
22.0601 5.89824
22.0990 5.49899
22.1379 5.14111
22.1768 4.81887
22.2156 4.52784
22.2545 4.26401
22.2934 4.02410
22.3217 3.86296
22.3499 3.71211
22.3782 3.57064
22.4065 3.43779
22.4348 3.31282
22.4630 3.19519
22.4913 3.08428
22.5196 2.97957
22.5761 2.78688
22.6327 2.61398
22.6892 2.45823
22.7457 2.31751
22.7846 2.22846
22.8235 2.14511
22.8624 2.06694
22.9012 1.99357
22.9401 1.92456
22.9790 1.85962
23.0567 1.74063
23.1345 1.63443
23.2122 1.53924
23.2900 1.45357
23.3677 1.37618
23.4278 1.32138
23.4879 1.27050
23.5480 1.22317
23.6080 1.17912
23.6681 1.13801
23.7282 1.09953
23.7883 1.06343
23.8484 1.02951
23.9685 0.967595
24.0887 0.912630
24.2088 0.863589
24.3290 0.819633
24.4067 0.793564
24.4845 0.769164
24.6400 0.724811
24.7955 0.685590
24.9510 0.650708
25.1065 0.619515
25.2620 0.591487
25.4175 0.566193
25.5729 0.543363
25.7284 0.522587
25.8839 0.503485
26.0394 0.485955
26.1949 0.469837
26.3504 0.454958
26.5059 0.441181
26.6614 0.428396
26.8169 0.416496
27.1279 0.395000
27.4389 0.376111
27.7499 0.359370
28.0609 0.344418
28.3577 0.331664
28.6546 0.319997
28.9515 0.309338
29.2483 0.299456
29.5452 0.290422
29.8420 0.282059
30.1389 0.274229
30.4357 0.266986
31.0295 0.253804
31.6232 0.242181
32.2169 0.231784
32.8106 0.222418
33.3760 0.214336
33.9415 0.207030
34.5069 0.200183
35.0724 0.193966
35.6378 0.188077
36.2032 0.182711
37.3341 0.172967
38.4650 0.164548
39.5959 0.157184
40.7268 0.150716
41.8577 0.145078
42.8755 0.140683
43.8932 0.136879
44.9110 0.133635
45.9288 0.130944
46.9466 0.128814
47.9644 0.127268
48.9822 0.126355
50.0000 0.126154
50.7989 0.126598
51.5979 0.127489
52.3968 0.129100
53.1957 0.131456
53.9946 0.134748
54.3941 0.136790
54.7936 0.139141
55.1930 0.141857
55.5925 0.144973
55.9919 0.148520
56.3914 0.152574
56.7909 0.157232
57.1903 0.162495
57.5898 0.168610
57.9892 0.175654
58.3887 0.183793
58.7882 0.193237
58.9879 0.198529
59.1876 0.204251
59.3874 0.210448
59.5871 0.217170
59.8534 0.227052
60.1197 0.238130
60.3860 0.250596
60.6523 0.264677
60.9186 0.280595
61.0518 0.289356
61.1849 0.298752
61.3181 0.308830
61.4513 0.319643
61.5844 0.331259
61.7176 0.343757
61.9006 0.362554
62.0837 0.383467
62.2668 0.406823
62.4499 0.433013
62.6330 0.462515
62.7245 0.478684
62.8161 0.495906
62.9076 0.514278
62.9992 0.533900
63.0907 0.554889
63.1823 0.577377
63.3071 0.610725
63.4319 0.647546
63.5568 0.688318
63.6816 0.733608
63.8064 0.784162
63.8688 0.811698
63.9312 0.840900
63.9937 0.871913
64.0561 0.904873
64.1185 0.939954
64.1809 0.977327
64.2725 1.03674
64.3640 1.10228
64.4555 1.17482
64.5471 1.25541
64.6386 1.34529
64.6844 1.39417
64.7302 1.44595
64.7759 1.50088
64.8217 1.55920
64.8675 1.62121
64.9132 1.68723
64.9840 1.79799
65.0547 1.92067
65.1255 2.05705
65.1962 2.20926
65.2316 2.29208
65.2669 2.37987
65.3023 2.47305
65.3377 2.57206
65.3731 2.67743
65.4084 2.78971
65.4438 2.90955
65.4792 3.03759
65.5249 3.21689
65.5707 3.41323
65.6165 3.62889
65.6622 3.86654
65.7080 4.12932
65.7538 4.42095
65.7996 4.74590
65.8224 4.92255
65.8453 5.10955
65.8703 5.32654
65.8953 5.55820
65.9202 5.80593
65.9452 6.07116
65.9650 6.29489
65.9847 6.53162
66.0045 6.78265
66.0243 7.04893
66.0440 7.33206
66.0638 7.63323
66.0836 7.95440
66.1033 8.29711
66.1231 8.66381
66.1428 9.05648
66.1626 9.47823
66.1824 9.93169
66.2021 10.4209
66.2219 10.9493
66.2417 11.5223
66.2614 12.1448
66.2843 12.9367
66.3072 13.8163
66.3301 14.7989
66.3415 15.3343
66.3530 15.9028
66.3644 16.5081
66.3759 17.1528
66.3873 17.8414
66.3988 18.5785
66.4102 19.3700
66.4216 20.2206
66.4331 21.1378
66.4445 22.1292
66.4560 23.2047
66.4674 24.3727
66.4789 25.6467
66.4903 27.0378
66.5018 28.5633
66.5132 30.2379
66.5246 32.0820
66.5361 34.1175
66.5475 36.3712
66.5590 38.8668
66.5704 41.6370
66.5818 44.7161
66.5876 46.3863
66.5933 48.1454
66.5990 50.0016
66.6047 51.9605
66.6105 54.0280
66.6162 56.2102
66.6219 58.5132
66.6276 60.9438
66.6344 63.9946
66.6411 67.2404
66.6479 70.6974
66.6547 74.3781
66.6614 78.3015
66.6682 82.4691
66.6750 86.9000
66.6817 91.6079
66.6885 96.6144
66.6952 101.919
66.7020 107.542
66.7088 113.498
66.7155 119.801
66.7223 126.465
66.7290 133.503
66.7358 140.928
66.7415 147.533
66.7473 154.420
66.7530 161.606
66.7587 169.098
66.7644 176.901
66.7701 185.020
66.7816 202.224
66.7930 220.752
66.8045 240.582
66.8159 261.725
66.8273 284.160
66.8357 301.284
66.8440 319.025
66.8523 337.374
66.8606 356.294
66.8773 395.668
66.8939 436.724
66.9168 494.950
66.9397 553.622
66.9626 610.810
66.9855 664.318
66.9969 688.983
67.0083 711.900
67.0198 732.806
67.0312 751.458
67.0423 767.110
67.0533 780.277
67.0643 790.806
67.0754 798.570
67.0877 803.875
67.1000 805.552
67.1035 805.362
67.1150 802.686
67.1264 796.899
67.1378 788.075
67.1493 776.338
67.1654 755.068
67.1816 728.808
67.1970 699.581
67.2124 666.987
67.2251 638.249
67.2377 608.057
67.2629 544.831
67.2938 465.846
67.3092 427.026
67.3247 389.310
67.3401 353.078
67.3555 318.702
67.3710 286.384
67.3787 271.061
67.3864 256.335
67.3938 242.808
67.4012 229.822
67.4085 217.381
67.4159 205.500
67.4233 194.143
67.4306 183.336
67.4380 173.041
67.4453 163.277
67.4527 154.006
67.4601 145.239
67.4674 136.940
67.4748 129.115
67.4822 121.727
67.4895 114.778
67.4969 108.233
67.5043 102.092
67.5120 96.0549
67.5197 90.4112
67.5274 85.1405
67.5351 80.2285
67.5429 75.6424
67.5506 71.3692
67.5583 67.3898
67.5660 63.6904
67.5737 60.2435
67.5814 57.0372
67.5892 54.0551
67.5969 51.2852
67.6046 48.7055
67.6123 46.3089
67.6200 44.0760
67.6277 42.0003
67.6376 39.5593
67.6474 37.3303
67.6572 35.2905
67.6670 33.4215
67.6768 31.7066
67.6867 30.1306
67.6965 28.6798
67.7063 27.3420
67.7161 26.1049
67.7260 24.9609
67.7358 23.9000
67.7456 22.9140
67.7554 21.9959
67.7652 21.1394
67.7751 20.3387
67.7849 19.5887
67.8003 18.5015
67.8157 17.5140
67.8312 16.6123
67.8466 15.7867
67.8621 15.0271
67.8775 14.3268
67.8929 13.6788
67.9083 13.0775
67.9238 12.5177
67.9392 11.9961
67.9547 11.5083
67.9701 11.0519
67.9855 10.6234
68.0010 10.2210
68.0164 9.84229
68.0318 9.48529
68.0473 9.14808
68.0627 8.82957
68.0936 8.24235
68.1244 7.71408
68.1553 7.23699
68.1862 6.80421
68.2170 6.41054
68.2479 6.05104
68.2787 5.72200
68.3068 5.44617
68.3349 5.19049
68.3629 4.95292
68.3910 4.73176
68.4191 4.52549
68.4471 4.33279
68.4752 4.15246
68.5032 3.98346
68.5313 3.82478
68.5594 3.67570
68.5874 3.53539
68.6155 3.40318
68.6435 3.27845
68.6716 3.16064
68.7277 2.94381
68.7586 2.83419
68.7895 2.73076
68.8203 2.63306
68.8512 2.54070
68.9129 2.37037
68.9747 2.21716
69.0364 2.07879
69.0981 1.95345
69.1599 1.83952
69.2216 1.73565
69.2665 1.66577
69.3114 1.60021
69.3563 1.53863
69.4012 1.48073
69.4461 1.42618
69.4910 1.37476
69.5359 1.32621
69.5808 1.28033
69.6706 1.19576
69.7604 1.11973
69.8502 1.05112
69.9400 0.989020
70.0017 0.949677
70.0634 0.912814
70.1252 0.878217
70.1869 0.845714
70.2486 0.815130
70.3104 0.786327
70.3721 0.759165
70.4338 0.733522
70.5573 0.686356
70.6808 0.644060
70.8042 0.605988
70.9277 0.571602
71.0063 0.551421
71.0848 0.532445
71.2420 0.497737
71.3991 0.466842
71.5563 0.439253
71.7134 0.414519
71.8705 0.392217
72.0277 0.372029
72.1848 0.353721
72.3083 0.340515
72.4318 0.328245
72.5552 0.316828
72.6787 0.306189
72.8022 0.296261
72.9256 0.286986
73.1726 0.270185
73.4195 0.255421
73.6664 0.242398
73.9134 0.230873
74.1603 0.220647
74.3511 0.213528
74.5419 0.207019
74.7328 0.201064
74.9236 0.195625
75.1144 0.190672
75.3052 0.186123
75.6868 0.178102
76.0685 0.171405
76.4501 0.165860
76.8317 0.161332
77.2133 0.157713
77.5725 0.155065
77.9317 0.153102
78.2909 0.151789
78.6501 0.151104
79.1215 0.151144
79.5929 0.152261
80.0643 0.154502
80.3000 0.156071
80.5358 0.157956
80.7715 0.160176
81.0072 0.162755
81.2429 0.165715
81.4786 0.169089
81.7143 0.172914
81.9500 0.177224
82.1857 0.182046
82.4214 0.187445
82.6684 0.193845
82.9153 0.201071
83.1623 0.209220
83.4092 0.218419
83.6561 0.228822
83.9031 0.240613
84.1500 0.254014
84.3969 0.269298
84.5990 0.283437
84.8010 0.299282
85.0031 0.317101
85.2051 0.337216
85.3061 0.348252
85.4071 0.360008
85.5082 0.372542
85.6092 0.385921
85.7102 0.400231
85.8112 0.415572
85.9122 0.432049
86.0132 0.449770
86.1367 0.473299
86.2602 0.499121
86.3837 0.527539
86.5071 0.558906
86.6306 0.593643
86.7541 0.632246
86.8775 0.675307
87.0010 0.723533
87.1132 0.772586
87.2255 0.827393
87.2816 0.857247
87.3377 0.888901
87.3939 0.922507
87.4500 0.958228
87.5061 0.996250
87.5622 1.03676
87.6183 1.07998
87.6745 1.12617
87.7306 1.17559
87.7867 1.22858
87.8428 1.28550
87.8989 1.34674
87.9607 1.41966
88.0224 1.49905
88.0842 1.58575
88.1459 1.68064
88.2076 1.78482
88.2694 1.89953
88.3311 2.02625
88.3928 2.16675
88.4546 2.32316
88.4854 2.40808
88.5163 2.49793
88.5472 2.59316
88.5780 2.69418
88.6089 2.80147
88.6398 2.91554
88.6706 3.03706
88.7015 3.16667
88.7324 3.30510
88.7632 3.45316
88.7941 3.61187
88.8250 3.78220
88.8558 3.96547
88.8867 4.16292
88.9232 4.41688
88.9596 4.69595
88.9961 5.00371
89.0326 5.34438
89.0691 5.72309
89.0873 5.92858
89.1056 6.14600
89.1238 6.37635
89.1420 6.62072
89.1603 6.88037
89.1785 7.15669
89.2094 7.66682
89.2248 7.94436
89.2403 8.23838
89.2557 8.55077
89.2711 8.88282
89.2866 9.23667
89.3020 9.61452
89.3174 10.0192
89.3329 10.4530
89.3483 10.9197
89.3637 11.4231
89.3792 11.9682
89.3946 12.5596
89.4100 13.2038
89.4255 13.9084
89.4395 14.6090
89.4535 15.3737
89.4676 16.2118
89.4816 17.1334
89.4886 17.6295
89.4956 18.1504
89.5026 18.6992
89.5096 19.2763
89.5167 19.8854
89.5237 20.5269
89.5307 21.2051
89.5377 21.9203
89.5468 22.9124
89.5559 23.9797
89.5651 25.1293
89.5742 26.3685
89.5833 27.7056
89.5924 29.1491
89.6015 30.7085
89.6107 32.3939
89.6198 34.2161
89.6289 36.1868
89.6380 38.3181
89.6471 40.6232
89.6517 41.8453
89.6563 43.1160
89.6608 44.4372
89.6654 45.8109
89.6699 47.2389
89.6745 48.7233
89.6791 50.2659
89.6836 51.8690
89.6903 54.3271
89.6970 56.9216
89.7036 59.6671
89.7103 62.5624
89.7170 65.6233
89.7236 68.8478
89.7303 72.2528
89.7369 75.8354
89.7436 79.6137
89.7503 83.5836
89.7569 87.7643
89.7636 92.1504
89.7703 96.7621
89.7769 101.592
89.7836 106.655
89.7903 111.955
89.7980 118.405
89.8057 125.192
89.8134 132.324
89.8211 139.798
89.8288 147.639
89.8366 155.833
89.8443 164.403
89.8520 173.331
89.8597 182.639
89.8674 192.317
89.8751 202.360
89.8829 212.752
89.8906 223.513
89.8983 234.620
89.9137 257.818
89.9292 282.263
89.9446 307.778
89.9600 334.193
89.9755 361.288
90.0063 416.469
90.0372 470.866
90.0526 496.934
90.0681 521.735
90.0835 544.923
90.0989 566.140
90.1144 585.060
90.1298 601.350
90.1473 616.349
90.1649 627.277
90.1824 633.890
90.2000 636.030
90.2035 635.915
90.2149 634.291
90.2264 630.774
90.2378 625.392
90.2492 618.208
90.2670 603.569
90.2848 585.046
90.2979 569.175
90.3109 551.626
90.3240 532.590
90.3371 512.281
90.3502 490.901
90.3633 468.706
90.3894 422.704
90.4156 375.918
90.4418 329.921
90.4668 287.908
90.4792 267.879
90.4917 248.633
90.5042 230.208
90.5167 212.671
90.5292 196.060
90.5417 180.412
90.5548 165.029
90.5678 150.712
90.5809 137.426
90.5940 125.167
90.6006 119.401
90.6071 113.884
90.6136 108.604
90.6202 103.555
90.6267 98.7230
90.6333 94.1175
90.6398 89.7244
90.6464 85.5371
90.6553 80.1460
90.6642 75.1084
90.6731 70.4070
90.6820 66.0245
90.6910 61.9435
90.6999 58.1471
90.7088 54.6185
90.7177 51.3414
90.7266 48.3000
90.7356 45.4788
90.7445 42.8632
90.7534 40.4391
90.7623 38.1929
90.7712 36.1120
90.7802 34.1842
90.7891 32.3980
90.7956 31.1704
90.8022 30.0110
90.8087 28.9142
90.8152 27.8762
90.8283 25.9620
90.8414 24.2458
90.8545 22.7021
90.8676 21.3129
90.8807 20.0588
90.8937 18.9241
90.9068 17.8937
90.9199 16.9569
90.9330 16.1016
90.9461 15.3194
90.9592 14.6009
90.9723 13.9400
90.9853 13.3298
90.9984 12.7648
91.0115 12.2399
91.0246 11.7518
91.0377 11.2959
91.0508 10.8699
91.0638 10.4703
91.0769 10.0952
91.0900 9.74194
91.1031 9.40912
91.1293 8.79722
91.1554 8.24811
91.1816 7.75270
91.2078 7.30379
91.2316 6.93065
91.2553 6.58702
91.2791 6.26969
91.3029 5.97588
91.3267 5.70320
91.3505 5.44960
91.3743 5.21325
91.3981 4.99264
91.4219 4.78620
91.4457 4.59278
91.4694 4.41126
91.4932 4.24073
91.5170 4.08017
91.5408 3.92886
91.5646 3.78608
91.5884 3.65124
91.6145 3.51127
91.6407 3.37944
91.6669 3.25513
91.6930 3.13780
91.7454 2.92185
91.7977 2.72811
91.8501 2.55353
91.9024 2.39569
91.9547 2.25245
92.0071 2.12208
92.0451 2.03446
92.0832 1.95234
92.1212 1.87527
92.1593 1.80283
92.1974 1.73465
92.2354 1.67039
92.2735 1.60977
92.3115 1.55251
92.3877 1.44706
92.4638 1.35237
92.5399 1.26699
92.6160 1.18973
92.6684 1.14081
92.7207 1.09497
92.7730 1.05196
92.8254 1.01156
92.8777 0.973550
92.9300 0.937755
92.9824 0.903994
93.0347 0.872128
93.1394 0.813512
93.2441 0.760940
93.3487 0.713606
93.4534 0.670834
93.5676 0.628710
93.6818 0.590717
93.7960 0.556332
93.9101 0.525119
94.0243 0.496702
94.1385 0.470766
94.2527 0.447022
94.3669 0.425218
94.4716 0.406746
94.5762 0.389581
94.6809 0.373609
94.7856 0.358724
94.8902 0.344833
94.9949 0.331849
95.0996 0.319695
95.2042 0.308303
95.3089 0.297609
95.4136 0.287558
95.6229 0.269188
95.8323 0.252844
96.0416 0.238239
96.1748 0.229740
96.3080 0.221795
96.4413 0.214359
96.5745 0.207388
96.8409 0.194696
97.1073 0.183473
97.3738 0.173521
97.6402 0.164606
97.9066 0.156593
98.1730 0.149383
98.4014 0.143764
98.6298 0.138606
98.8582 0.133861
99.0865 0.129487
99.3149 0.125449
99.5433 0.121714
99.7716 0.118254
100.000 0.115040
100.307 0.111085
100.614 0.107527
100.921 0.104270
101.228 0.101296
101.534 0.0985788
101.841 0.0961017
102.148 0.0938375
102.455 0.0917663
103.069 0.0881423
103.683 0.0851149
104.296 0.0825933
104.910 0.0805099
105.401 0.0791221
105.892 0.0779577
106.383 0.0769984
106.874 0.0762296
107.365 0.0756394
107.856 0.0752186
108.347 0.0749601
108.838 0.0748590
109.513 0.0749721
110.188 0.0753738
110.863 0.0760682
111.538 0.0770655
112.213 0.0783798
112.888 0.0800353
113.564 0.0820618
114.239 0.0844980
114.914 0.0873959
115.589 0.0908166
116.264 0.0948410
116.939 0.0995702
117.277 0.102237
117.614 0.105128
117.952 0.108270
118.289 0.111680
118.627 0.115390
118.964 0.119432
119.302 0.123840
119.639 0.128651
120.008 0.134405
120.376 0.140736
120.744 0.147799
121.112 0.155659
121.481 0.164430
121.849 0.174248
122.217 0.185287
122.401 0.191324
122.585 0.197745
122.908 0.210010
123.230 0.223753
123.391 0.231254
123.552 0.239220
123.713 0.247691
123.874 0.256710
124.035 0.266324
124.197 0.276586
124.358 0.287556
124.519 0.299299
124.680 0.311885
124.841 0.325385
125.002 0.339885
125.163 0.355505
125.332 0.373229
125.501 0.392500
125.670 0.413487
125.838 0.436379
126.007 0.461441
126.176 0.488939
126.345 0.519200
126.513 0.552587
126.682 0.589590
126.851 0.630729
127.020 0.676645
127.104 0.701630
127.188 0.728077
127.273 0.756173
127.357 0.786020
127.442 0.817769
127.526 0.851585
127.610 0.887651
127.695 0.926172
127.779 0.967373
127.864 1.01145
127.963 1.06780
128.063 1.12911
128.163 1.19613
128.263 1.26945
128.362 1.35009
128.462 1.43891
128.562 1.53714
128.661 1.64617
128.746 1.74813
128.830 1.86017
128.915 1.98369
128.999 2.12015
129.083 2.27182
129.168 2.44085
129.210 2.53273
129.252 2.63004
129.294 2.73322
129.336 2.84249
129.409 3.04828
129.446 3.16004
129.482 3.27788
129.519 3.40298
129.555 3.53519
129.592 3.67586
129.628 3.82491
129.665 3.98392
129.701 4.15286
129.737 4.33362
129.774 4.52626
129.810 4.73304
129.847 4.95416
129.883 5.19169
129.920 5.44734
129.962 5.76900
130.004 6.12116
130.046 6.50795
130.088 6.93425
130.131 7.40586
130.173 7.92979
130.215 8.51451
130.236 8.83284
130.257 9.16881
130.278 9.52732
130.299 9.90874
130.320 10.3152
130.341 10.7493
130.363 11.2136
130.384 11.7115
130.405 12.2467
130.426 12.8234
130.447 13.4466
130.468 14.1222
130.489 14.8570
130.510 15.6592
130.531 16.5384
130.552 17.5060
130.574 18.5757
130.584 19.1565
130.595 19.7636
130.606 20.4740
130.618 21.2229
130.629 22.0203
130.641 22.8704
130.652 23.7781
130.664 24.7486
130.675 25.7876
130.687 26.9014
130.698 28.0970
130.710 29.3818
130.721 30.7641
130.733 32.2526
130.744 33.8571
130.756 35.5881
130.767 37.4567
130.779 39.4752
130.789 41.4797
130.800 43.6124
130.810 45.9255
130.821 48.3873
130.832 51.0576
130.842 53.8992
130.853 56.9806
130.863 60.2580
130.874 63.8094
130.884 67.5835
130.895 71.6685
130.905 76.0041
130.916 80.6901
130.926 85.6553
130.937 91.0121
130.948 96.6767
130.956 101.653
130.965 106.834
130.974 112.349
130.982 118.082
130.991 124.173
130.999 130.493
131.008 137.116
131.017 144.050
131.025 151.389
131.034 158.969
131.043 166.879
131.051 175.124
131.060 183.808
131.068 192.735
131.086 211.616
131.096 223.934
131.107 236.642
131.117 249.975
131.128 263.671
131.149 292.602
131.170 323.269
131.191 355.443
131.212 388.832
131.254 457.751
131.291 517.181
131.327 573.738
131.348 604.056
131.369 631.856
131.391 656.590
131.412 677.755
131.427 690.307
131.441 700.721
131.456 708.886
131.471 714.711
131.486 718.057
131.500 719.125
131.503 719.076
131.510 718.506
131.518 717.320
131.533 713.102
131.548 706.468
131.563 697.493
131.575 688.693
131.587 678.519
131.611 654.454
131.634 627.027
131.657 596.083
131.684 556.083
131.711 513.406
131.757 438.195
131.780 400.686
131.803 364.182
131.826 328.851
131.849 295.250
131.872 263.685
131.883 248.736
131.895 234.492
131.911 214.686
131.928 196.160
131.945 178.920
131.961 162.952
131.978 148.231
131.986 141.286
131.995 134.718
132.003 128.362
132.011 122.363
132.020 116.569
132.028 111.109
132.040 103.968
132.051 97.2977
132.063 91.0763
132.074 85.2815
132.086 79.8906
132.097 74.8809
132.109 70.2302
132.120 65.9528
132.132 61.9524
132.143 58.2473
132.155 54.8174
132.166 51.6436
132.178 48.7077
132.189 45.9921
132.201 43.4805
132.212 41.1766
132.223 39.0256
132.235 37.0347
132.246 35.1911
132.258 33.4829
132.269 31.8991
132.281 30.4294
132.292 29.0643
132.304 27.8057
132.315 26.6236
132.327 25.5220
132.338 24.4942
132.350 23.5341
132.361 22.6358
132.373 21.7944
132.384 21.0051
132.396 20.2698
132.418 18.9700
132.440 17.8125
132.462 16.7716
132.483 15.8310
132.505 14.9734
132.527 14.1951
132.549 13.4827
132.571 12.8281
132.593 12.2219
132.615 11.6640
132.637 11.1465
132.659 10.6653
132.681 10.2148
132.703 9.79596
132.725 9.40388
132.747 9.03619
132.770 8.67399
132.793 8.33420
132.816 8.01490
132.838 7.71568
132.861 7.43239
132.884 7.16504
132.930 6.67437
132.976 6.23314
133.022 5.83639
133.068 5.47742
133.114 5.15146
133.148 4.93207
133.181 4.72736
133.214 4.53545
133.248 4.35527
133.281 4.18587
133.315 4.02639
133.348 3.87606
133.381 3.73416
133.415 3.60008
133.448 3.47323
133.515 3.23921
133.582 3.02847
133.649 2.83797
133.695 2.71723
133.740 2.60440
133.786 2.49834
133.832 2.39896
133.878 2.30529
133.924 2.21729
133.970 2.13415
134.016 2.05584
134.062 1.98169
134.108 1.91170
134.200 1.78247
134.292 1.66615
134.384 1.56117
134.476 1.46591
134.567 1.37927
134.659 1.30026
134.751 1.22807
134.843 1.16181
134.935 1.10091
135.027 1.04481
135.119 0.993075
135.206 0.947263
135.294 0.904640
135.382 0.864906
135.469 0.827800
135.557 0.793094
135.645 0.760588
135.733 0.730102
135.820 0.701476
135.908 0.674563
135.996 0.649229
136.083 0.625353
136.171 0.602826
136.346 0.561427
136.522 0.524337
136.706 0.489465
136.889 0.458153
137.073 0.429900
137.257 0.404349
137.441 0.381141
137.624 0.360021
137.808 0.340735
137.992 0.323079
138.142 0.309713
138.292 0.297250
138.443 0.285600
138.593 0.274704
138.744 0.264472
138.894 0.254856
139.044 0.245797
139.195 0.237270
139.495 0.221643
139.796 0.207699
140.097 0.195206
140.397 0.183973
140.581 0.177652
140.765 0.171708
141.132 0.160838
141.500 0.151157
141.867 0.142498
142.235 0.134723
142.602 0.127718
142.970 0.121385
143.337 0.115641
143.638 0.111330
143.939 0.107335
144.239 0.103632
144.540 0.100204
144.841 0.0969962
145.142 0.0939933
145.442 0.0911854
145.743 0.0885613
146.344 0.0837941
146.946 0.0795916
147.547 0.0758712
148.148 0.0725658
148.583 0.0704036
149.017 0.0684104
149.451 0.0665695
149.886 0.0648669
150.754 0.0618293
151.623 0.0592147
152.492 0.0569556
153.360 0.0550276
154.229 0.0533199
155.098 0.0518414
156.434 0.0499482
157.770 0.0484333
159.107 0.0472269
160.443 0.0462882
161.779 0.0455846
163.116 0.0450815
164.452 0.0447532
165.789 0.0445866
166.858 0.0445623
167.927 0.0446319
170.065 0.0450226
172.203 0.0457365
174.341 0.0467731
176.480 0.0481409
178.618 0.0498555
179.687 0.0508523
180.756 0.0519554
181.825 0.0531670
182.894 0.0544951
184.364 0.0565327
185.834 0.0588321
187.304 0.0614347
188.774 0.0643915
190.245 0.0677412
191.715 0.0715729
192.450 0.0736864
193.185 0.0759657
193.920 0.0784050
194.655 0.0810213
195.323 0.0835953
195.991 0.0863417
196.659 0.0892891
197.327 0.0924859
197.996 0.0959044
198.664 0.0996179
199.332 0.103598
200.000 0.107972
200.816 0.113860
201.632 0.120433
202.447 0.127816
203.263 0.136162
203.671 0.140752
204.079 0.145659
204.487 0.150910
204.894 0.156542
205.302 0.162601
205.710 0.169123
206.118 0.176142
206.526 0.183721
206.953 0.192402
207.380 0.201904
207.808 0.212331
208.235 0.223812
208.662 0.236510
209.090 0.250611
209.517 0.266342
209.944 0.283975
210.313 0.301004
210.682 0.319967
211.051 0.341191
211.236 0.352771
211.420 0.365069
211.605 0.378156
211.789 0.392087
211.974 0.406942
212.158 0.422798
212.343 0.439745
212.527 0.457906
212.712 0.477427
212.896 0.498462
213.110 0.524925
213.324 0.553892
213.537 0.585722
213.751 0.620781
213.965 0.659571
214.178 0.702612
214.392 0.750591
214.605 0.804310
214.770 0.850373
214.936 0.900977
215.101 0.956740
215.266 1.01839
215.431 1.08680
215.513 1.12388
215.596 1.16303
215.679 1.20450
215.761 1.24838
215.844 1.29492
215.926 1.34435
215.984 1.38115
216.043 1.41953
216.101 1.45974
216.159 1.50174
216.222 1.54959
216.285 1.59986
216.349 1.65288
216.412 1.70869
216.475 1.76767
216.538 1.82987
216.601 1.89565
216.664 1.96528
216.718 2.02744
216.771 2.09280
216.824 2.16157
216.878 2.23400
216.931 2.31036
216.985 2.39094
217.038 2.47606
217.091 2.56607
217.145 2.66156
217.198 2.76258
217.252 2.86979
217.278 2.92588
217.305 2.98372
217.332 3.04338
217.358 3.10494
217.385 3.16849
217.412 3.23411
217.439 3.30189
217.465 3.37194
217.492 3.44435
217.519 3.51925
217.545 3.59703
217.572 3.67724
217.599 3.76031
217.626 3.84636
217.652 3.93555
217.679 4.02803
217.706 4.12398
217.732 4.22356
217.759 4.32698
217.786 4.43444
217.812 4.54615
217.839 4.66235
217.866 4.78329
217.893 4.90923
217.919 5.04047
217.946 5.17731
217.973 5.32063
217.999 5.46972
218.026 5.62550
218.053 5.78839
218.080 5.95883
218.106 6.13732
218.133 6.32439
218.160 6.52063
218.186 6.72667
218.213 6.94320
218.240 7.17098
218.266 7.41084
218.293 7.66370
218.320 7.93057
218.347 8.21256
218.373 8.51092
218.394 8.75437
218.415 9.00793
218.435 9.27483
218.456 9.55333
218.477 9.84706
218.497 10.1542
218.518 10.4772
218.538 10.8174
218.559 11.1778
218.580 11.5565
218.600 11.9569
218.621 12.3809
218.642 12.8327
218.662 13.3105
218.683 13.8190
218.703 14.3612
218.730 15.1227
218.757 15.9524
218.770 16.3987
218.784 16.8631
218.797 17.3544
218.810 17.8667
218.824 18.4097
218.837 18.9772
218.850 19.5799
218.864 20.2111
218.877 20.8829
218.890 21.5878
218.904 22.3397
218.917 23.1303
218.930 23.9752
218.944 24.8723
218.957 25.8257
218.971 26.8322
218.984 27.9114
218.997 29.0525
219.011 30.2780
219.024 31.5755
219.037 32.9707
219.051 34.4494
219.064 36.0410
219.077 37.7292
219.091 39.5475
219.104 41.4771
219.117 43.5560
219.131 45.7625
219.144 48.1396
219.157 50.6620
219.171 53.3785
219.184 56.2595
219.198 59.3598
219.211 62.6449
219.224 66.1763
219.238 69.9135
219.251 73.9254
219.264 78.1645
219.278 82.7073
219.291 87.4985
219.304 92.6225
219.318 98.0149
219.331 103.725
219.344 109.762
219.363 118.626
219.381 128.101
219.399 138.256
219.417 149.108
219.435 160.668
219.454 172.943
219.472 185.932
219.490 199.628
219.503 210.156
219.517 221.051
219.543 243.802
219.570 267.835
219.597 292.982
219.624 319.027
219.650 345.708
219.704 399.725
219.755 449.894
219.780 473.568
219.806 495.814
219.832 517.187
219.859 536.141
219.877 547.340
219.895 557.234
219.912 565.735
219.930 572.732
219.948 578.160
219.965 582.059
219.983 584.393
220.000 585.143
220.007 584.997
220.030 582.761
220.053 577.889
220.075 570.411
220.098 560.506
220.129 543.222
220.160 522.147
220.184 503.541
220.208 483.242
220.232 461.547
220.256 438.757
220.309 386.153
220.362 332.872
220.388 306.687
220.415 281.350
220.441 256.992
220.468 233.798
220.490 214.817
220.513 196.879
220.536 180.029
220.559 164.292
220.582 149.674
220.604 136.164
220.616 129.818
220.627 123.739
220.639 117.922
220.650 112.363
220.663 106.193
220.676 100.398
220.690 94.9192
220.703 89.7451
220.716 84.8645
220.729 80.2655
220.742 75.9362
220.756 71.8644
220.769 68.0381
220.782 64.4451
220.795 61.0736
220.808 57.9117
220.822 54.9481
220.835 52.1715
220.848 49.5712
220.861 47.1364
220.877 44.4424
220.893 41.9674
220.908 39.6786
220.924 37.5618
220.939 35.6034
220.955 33.7909
220.971 32.1126
220.986 30.5576
221.002 29.1068
221.017 27.7693
221.033 26.5268
221.049 25.3713
221.064 24.2956
221.080 23.2929
221.095 22.3572
221.111 21.4826
221.138 20.1232
221.164 18.9082
221.190 17.8134
221.217 16.8230
221.243 15.9234
221.270 15.1032
221.296 14.3526
221.322 13.6633
221.349 13.0258
221.375 12.4390
221.402 11.8952
221.428 11.3898
221.454 10.9190
221.481 10.4794
221.507 10.0681
221.534 9.68255
221.560 9.31914
221.587 8.97862
221.613 8.65778
221.639 8.35506
221.692 7.79843
221.745 7.29907
221.798 6.84905
221.851 6.44185
221.903 6.07204
221.956 5.73505
222.004 5.45334
222.052 5.19365
222.100 4.95320
222.148 4.73010
222.196 4.52226
222.244 4.32908
222.292 4.14883
222.340 3.98036
222.388 3.82233
222.436 3.67450
222.484 3.53570
222.532 3.40522
222.581 3.28214
222.629 3.16640
222.725 2.95405
222.777 2.84685
222.830 2.74612
222.883 2.65101
222.936 2.56143
223.042 2.39663
223.147 2.24914
223.253 2.11637
223.359 1.99668
223.464 1.88824
223.570 1.78989
223.652 1.71991
223.733 1.65481
223.815 1.59403
223.896 1.53733
223.978 1.48424
224.060 1.43459
224.141 1.38803
224.223 1.34432
224.386 1.26455
224.549 1.19390
224.713 1.13105
224.876 1.07507
224.982 1.04204
225.087 1.01134
225.299 0.956085
225.510 0.908056
225.721 0.866241
225.932 0.829811
226.144 0.798084
226.355 0.770500
226.566 0.746606
226.835 0.720929
227.104 0.699904
227.373 0.682916
227.642 0.669565
227.911 0.659552
228.180 0.652630
228.449 0.648594
228.718 0.647294
229.064 0.649480
229.409 0.655903
229.755 0.666548
230.101 0.681498
230.447 0.700953
230.792 0.725199
231.138 0.754674
231.484 0.789920
231.753 0.821800
232.022 0.857995
232.291 0.898975
232.560 0.945383
232.829 0.998100
233.097 1.05801
233.232 1.09101
233.366 1.12621
233.501 1.16384
233.635 1.20403
233.847 1.27300
234.058 1.34992
234.269 1.43597
234.375 1.48286
234.480 1.53254
234.586 1.58532
234.692 1.64134
234.797 1.70098
234.903 1.76443
235.009 1.83213
235.114 1.90431
235.220 1.98153
235.326 2.06407
235.451 2.16937
235.575 2.28391
235.700 2.40880
235.825 2.54525
235.950 2.69498
236.075 2.85949
236.200 3.04107
236.262 3.13887
236.325 3.24183
236.430 3.42904
236.536 3.63395
236.642 3.85929
236.747 4.10739
236.800 4.24131
236.853 4.38199
236.906 4.53018
236.958 4.68642
237.011 4.85164
237.064 5.02586
237.117 5.21011
237.170 5.40519
237.256 5.75046
237.343 6.13106
237.386 6.33681
237.429 6.55304
237.472 6.78101
237.516 7.02161
237.559 7.27639
237.602 7.54526
237.645 7.82995
237.688 8.13177
237.732 8.45213
237.775 8.79263
237.818 9.15503
237.861 9.54130
237.914 10.0500
237.967 10.6013
238.020 11.2026
238.073 11.8576
238.126 12.5760
238.178 13.3634
238.231 14.2309
238.284 15.1903
238.310 15.7108
238.337 16.2577
238.363 16.8353
238.390 17.4460
238.416 18.0924
238.442 18.7776
238.469 19.5049
238.495 20.2780
238.522 21.1009
238.548 21.9783
238.574 22.9153
238.601 23.9176
238.627 24.9918
238.654 26.1450
238.680 27.3855
238.706 28.7225
238.727 29.8337
238.747 31.0087
238.768 32.2585
238.788 33.5896
238.809 35.0088
238.829 36.5236
238.849 38.1425
238.870 39.8742
238.890 41.7381
238.911 43.7265
238.931 45.8596
238.951 48.1498
238.972 50.6104
238.992 53.2553
239.013 56.0998
239.033 59.1598
239.060 63.4845
239.086 68.2217
239.112 73.4277
239.139 79.1446
239.165 85.4158
239.192 92.2850
239.218 99.7952
239.244 107.988
239.271 116.902
239.297 126.570
239.324 137.022
239.350 148.278
239.376 160.350
239.403 173.237
239.429 186.926
239.456 201.390
239.478 214.530
239.501 228.121
239.547 256.617
239.592 286.414
239.638 316.829
239.691 351.715
239.744 384.821
239.784 407.904
239.824 428.312
239.844 437.325
239.865 445.385
239.885 452.469
239.905 458.515
239.929 464.281
239.952 468.418
239.976 470.902
240.000 471.701
240.022 470.918
240.044 468.683
240.067 465.000
240.089 459.942
240.111 453.519
240.133 445.859
240.155 436.972
240.177 427.032
240.208 411.816
240.238 395.019
240.268 376.939
240.298 357.881
240.359 318.228
240.419 278.116
240.474 242.541
240.502 225.592
240.530 209.326
240.557 193.769
240.585 179.094
240.612 165.283
240.640 152.357
240.668 140.280
240.695 129.129
240.723 118.838
240.751 109.379
240.778 100.711
240.806 92.7934
240.833 85.5783
240.861 79.0170
240.876 75.6861
240.891 72.5280
240.906 69.5346
240.921 66.7163
240.936 64.0278
240.951 61.4809
240.967 59.0682
240.982 56.7974
240.997 54.6313
241.012 52.5789
241.042 48.8020
241.072 45.4050
241.102 42.3454
241.130 39.7948
241.157 37.4786
241.185 35.3634
241.213 33.4279
241.240 31.6469
241.268 30.0166
241.295 28.5153
241.323 27.1297
241.351 25.8438
241.378 24.6565
241.406 23.5538
241.434 22.5277
241.461 21.5710
241.489 20.6774
241.516 19.8412
241.544 19.0575
241.572 18.3192
241.599 17.6277
241.627 16.9765
241.654 16.3625
241.682 15.7808
241.710 15.2330
241.765 14.2233
241.820 13.3134
241.875 12.4930
241.931 11.7478
241.986 11.0712
242.031 10.5615
242.076 10.0875
242.122 9.64602
242.167 9.23400
242.212 8.84886
242.257 8.48825
242.302 8.15010
242.348 7.83255
242.393 7.53394
242.438 7.25276
242.483 6.98766
242.528 6.73743
242.619 6.27726
242.709 5.86459
242.764 5.63278
242.820 5.41548
242.875 5.21077
242.930 5.01837
242.985 4.83667
243.041 4.66551
243.151 4.35055
243.262 4.06825
243.372 3.81424
243.483 3.58489
243.593 3.37728
243.663 3.25493
243.734 3.13984
243.804 3.03130
243.874 2.92884
244.015 2.74044
244.156 2.57154
244.296 2.41947
244.437 2.28226
244.577 2.15794
244.718 2.04499
244.829 1.96334
244.939 1.88736
245.050 1.81656
245.160 1.75051
245.271 1.68882
245.381 1.63114
245.492 1.57714
245.602 1.52659
245.823 1.43459
246.044 1.35341
246.265 1.28157
246.486 1.21790
246.747 1.15173
247.008 1.09414
247.269 1.04401
247.531 1.00046
247.792 0.962719
248.053 0.930177
248.314 0.902198
248.575 0.878356
248.776 0.862625
248.977 0.849035
249.178 0.837478
249.379 0.827864
249.580 0.820106
249.780 0.814147
249.981 0.809938
250.182 0.807446
250.383 0.806646
250.584 0.807531
250.785 0.810104
250.986 0.814381
251.187 0.820390
251.388 0.828174
251.588 0.837786
251.789 0.849299
251.990 0.862796
252.191 0.878381
252.392 0.896172
252.593 0.916298
252.794 0.938903
252.995 0.964166
253.196 0.992334
253.396 1.02370
253.577 1.05494
253.758 1.08928
253.939 1.12699
254.120 1.16838
254.300 1.21383
254.481 1.26375
254.662 1.31865
254.843 1.37908
255.034 1.44963
255.225 1.52795
255.415 1.61518
255.606 1.71249
255.702 1.76543
255.797 1.82143
255.893 1.88076
255.988 1.94368
256.083 2.01056
256.179 2.08156
256.274 2.15712
256.370 2.23761
256.480 2.33760
256.591 2.44553
256.701 2.56226
256.812 2.68872
256.922 2.82601
257.033 2.97536
257.143 3.13823
257.254 3.31609
257.309 3.41146
257.364 3.51120
257.419 3.61594
257.475 3.72564
257.530 3.84102
257.585 3.96204
257.640 4.08953
257.696 4.22349
257.751 4.36486
257.806 4.51365
257.861 4.67098
257.917 4.83689
257.972 5.01268
258.027 5.19845
258.082 5.39534
258.137 5.60428
258.203 5.86839
258.268 6.15265
258.333 6.45921
258.399 6.79048
258.464 7.14925
258.529 7.53869
258.595 7.96247
258.660 8.42480
258.715 8.85012
258.770 9.30917
258.826 9.80758
258.881 10.3481
258.936 10.9378
258.991 11.5807
259.047 12.2849
259.074 12.6626
259.102 13.0588
259.129 13.4764
259.157 13.9137
259.185 14.3739
259.212 14.8585
259.240 15.3712
259.268 15.9106
259.295 16.4804
259.323 17.0833
259.350 17.7244
259.378 18.4020
259.406 19.1218
259.433 19.8876
259.461 20.7036
259.488 21.5746
259.516 22.5058
259.544 23.5032
259.566 24.3740
259.589 25.2978
259.611 26.2792
259.634 27.3233
259.657 28.4356
259.679 29.6223
259.702 30.8902
259.724 32.2469
259.747 33.7007
259.770 35.2608
259.792 36.9373
259.815 38.7414
259.837 40.6853
259.860 42.7823
259.883 45.0471
259.905 47.4956
259.933 50.7727
259.947 52.5286
259.961 54.3727
259.974 56.3095
259.988 58.3441
260.002 60.4816
260.016 62.7274
260.030 65.1045
260.043 67.5844
260.057 70.1897
260.071 72.9261
260.085 75.8000
260.099 78.8175
260.112 81.9848
260.126 85.3084
260.140 88.8204
260.154 92.4767
260.168 96.3083
260.182 100.322
260.195 104.523
260.209 108.917
260.223 113.511
260.237 118.310
260.251 123.320
260.264 128.544
260.292 139.653
260.320 151.668
260.347 164.606
260.372 177.230
260.397 190.569
260.423 204.653
260.448 219.454
260.473 234.928
260.498 251.019
260.523 267.655
260.548 284.747
260.603 323.491
260.659 362.527
260.714 400.374
260.741 418.234
260.769 435.099
260.810 457.981
260.831 468.188
260.852 477.396
260.872 485.615
260.893 492.695
260.914 498.617
260.934 503.329
260.967 508.255
261.000 509.858
261.013 509.562
261.035 507.931
261.056 504.909
261.078 500.498
261.099 494.781
261.121 487.760
261.142 479.567
261.163 470.248
261.185 459.888
261.216 442.886
261.248 424.202
261.279 404.121
261.311 382.987
261.372 340.329
261.433 297.296
261.477 266.870
261.522 237.940
261.544 224.123
261.566 210.879
261.588 198.120
261.610 185.986
261.641 170.199
261.671 155.541
261.702 142.011
261.732 129.629
261.747 123.802
261.763 118.275
261.778 112.969
261.793 107.945
261.808 103.131
261.824 98.5808
261.839 94.2551
261.854 90.1454
261.869 86.2182
261.884 82.5165
261.900 78.9828
261.915 75.6549
261.930 72.4806
261.945 69.4930
261.961 66.6627
261.976 63.9819
261.991 61.4266
262.006 59.0227
262.022 56.7313
262.037 54.5754
262.052 52.5199
262.067 50.5852
262.098 47.0129
262.123 44.3459
262.148 41.9079
262.173 39.6584
262.198 37.5966
262.223 35.6887
262.247 33.9345
262.272 32.3121
262.297 30.8090
262.322 29.4086
262.347 28.1120
262.372 26.8998
262.397 25.7734
262.422 24.7167
262.447 23.7315
262.472 22.8077
262.497 21.9401
262.527 20.9472
262.558 20.0241
262.588 19.1641
262.619 18.3639
262.649 17.6130
262.680 16.9096
262.710 16.2495
262.741 15.6311
262.771 15.0471
262.802 14.4966
262.832 13.9771
262.862 13.4876
262.923 12.5830
262.984 11.7708
263.051 10.9735
263.117 10.2572
263.184 9.61099
263.250 9.02580
263.317 8.49404
263.383 8.00928
263.450 7.56603
263.516 7.15961
263.577 6.81570
263.638 6.49666
263.699 6.20011
263.760 5.92437
263.821 5.66670
263.882 5.42631
263.943 5.20094
264.004 4.99003
264.065 4.79174
264.126 4.60566
264.187 4.43024
264.248 4.26521
264.309 4.10926
264.370 3.96221
264.492 3.69131
264.614 3.44812
264.735 3.22895
264.857 3.03073
264.979 2.85086
265.101 2.68713
265.223 2.53767
265.345 2.40087
265.467 2.27535
265.578 2.16992
265.689 2.07209
265.799 1.98097
265.910 1.89609
266.021 1.81674
266.132 1.74257
266.243 1.67310
266.354 1.60792
266.464 1.54665
266.575 1.48909
266.686 1.43489
266.797 1.38380
267.019 1.28999
267.240 1.20613
267.362 1.16369
267.484 1.12367
267.728 1.05011
267.972 0.984197
268.215 0.924903
268.459 0.871353
268.703 0.822870
268.947 0.778820
269.191 0.738684
269.379 0.710051
269.568 0.683330
269.756 0.658354
269.944 0.634985
270.133 0.613084
270.321 0.592512
270.698 0.554904
271.075 0.521478
271.452 0.491689
271.828 0.465052
272.205 0.441158
272.449 0.426990
272.693 0.413750
273.181 0.389755
273.668 0.368666
274.156 0.350085
274.644 0.333671
275.131 0.319154
275.619 0.306302
276.106 0.294922
276.505 0.286591
276.904 0.279066
277.303 0.272298
277.702 0.266248
278.101 0.260790
278.500 0.255890
278.899 0.251534
279.298 0.247699
280.096 0.241460
280.894 0.236994
281.692 0.234169
282.490 0.232901
282.956 0.232861
283.421 0.233330
283.887 0.234309
284.352 0.235806
284.817 0.237826
285.283 0.240382
285.748 0.243497
286.214 0.247187
286.679 0.251483
287.145 0.256420
287.610 0.262031
288.076 0.268365
288.541 0.275480
289.007 0.283427
289.472 0.292240
289.938 0.302011
290.337 0.311298
290.736 0.321470
291.135 0.332592
291.534 0.344750
291.933 0.358054
292.332 0.372618
292.731 0.388576
293.129 0.406079
293.617 0.429846
294.105 0.456575
294.592 0.486741
294.836 0.503277
295.080 0.520890
295.324 0.539677
295.568 0.559721
295.812 0.581141
296.055 0.604058
296.299 0.628621
296.543 0.654962
296.787 0.683262
297.031 0.713709
297.319 0.752747
297.607 0.795420
297.895 0.842253
298.183 0.893856
298.471 0.950939
298.760 1.01420
299.048 1.08458
299.336 1.16310
299.580 1.23693
299.824 1.31845
300.067 1.40881
300.189 1.45771
300.311 1.50932
300.433 1.56391
300.555 1.62161
300.677 1.68271
300.799 1.74748
300.921 1.81622
301.043 1.88925
301.165 1.96695
301.286 2.04970
301.442 2.16307
301.597 2.28640
301.752 2.42089
301.907 2.56787
302.062 2.72921
302.217 2.90661
302.295 3.00213
302.373 3.10256
302.450 3.20825
302.528 3.31942
302.650 3.50679
302.772 3.71068
302.894 3.93328
303.015 4.17696
303.137 4.44447
303.259 4.73905
303.320 4.89778
303.381 5.06449
303.442 5.24030
303.503 5.42528
303.561 5.61151
303.619 5.80766
303.678 6.01445
303.736 6.23266
303.794 6.46315
303.852 6.70687
303.910 6.96484
303.969 7.23773
304.027 7.52774
304.085 7.83580
304.143 8.16346
304.201 8.51181
304.259 8.88397
304.318 9.28148
304.376 9.70674
304.434 10.1616
304.495 10.6751
304.556 11.2292
304.617 11.8285
304.678 12.4768
304.739 13.1822
304.800 13.9489
304.861 14.7874
304.922 15.7037
304.983 16.7114
305.044 17.8212
305.105 19.0476
305.135 19.7097
305.166 20.4052
305.196 21.1413
305.227 21.9187
305.257 22.7404
305.287 23.6071
305.318 24.5280
305.348 25.5045
305.379 26.5412
305.409 27.6391
305.440 28.8110
305.470 30.0591
305.501 31.3899
305.531 32.8057
305.562 34.3233
305.592 35.9467
305.623 37.6849
305.653 39.5414
305.684 41.5392
305.714 43.6838
305.745 45.9874
305.775 48.4549
305.806 51.1163
305.836 53.9687
305.866 57.0462
305.897 60.3444
305.927 63.9012
305.958 67.7226
305.988 71.8249
306.019 76.2243
306.049 80.9360
306.080 85.9742
306.110 91.3515
306.141 97.0590
306.171 103.142
306.202 109.587
306.232 116.395
306.263 123.537
306.293 131.051
306.324 138.874
306.354 147.036
306.384 155.456
306.446 173.239
306.508 191.663
306.569 210.231
306.631 228.315
306.671 239.545
306.711 250.076
306.751 259.743
306.791 268.357
306.831 275.744
306.871 281.749
306.911 286.240
306.951 289.119
306.975 290.059
307.000 290.356
307.025 290.005
307.065 288.059
307.105 284.462
307.145 279.294
307.185 272.667
307.225 264.723
307.265 255.628
307.305 245.562
307.345 234.718
307.407 216.826
307.469 198.234
307.531 179.585
307.593 161.422
307.654 144.521
307.684 136.480
307.714 128.781
307.745 121.393
307.775 114.378
307.805 107.696
307.836 101.394
307.874 93.8618
307.913 86.9149
307.952 80.4977
307.990 74.6184
308.029 69.2171
308.068 64.2900
308.106 59.7896
308.145 55.6827
308.175 52.7038
308.205 49.9420
308.236 47.3642
308.266 44.9734
308.297 42.7402
308.327 40.6668
308.357 38.7277
308.388 36.9248
308.418 35.2358
308.448 33.6626
308.479 32.1859
308.509 30.8077
308.539 29.5114
308.570 28.2989
308.600 27.1560
308.630 26.0846
308.661 25.0725
308.691 24.1187
308.722 23.2187
308.752 22.3715
308.813 20.8095
308.873 19.4075
308.934 18.1425
308.995 17.0007
309.055 15.9649
309.116 15.0223
309.163 14.3494
309.210 13.7226
309.257 13.1366
309.304 12.5878
309.351 12.0732
309.398 11.5899
309.445 11.1354
309.491 10.7074
309.538 10.3040
309.585 9.92312
309.632 9.56323
309.679 9.22276
309.773 8.59470
309.867 8.02924
309.927 7.69228
309.988 7.37679
310.049 7.08048
310.110 6.80184
310.170 6.53948
310.231 6.29216
310.292 6.05873
310.352 5.83817
310.474 5.43172
310.595 5.06695
310.717 4.73806
310.838 4.44048
310.960 4.17012
311.081 3.92417
311.202 3.69958
311.324 3.49395
311.445 3.30521
311.567 3.13157
311.688 2.97146
311.809 2.82349
311.931 2.68633
312.052 2.55914
312.174 2.44086
312.295 2.33067
312.417 2.22777
312.538 2.13168
312.659 2.04176
312.781 1.95749
312.902 1.87835
313.024 1.80405
313.145 1.73415
313.266 1.66830
313.388 1.60621
313.509 1.54758
313.631 1.49217
313.752 1.43975
313.995 1.34299
314.238 1.25592
314.481 1.17721
314.723 1.10588
314.966 1.04100
315.209 0.981850
315.452 0.927757
315.695 0.878163
315.882 0.842600
316.070 0.809265
316.258 0.777952
316.445 0.748540
316.633 0.720840
316.821 0.694731
317.196 0.646724
317.571 0.603721
317.947 0.565094
318.322 0.530281
318.697 0.498808
318.940 0.480014
319.183 0.462355
319.426 0.445728
319.668 0.430069
320.154 0.401348
320.640 0.375695
321.126 0.352698
321.611 0.332013
322.097 0.313349
322.583 0.296467
322.914 0.285863
323.245 0.275934
323.576 0.266622
323.907 0.257885
324.569 0.241970
325.232 0.227955
325.894 0.215484
326.556 0.204377
327.219 0.194503
327.881 0.185725
328.411 0.179430
328.675 0.176910
328.808 0.176877
328.874 0.177902
328.940 0.180338
329.007 0.185145
329.040 0.188859
329.073 0.193751
329.106 0.200103
329.139 0.208247
329.172 0.218569
329.205 0.231510
329.238 0.247621
329.272 0.267360
329.305 0.291378
329.338 0.320328
329.371 0.354900
329.404 0.395808
329.437 0.443776
329.454 0.470716
329.470 0.499518
329.487 0.530616
329.503 0.563923
329.520 0.599514
329.536 0.637227
329.553 0.677583
329.570 0.720155
329.586 0.765509
329.603 0.813141
329.619 0.863661
329.636 0.916483
329.652 0.972262
329.669 1.03033
329.685 1.09137
329.702 1.15463
329.719 1.22085
329.735 1.28917
329.768 1.43395
329.801 1.58746
329.834 1.74927
329.868 1.91832
329.901 2.09340
329.934 2.27314
330.000 2.64054
330.000 5.11474
347.500 4.93345
365.000 4.76703
382.500 4.61363
400.000 4.47172
425.000 4.28493
450.000 4.11598
475.000 3.96230
500.000 3.82181
525.000 3.69218
550.000 3.57269
575.000 3.46212
600.000 3.35947
630.000 3.24532
660.000 3.14009
690.000 3.04273
720.000 2.95235
760.000 2.84134
800.000 2.73988
850.000 2.62480
900.000 2.52073
950.000 2.42609
1000.00 2.33959
1062.50 2.24191
1125.00 2.15355
1187.50 2.07317
1250.00 1.99970
1312.50 1.93286
1375.00 1.87122
1437.50 1.81416
1500.00 1.76115
1600.00 1.68451
1700.00 1.61556
1775.00 1.56880
1850.00 1.52524
2000.00 1.44644
2125.00 1.38922
2250.00 1.33735
2375.00 1.29007
2500.00 1.24675
2625.00 1.20807
2750.00 1.17231
2875.00 1.13912
3000.00 1.10823
3250.00 1.05389
3500.00 1.00595
3750.00 0.964491
4000.00 0.927255
4250.00 0.894779
4500.00 0.865202
4750.00 0.838125
5000.00 0.813222
5500.00 0.770916
6000.00 0.734218
6500.00 0.703046
7000.00 0.675367
7500.00 0.651251
8000.00 0.629472
8500.00 0.610227
9000.00 0.592621
9500.00 0.576435
10000.0 0.561488
10625.0 0.544695
11250.0 0.529323
11875.0 0.515181
12500.0 0.502114
13750.0 0.478792
15000.0 0.458447
16000.0 0.443921
17000.0 0.430696
18500.0 0.412622
20000.0 0.396631
21250.0 0.384241
22500.0 0.372915
23750.0 0.362509
25000.0 0.352905
27500.0 0.335289
30000.0 0.319976
32500.0 0.306197
35000.0 0.293969
37500.0 0.282743
40000.0 0.272631
42500.0 0.263321
45000.0 0.254834
47500.0 0.247058
50000.0 0.239901
52500.0 0.233244
55000.0 0.227069
60000.0 0.215954
65000.0 0.206238
70000.0 0.197633
73131.0 0.191956
73345.7 0.191581
73560.3 0.191209
73989.6 0.190469
74848.3 0.189011
75706.9 0.187580
76565.5 0.186176
77424.1 0.184798
78282.8 0.183446
80000.0 0.180813
81250.0 0.178952
82500.0 0.177137
85000.0 0.173643
87500.0 0.170316
90000.0 0.167143
92499.9 0.164114
94999.9 0.161219
97499.9 0.158448
99999.9 0.155793
100000 0.155816
104263 0.151842
108525 0.148123
112788 0.144633
117050 0.141350
117308 0.141169
117565 0.140989
118080 0.140630
119109 0.139920
120139 0.139219
121169 0.138528
123228 0.137173
125288 0.135854
127347 0.134569
129406 0.133316
131466 0.132094
133525 0.130902
137644 0.128604
141763 0.126412
145881 0.124318
150000 0.122316
156190 0.119727
162379 0.117290
162379 0.117290
162867 0.117084
163355 0.116880
164331 0.116474
166283 0.115673
168234 0.114886
170186 0.114114
172138 0.113356
174089 0.112611
177993 0.111161
181896 0.109760
185799 0.108406
189703 0.107097
193606 0.105829
194006 0.105710
194405 0.105591
195205 0.105355
196803 0.104886
198402 0.104424
200000 0.103967
204011 0.102930
208021 0.101923
212032 0.100945
216043 0.0999940
220053 0.0990695
224064 0.0981700
232085 0.0964417
232085 0.0964416
232645 0.0962252
233205 0.0960099
234325 0.0955822
236564 0.0947385
238803 0.0939101
241043 0.0930966
245521 0.0915126
250000 0.0899834
255643 0.0887651
261286 0.0875894
266929 0.0864538
272572 0.0853563
283857 0.0832674
295143 0.0813081
295143 0.0813081
295750 0.0812187
296357 0.0811297
297572 0.0809524
300000 0.0806012
301818 0.0803856
303635 0.0801719
307270 0.0797500
310905 0.0793352
314540 0.0789274
318176 0.0785263
321811 0.0781317
329081 0.0773616
336351 0.0766157
343621 0.0758927
350891 0.0751914
358162 0.0745108
372702 0.0732077
387242 0.0719759
401783 0.0708091
416323 0.0697017
417362 0.0696387
418401 0.0695760
420478 0.0694511
424633 0.0692038
428789 0.0689598
432944 0.0687190
441254 0.0682467
449565 0.0677864
457875 0.0673376
466185 0.0668997
474496 0.0664723
482806 0.0660550
483881 0.0659760
484955 0.0658972
487105 0.0657405
491403 0.0654302
495702 0.0651240
500000 0.0648219
507117 0.0644333
514234 0.0640524
515267 0.0639940
516299 0.0639358
518364 0.0638198
522494 0.0635899
524439 0.0634909
526385 0.0633924
530276 0.0631971
534166 0.0630037
538057 0.0628123
545839 0.0624354
553620 0.0620660
561402 0.0617039
569183 0.0613489
576965 0.0610007
584746 0.0606590
592528 0.0603238
600309 0.0599948
608091 0.0596718
615872 0.0593545
623654 0.0590430
631435 0.0587369
639217 0.0584361
646998 0.0581404
648654 0.0581033
650311 0.0580662
653623 0.0579925
660249 0.0578465
666874 0.0577023
673499 0.0575598
680124 0.0574191
686750 0.0572801
693375 0.0571428
700000 0.0570071
710774 0.0568484
721548 0.0566925
732322 0.0565393
743096 0.0563888
744103 0.0563768
745850 0.0563513
747597 0.0563258
751090 0.0562750
758077 0.0561744
765064 0.0560749
772052 0.0559764
779039 0.0558790
786026 0.0557826
793013 0.0556873
800000 0.0555929
807356 0.0555259
814711 0.0554595
822067 0.0553938
829422 0.0553288
832595 0.0553038
835769 0.0552790
842115 0.0552296
843825 0.0547157
845535 0.0542075
848954 0.0532084
852144 0.0528956
855335 0.0525857
861716 0.0519749
868096 0.0513756
874477 0.0507875
887239 0.0496439
900000 0.0485418
912500 0.0476661
925000 0.0468177
937500 0.0459956
950000 0.0451985
962500 0.0444253
975000 0.0436751
987500 0.0429469
1.00000E+06 0.0422398
1.00781E+06 0.0417995
1.01563E+06 0.0413671
1.02344E+06 0.0409425
1.03125E+06 0.0405254
1.03906E+06 0.0401156
1.04688E+06 0.0397130
1.05469E+06 0.0393174
1.06250E+06 0.0389287
1.07031E+06 0.0385465
1.07813E+06 0.0381709
1.08594E+06 0.0378016
1.09375E+06 0.0374385
1.10156E+06 0.0370813
1.10938E+06 0.0367302
1.11719E+06 0.0363847
1.12500E+06 0.0360449
1.13281E+06 0.0357106
1.14063E+06 0.0353816
1.14844E+06 0.0350579
1.15625E+06 0.0347393
1.16406E+06 0.0344257
1.17188E+06 0.0341171
1.17969E+06 0.0338132
1.18750E+06 0.0335140
1.19531E+06 0.0332194
1.20313E+06 0.0329293
1.21094E+06 0.0326435
1.21875E+06 0.0323621
1.22656E+06 0.0320848
1.23438E+06 0.0318117
1.24219E+06 0.0315426
1.25000E+06 0.0312774
1.25781E+06 0.0310046
1.26563E+06 0.0307358
1.27344E+06 0.0304710
1.28125E+06 0.0302101
1.28906E+06 0.0299529
1.29688E+06 0.0296995
1.30469E+06 0.0294497
1.31250E+06 0.0292035
1.32031E+06 0.0289608
1.32813E+06 0.0287216
1.33594E+06 0.0284857
1.34375E+06 0.0282531
1.35156E+06 0.0280237
1.35938E+06 0.0277975
1.36719E+06 0.0275744
1.37500E+06 0.0273544
1.38281E+06 0.0271373
1.39063E+06 0.0269232
1.39844E+06 0.0267119
1.40625E+06 0.0265035
1.41406E+06 0.0262978
1.42188E+06 0.0260949
1.42969E+06 0.0258946
1.43750E+06 0.0256969
1.44531E+06 0.0255018
1.45313E+06 0.0253092
1.46094E+06 0.0251191
1.46875E+06 0.0249315
1.47656E+06 0.0247462
1.48438E+06 0.0245632
1.49219E+06 0.0243826
1.50000E+06 0.0242042
1.50781E+06 0.0240290
1.51563E+06 0.0238560
1.52344E+06 0.0236851
1.53125E+06 0.0235163
1.53906E+06 0.0233495
1.54688E+06 0.0231848
1.55469E+06 0.0230221
1.56250E+06 0.0228613
1.57031E+06 0.0227024
1.57813E+06 0.0225454
1.58594E+06 0.0223902
1.59375E+06 0.0222369
1.60156E+06 0.0220854
1.60938E+06 0.0219356
1.61719E+06 0.0217876
1.62500E+06 0.0216412
1.63281E+06 0.0214966
1.64063E+06 0.0213536
1.64844E+06 0.0212122
1.65625E+06 0.0210724
1.66406E+06 0.0209342
1.67188E+06 0.0207975
1.67969E+06 0.0206624
1.68750E+06 0.0205288
1.69531E+06 0.0203966
1.70313E+06 0.0202659
1.71094E+06 0.0201366
1.71875E+06 0.0200087
1.72656E+06 0.0198822
1.73438E+06 0.0197571
1.74219E+06 0.0196333
1.75000E+06 0.0195109
1.75781E+06 0.0193790
1.76563E+06 0.0192486
1.77344E+06 0.0191197
1.78125E+06 0.0189922
1.78906E+06 0.0188660
1.79688E+06 0.0187413
1.80469E+06 0.0186179
1.81250E+06 0.0184959
1.82031E+06 0.0183752
1.82813E+06 0.0182557
1.83594E+06 0.0181376
1.84375E+06 0.0180207
1.85156E+06 0.0179051
1.85938E+06 0.0177907
1.86719E+06 0.0176775
1.87500E+06 0.0175655
1.88281E+06 0.0174546
1.89063E+06 0.0173449
1.89844E+06 0.0172364
1.90625E+06 0.0171289
1.91406E+06 0.0170226
1.92188E+06 0.0169174
1.92969E+06 0.0168132
1.93750E+06 0.0167101
1.94531E+06 0.0166080
1.95313E+06 0.0165070
1.96094E+06 0.0164070
1.96875E+06 0.0163080
1.97656E+06 0.0162099
1.98438E+06 0.0161129
1.99219E+06 0.0160168
2.00000E+06 0.0159216
2.00648E+06 0.0158142
2.01295E+06 0.0157079
2.01943E+06 0.0156027
2.02590E+06 0.0154984
2.03238E+06 0.0153952
2.03885E+06 0.0152931
2.04533E+06 0.0151919
2.05180E+06 0.0150917
2.06662E+06 0.0148661
2.08143E+06 0.0146454
2.09625E+06 0.0144295
2.11106E+06 0.0142183
2.12588E+06 0.0140116
2.14069E+06 0.0138094
2.15551E+06 0.0136114
2.17033E+06 0.0134176
2.18514E+06 0.0132279
2.19996E+06 0.0130421
2.21477E+06 0.0128601
2.22959E+06 0.0126818
2.24440E+06 0.0125072
2.25922E+06 0.0123361
2.27404E+06 0.0121684
2.28885E+06 0.0120041
2.30367E+06 0.0118430
2.31848E+06 0.0116852
2.33330E+06 0.0115303
2.34811E+06 0.0113786
2.36293E+06 0.0112297
2.37774E+06 0.0110837
2.39256E+06 0.0109405
2.40738E+06 0.0108000
2.42219E+06 0.0106622
2.43701E+06 0.0105269
2.45182E+06 0.0103942
2.46664E+06 0.0102639
2.48145E+06 0.0101360
2.49627E+06 0.0100105
2.51109E+06 0.00988725
2.52590E+06 0.00976623
2.54072E+06 0.00964738
2.55553E+06 0.00953066
2.57035E+06 0.00941600
2.58516E+06 0.00930339
2.59998E+06 0.00919274
2.61479E+06 0.00908404
2.62961E+06 0.00897721
2.64443E+06 0.00887224
2.65924E+06 0.00876907
2.67406E+06 0.00866766
2.68887E+06 0.00856797
2.70369E+06 0.00846997
2.71850E+06 0.00837362
2.73332E+06 0.00827888
2.74814E+06 0.00818571
2.76295E+06 0.00809409
2.77777E+06 0.00800397
2.79258E+06 0.00791532
2.80740E+06 0.00782812
2.82221E+06 0.00774233
2.83703E+06 0.00765793
2.85184E+06 0.00757488
2.86666E+06 0.00749314
2.88148E+06 0.00741271
2.89629E+06 0.00733355
2.91111E+06 0.00725563
2.92592E+06 0.00717892
2.94074E+06 0.00710341
2.95555E+06 0.00702907
2.97037E+06 0.00695587
2.98519E+06 0.00688379
3.00000E+06 0.00681281
3.01253E+06 0.00673635
3.02507E+06 0.00666106
3.03760E+06 0.00658692
3.05013E+06 0.00651390
3.06267E+06 0.00644199
3.07520E+06 0.00637116
3.08774E+06 0.00630139
3.10027E+06 0.00623267
3.11280E+06 0.00616497
3.12534E+06 0.00609827
3.13787E+06 0.00603255
3.15040E+06 0.00596780
3.16294E+06 0.00590400
3.17547E+06 0.00584113
3.18800E+06 0.00577917
3.20054E+06 0.00571811
3.21307E+06 0.00565793
3.22560E+06 0.00559861
3.23814E+06 0.00554014
3.25067E+06 0.00548251
3.26320E+06 0.00542569
3.27574E+06 0.00536968
3.28827E+06 0.00531445
3.30080E+06 0.00526000
3.31334E+06 0.00520631
3.32587E+06 0.00515336
3.33840E+06 0.00510115
3.35094E+06 0.00504967
3.36347E+06 0.00499889
3.37600E+06 0.00494881
3.38854E+06 0.00489942
3.40107E+06 0.00485070
3.41360E+06 0.00480263
3.42614E+06 0.00475522
3.43867E+06 0.00470844
3.45120E+06 0.00466230
3.46374E+06 0.00461677
3.47627E+06 0.00457185
3.48881E+06 0.00452752
3.50134E+06 0.00448378
3.51387E+06 0.00444062
3.52641E+06 0.00439802
3.53894E+06 0.00435598
3.55147E+06 0.00431449
3.56401E+06 0.00427354
3.57654E+06 0.00423312
3.58907E+06 0.00419322
3.60161E+06 0.00415384
3.61414E+06 0.00411496
3.62667E+06 0.00407657
3.63921E+06 0.00403868
3.65174E+06 0.00400126
3.66427E+06 0.00396432
3.67681E+06 0.00392784
3.68934E+06 0.00389182
3.70187E+06 0.00385626
3.71441E+06 0.00382113
3.72694E+06 0.00378645
3.73947E+06 0.00375219
3.75201E+06 0.00371835
3.76454E+06 0.00368494
3.77707E+06 0.00365193
3.78961E+06 0.00361933
3.80214E+06 0.00358712
3.82687E+06 0.00352470
3.85161E+06 0.00346377
3.87634E+06 0.00340427
3.90107E+06 0.00334616
3.92580E+06 0.00328939
3.95054E+06 0.00323394
3.97527E+06 0.00317976
4.00000E+06 0.00312682
4.01476E+06 0.00309002
4.02951E+06 0.00305378
4.04426E+06 0.00301810
4.05902E+06 0.00298296
4.07377E+06 0.00294836
4.08853E+06 0.00291428
4.10328E+06 0.00288072
4.11804E+06 0.00284766
4.13279E+06 0.00281509
4.14754E+06 0.00278302
4.16230E+06 0.00275142
4.17705E+06 0.00272029
4.19181E+06 0.00268962
4.20656E+06 0.00265940
4.22132E+06 0.00262962
4.23607E+06 0.00260028
4.25083E+06 0.00257137
4.26558E+06 0.00254288
4.28033E+06 0.00251480
4.29509E+06 0.00248712
4.30984E+06 0.00245985
4.32460E+06 0.00243296
4.33935E+06 0.00240646
4.35411E+06 0.00238034
4.36886E+06 0.00235458
4.38361E+06 0.00232919
4.39837E+06 0.00230416
4.41312E+06 0.00227948
4.42788E+06 0.00225514
4.44263E+06 0.00223115
4.45739E+06 0.00220748
4.47214E+06 0.00218415
4.48544E+06 0.00216524
4.49874E+06 0.00214656
4.51203E+06 0.00212808
4.52533E+06 0.00210982
4.54016E+06 0.00208970
4.55500E+06 0.00206984
4.56983E+06 0.00205022
4.58466E+06 0.00203086
4.59950E+06 0.00201174
4.61433E+06 0.00199286
4.62917E+06 0.00197422
4.64400E+06 0.00195581
4.65883E+06 0.00193763
4.67367E+06 0.00191968
4.68850E+06 0.00190195
4.70333E+06 0.00188444
4.71817E+06 0.00186714
4.73300E+06 0.00185006
4.74783E+06 0.00183318
4.76267E+06 0.00181651
4.77750E+06 0.00180005
4.79233E+06 0.00178378
4.80717E+06 0.00176771
4.82200E+06 0.00175184
4.83683E+06 0.00173615
4.85167E+06 0.00172065
4.86650E+06 0.00170534
4.88133E+06 0.00169021
4.89617E+06 0.00167526
4.91100E+06 0.00166048
4.92583E+06 0.00164588
4.94067E+06 0.00163146
4.95550E+06 0.00161720
4.97033E+06 0.00160310
4.98517E+06 0.00158918
5.00000E+06 0.00157541
5.01491E+06 0.00156375
5.02983E+06 0.00155222
5.04474E+06 0.00154080
5.05965E+06 0.00152950
5.07457E+06 0.00151832
5.08948E+06 0.00150725
5.10440E+06 0.00149629
5.11931E+06 0.00148545
5.13422E+06 0.00147471
5.14914E+06 0.00146408
5.16405E+06 0.00145356
5.17896E+06 0.00144315
5.19388E+06 0.00143284
5.20879E+06 0.00142263
5.22370E+06 0.00141252
5.23862E+06 0.00140252
5.25353E+06 0.00139261
5.26844E+06 0.00138280
5.28336E+06 0.00137309
5.29827E+06 0.00136347
5.31318E+06 0.00135395
5.32810E+06 0.00134452
5.34301E+06 0.00133518
5.35792E+06 0.00132593
5.37284E+06 0.00131677
5.38775E+06 0.00130770
5.40266E+06 0.00129872
5.41758E+06 0.00128982
5.43249E+06 0.00128101
5.44740E+06 0.00127229
5.46232E+06 0.00126364
5.47723E+06 0.00125508
5.49320E+06 0.00124848
5.50916E+06 0.00124192
5.52512E+06 0.00123543
5.54109E+06 0.00122898
5.55705E+06 0.00122259
5.57302E+06 0.00121625
5.58898E+06 0.00120996
5.60495E+06 0.00120372
5.62091E+06 0.00119752
5.63687E+06 0.00119138
5.65284E+06 0.00118529
5.66880E+06 0.00117925
5.68477E+06 0.00117325
5.70073E+06 0.00116730
5.71670E+06 0.00116140
5.73266E+06 0.00115554
5.74937E+06 0.00115110
5.76608E+06 0.00114670
5.78279E+06 0.00114232
5.79950E+06 0.00113797
5.81620E+06 0.00113365
5.83291E+06 0.00112936
5.84962E+06 0.00112510
5.86633E+06 0.00112086
5.88304E+06 0.00111666
5.89975E+06 0.00111248
5.91646E+06 0.00110833
5.93317E+06 0.00110420
5.94987E+06 0.00110010
5.96658E+06 0.00109603
5.98329E+06 0.00109199
6.00000E+06 0.00108797
6.00807E+06 0.00108739
6.01615E+06 0.00108680
6.02422E+06 0.00108622
6.03229E+06 0.00108564
6.04036E+06 0.00108506
6.04844E+06 0.00108448
6.05651E+06 0.00108390
6.06458E+06 0.00108333
6.07265E+06 0.00108275
6.08073E+06 0.00108218
6.08880E+06 0.00108160
6.09687E+06 0.00108103
6.10494E+06 0.00108046
6.11302E+06 0.00107989
6.12109E+06 0.00107932
6.12916E+06 0.00107875
6.13465E+06 0.00107837
6.14015E+06 0.00107798
6.14564E+06 0.00107760
6.15113E+06 0.00107721
6.15663E+06 0.00107683
6.16212E+06 0.00107644
6.16762E+06 0.00107606
6.17311E+06 0.00107568
6.17860E+06 0.00107530
6.18410E+06 0.00107491
6.18959E+06 0.00107453
6.19508E+06 0.00107415
6.20058E+06 0.00107377
6.20607E+06 0.00107339
6.21156E+06 0.00107301
6.21706E+06 0.00107263
6.22255E+06 0.00107226
6.22804E+06 0.00107188
6.23354E+06 0.00107150
6.23903E+06 0.00107112
6.24452E+06 0.00107075
6.25002E+06 0.00107037
6.25551E+06 0.00106999
6.26100E+06 0.00106962
6.26650E+06 0.00106924
6.27199E+06 0.00106887
6.27748E+06 0.00106850
6.28298E+06 0.00106812
6.28847E+06 0.00106775
6.29396E+06 0.00106738
6.29946E+06 0.00106701
6.30495E+06 0.00106663
6.31044E+06 0.00106626
6.31594E+06 0.00106589
6.32143E+06 0.00106552
6.32692E+06 0.00106515
6.33242E+06 0.00106478
6.33791E+06 0.00106442
6.34341E+06 0.00106405
6.34890E+06 0.00106368
6.35439E+06 0.00106331
6.35989E+06 0.00106294
6.36538E+06 0.00106258
6.37087E+06 0.00106221
6.37637E+06 0.00106185
6.38186E+06 0.00106148
6.38735E+06 0.00106112
6.39285E+06 0.00106075
6.39834E+06 0.00106039
6.40383E+06 0.00106002
6.40933E+06 0.00105966
6.41482E+06 0.00105930
6.42031E+06 0.00105894
6.42581E+06 0.00105857
6.43130E+06 0.00105821
6.43679E+06 0.00105785
6.44229E+06 0.00105749
6.44778E+06 0.00105713
6.45327E+06 0.00105677
6.45877E+06 0.00105641
6.46426E+06 0.00105605
6.46975E+06 0.00105570
6.47525E+06 0.00105534
6.48074E+06 0.00105498
6.48597E+06 0.00105535
6.49119E+06 0.00105572
6.49642E+06 0.00105609
6.50164E+06 0.00105646
6.50687E+06 0.00105683
6.51209E+06 0.00105719
6.51732E+06 0.00105756
6.52254E+06 0.00105793
6.53000E+06 0.00105846
6.53746E+06 0.00105898
6.54492E+06 0.00105951
6.55238E+06 0.00106003
6.55984E+06 0.00106056
6.56730E+06 0.00106108
6.57476E+06 0.00106160
6.58222E+06 0.00106213
6.58968E+06 0.00106265
6.59714E+06 0.00106317
6.60460E+06 0.00106369
6.61206E+06 0.00106422
6.61953E+06 0.00106474
6.62699E+06 0.00106526
6.63445E+06 0.00106578
6.64191E+06 0.00106630
6.64937E+06 0.00106682
6.65683E+06 0.00106734
6.66429E+06 0.00106786
6.67175E+06 0.00106838
6.67921E+06 0.00106890
6.68667E+06 0.00106942
6.69413E+06 0.00106994
6.70159E+06 0.00107045
6.70905E+06 0.00107097
6.71651E+06 0.00107149
6.72397E+06 0.00107201
6.73143E+06 0.00107252
6.73889E+06 0.00107304
6.74635E+06 0.00107355
6.75381E+06 0.00107407
6.76127E+06 0.00107459
6.76873E+06 0.00107510
6.77619E+06 0.00107562
6.78365E+06 0.00107613
6.79111E+06 0.00107664
6.79857E+06 0.00107716
6.80603E+06 0.00107767
6.81349E+06 0.00107818
6.82095E+06 0.00107870
6.82841E+06 0.00107921
6.83587E+06 0.00107972
6.84333E+06 0.00108023
6.85079E+06 0.00108075
6.85826E+06 0.00108126
6.86572E+06 0.00108177
6.87318E+06 0.00108228
6.88064E+06 0.00108279
6.88810E+06 0.00108330
6.89556E+06 0.00108381
6.90302E+06 0.00108432
6.91048E+06 0.00108483
6.91794E+06 0.00108534
6.92540E+06 0.00108584
6.93286E+06 0.00108635
6.94032E+06 0.00108686
6.94778E+06 0.00108737
6.95524E+06 0.00108787
6.96270E+06 0.00108838
6.97016E+06 0.00108889
6.97762E+06 0.00108939
6.98508E+06 0.00108990
6.99254E+06 0.00109041
7.00000E+06 0.00109091
7.00915E+06 0.00109087
7.01830E+06 0.00109084
7.02745E+06 0.00109080
7.03660E+06 0.00109076
7.04575E+06 0.00109072
7.05490E+06 0.00109069
7.06405E+06 0.00109065
7.07320E+06 0.00109061
7.07961E+06 0.00109059
7.08602E+06 0.00109056
7.09242E+06 0.00109054
7.09883E+06 0.00109051
7.10524E+06 0.00109049
7.11165E+06 0.00109046
7.11806E+06 0.00109043
7.12446E+06 0.00109041
7.13087E+06 0.00109038
7.13728E+06 0.00109036
7.14369E+06 0.00109033
7.15010E+06 0.00109031
7.15650E+06 0.00109028
7.16291E+06 0.00109026
7.16932E+06 0.00109023
7.17573E+06 0.00109020
7.18214E+06 0.00109018
7.18854E+06 0.00109015
7.19495E+06 0.00109013
7.20136E+06 0.00109010
7.20777E+06 0.00109008
7.21418E+06 0.00109005
7.22058E+06 0.00109003
7.22699E+06 0.00109000
7.23340E+06 0.00108998
7.23981E+06 0.00108995
7.24622E+06 0.00108993
7.25262E+06 0.00108990
7.25903E+06 0.00108988
7.26544E+06 0.00108985
7.27185E+06 0.00108983
7.27826E+06 0.00108980
7.28466E+06 0.00108978
7.29107E+06 0.00108975
7.29748E+06 0.00108973
7.30389E+06 0.00108970
7.31030E+06 0.00108968
7.31670E+06 0.00108965
7.32311E+06 0.00108963
7.32952E+06 0.00108960
7.33593E+06 0.00108958
7.34234E+06 0.00108955
7.34874E+06 0.00108953
7.35515E+06 0.00108950
7.36156E+06 0.00108948
7.36797E+06 0.00108945
7.37438E+06 0.00108943
7.38078E+06 0.00108940
7.38719E+06 0.00108938
7.39360E+06 0.00108935
7.40001E+06 0.00108933
7.40642E+06 0.00108930
7.41282E+06 0.00108928
7.41923E+06 0.00108926
7.42564E+06 0.00108923
7.43205E+06 0.00108921
7.43846E+06 0.00108918
7.44486E+06 0.00108916
7.45127E+06 0.00108913
7.45768E+06 0.00108911
7.46409E+06 0.00108908
7.47050E+06 0.00108906
7.47690E+06 0.00108903
7.48331E+06 0.00108901
7.49367E+06 0.00108966
7.50403E+06 0.00109030
7.51439E+06 0.00109094
7.52475E+06 0.00109159
7.53218E+06 0.00109205
7.53960E+06 0.00109251
7.54703E+06 0.00109297
7.55445E+06 0.00109343
7.56188E+06 0.00109389
7.56931E+06 0.00109435
7.57673E+06 0.00109481
7.58416E+06 0.00109527
7.59158E+06 0.00109572
7.59901E+06 0.00109618
7.60644E+06 0.00109664
7.61386E+06 0.00109710
7.62129E+06 0.00109756
7.62871E+06 0.00109801
7.63614E+06 0.00109847
7.64356E+06 0.00109893
7.65099E+06 0.00109939
7.65842E+06 0.00109984
7.66584E+06 0.00110030
7.67327E+06 0.00110075
7.68069E+06 0.00110121
7.68812E+06 0.00110167
7.69554E+06 0.00110212
7.70297E+06 0.00110258
7.71040E+06 0.00110303
7.71782E+06 0.00110348
7.72525E+06 0.00110394
7.73267E+06 0.00110439
7.74010E+06 0.00110485
7.74752E+06 0.00110530
7.75495E+06 0.00110575
7.76238E+06 0.00110621
7.76980E+06 0.00110666
7.77723E+06 0.00110711
7.78465E+06 0.00110756
7.79208E+06 0.00110801
7.79951E+06 0.00110847
7.80693E+06 0.00110892
7.81436E+06 0.00110937
7.82178E+06 0.00110982
7.82921E+06 0.00111027
7.83663E+06 0.00111072
7.84406E+06 0.00111117
7.85149E+06 0.00111162
7.85891E+06 0.00111207
7.86634E+06 0.00111252
7.87376E+06 0.00111297
7.88119E+06 0.00111342
7.88861E+06 0.00111387
7.89604E+06 0.00111432
7.90347E+06 0.00111476
7.91089E+06 0.00111521
7.91832E+06 0.00111566
7.92574E+06 0.00111611
7.93317E+06 0.00111656
7.94059E+06 0.00111700
7.94802E+06 0.00111745
7.95545E+06 0.00111790
7.96287E+06 0.00111834
7.97030E+06 0.00111879
7.97772E+06 0.00111923
7.98515E+06 0.00111968
7.99258E+06 0.00112013
8.00000E+06 0.00112057
8.00758E+06 0.00112006
8.01517E+06 0.00111955
8.02275E+06 0.00111904
8.03033E+06 0.00111853
8.03791E+06 0.00111802
8.04550E+06 0.00111751
8.05308E+06 0.00111700
8.06066E+06 0.00111650
8.06824E+06 0.00111599
8.07583E+06 0.00111548
8.08341E+06 0.00111498
8.09099E+06 0.00111448
8.09857E+06 0.00111397
8.10616E+06 0.00111347
8.11374E+06 0.00111297
8.12132E+06 0.00111247
8.12890E+06 0.00111197
8.13649E+06 0.00111147
8.14407E+06 0.00111097
8.15165E+06 0.00111047
8.15923E+06 0.00110997
8.16682E+06 0.00110947
8.17440E+06 0.00110898
8.18198E+06 0.00110848
8.18956E+06 0.00110799
8.19715E+06 0.00110749
8.20473E+06 0.00110700
8.21231E+06 0.00110650
8.21989E+06 0.00110601
8.22748E+06 0.00110552
8.23506E+06 0.00110503
8.24264E+06 0.00110454
8.25022E+06 0.00110405
8.25781E+06 0.00110356
8.26539E+06 0.00110307
8.27297E+06 0.00110258
8.28055E+06 0.00110210
8.28814E+06 0.00110161
8.29572E+06 0.00110112
8.30330E+06 0.00110064
8.31088E+06 0.00110016
8.31847E+06 0.00109967
8.32605E+06 0.00109919
8.33363E+06 0.00109871
8.34121E+06 0.00109822
8.34880E+06 0.00109774
8.35638E+06 0.00109726
8.36396E+06 0.00109678
8.37154E+06 0.00109630
8.37913E+06 0.00109582
8.38671E+06 0.00109535
8.39429E+06 0.00109487
8.40187E+06 0.00109439
8.40946E+06 0.00109392
8.41704E+06 0.00109344
8.42462E+06 0.00109297
8.43220E+06 0.00109249
8.43979E+06 0.00109202
8.44737E+06 0.00109155
8.45495E+06 0.00109107
8.46253E+06 0.00109060
8.47012E+06 0.00109013
8.47770E+06 0.00108966
8.48528E+06 0.00108919
8.49332E+06 0.00108869
8.50137E+06 0.00108820
8.50941E+06 0.00108770
8.51745E+06 0.00108721
8.52549E+06 0.00108671
8.53354E+06 0.00108622
8.54158E+06 0.00108572
8.54962E+06 0.00108523
8.55766E+06 0.00108474
8.56571E+06 0.00108425
8.57375E+06 0.00108376
8.58179E+06 0.00108327
8.58983E+06 0.00108278
8.59788E+06 0.00108229
8.60592E+06 0.00108180
8.61396E+06 0.00108131
8.62200E+06 0.00108083
8.63005E+06 0.00108034
8.63809E+06 0.00107986
8.64613E+06 0.00107937
8.65417E+06 0.00107889
8.66222E+06 0.00107840
8.67026E+06 0.00107792
8.67830E+06 0.00107744
8.68634E+06 0.00107696
8.69439E+06 0.00107648
8.70243E+06 0.00107600
8.71047E+06 0.00107552
8.71851E+06 0.00107504
8.72656E+06 0.00107456
8.73460E+06 0.00107408
8.74264E+06 0.00107361
8.75068E+06 0.00107313
8.75873E+06 0.00107266
8.76677E+06 0.00107218
8.77481E+06 0.00107171
8.78285E+06 0.00107123
8.79090E+06 0.00107076
8.79894E+06 0.00107029
8.80698E+06 0.00106982
8.81502E+06 0.00106935
8.82307E+06 0.00106888
8.83111E+06 0.00106841
8.83915E+06 0.00106794
8.84719E+06 0.00106747
8.85524E+06 0.00106700
8.86328E+06 0.00106654
8.87132E+06 0.00106607
8.87936E+06 0.00106560
8.88741E+06 0.00106514
8.89545E+06 0.00106467
8.90349E+06 0.00106421
8.91153E+06 0.00106375
8.91958E+06 0.00106328
8.92762E+06 0.00106282
8.93566E+06 0.00106236
8.94370E+06 0.00106190
8.95175E+06 0.00106144
8.95979E+06 0.00106098
8.96783E+06 0.00106052
8.97587E+06 0.00106006
8.98392E+06 0.00105960
8.99196E+06 0.00105915
9.00000E+06 0.00105869
9.00761E+06 0.00105821
9.01521E+06 0.00105773
9.02282E+06 0.00105725
9.03043E+06 0.00105677
9.03803E+06 0.00105629
9.04564E+06 0.00105581
9.05325E+06 0.00105533
9.06085E+06 0.00105485
9.06846E+06 0.00105437
9.07607E+06 0.00105390
9.08368E+06 0.00105342
9.09128E+06 0.00105295
9.09889E+06 0.00105247
9.10650E+06 0.00105200
9.11410E+06 0.00105152
9.12171E+06 0.00105105
9.12932E+06 0.00105058
9.13692E+06 0.00105011
9.14453E+06 0.00104964
9.15214E+06 0.00104917
9.15974E+06 0.00104870
9.16735E+06 0.00104823
9.17496E+06 0.00104776
9.18256E+06 0.00104729
9.19017E+06 0.00104682
9.19778E+06 0.00104636
9.20538E+06 0.00104589
9.21299E+06 0.00104542
9.22060E+06 0.00104496
9.22820E+06 0.00104449
9.23581E+06 0.00104403
9.24342E+06 0.00104357
9.25102E+06 0.00104310
9.25863E+06 0.00104264
9.26624E+06 0.00104218
9.27384E+06 0.00104172
9.28145E+06 0.00104126
9.28906E+06 0.00104080
9.29666E+06 0.00104034
9.30427E+06 0.00103988
9.31188E+06 0.00103942
9.31948E+06 0.00103897
9.32709E+06 0.00103851
9.33470E+06 0.00103805
9.34230E+06 0.00103760
9.34991E+06 0.00103714
9.35752E+06 0.00103669
9.36512E+06 0.00103623
9.37273E+06 0.00103578
9.38034E+06 0.00103533
9.38794E+06 0.00103488
9.39555E+06 0.00103442
9.40316E+06 0.00103397
9.41076E+06 0.00103352
9.41837E+06 0.00103307
9.42598E+06 0.00103262
9.43358E+06 0.00103217
9.44119E+06 0.00103172
9.44880E+06 0.00103128
9.45640E+06 0.00103083
9.46401E+06 0.00103038
9.47162E+06 0.00102994
9.47922E+06 0.00102949
9.48683E+06 0.00102905
9.49485E+06 0.00102858
9.50287E+06 0.00102811
9.51089E+06 0.00102764
9.51890E+06 0.00102717
9.52692E+06 0.00102671
9.53494E+06 0.00102624
9.54296E+06 0.00102578
9.55098E+06 0.00102531
9.55900E+06 0.00102485
9.56701E+06 0.00102439
9.57503E+06 0.00102392
9.58305E+06 0.00102346
9.59107E+06 0.00102300
9.59909E+06 0.00102254
9.60711E+06 0.00102208
9.61512E+06 0.00102162
9.62314E+06 0.00102116
9.63116E+06 0.00102070
9.63918E+06 0.00102025
9.64720E+06 0.00101979
9.65522E+06 0.00101933
9.66323E+06 0.00101888
9.67125E+06 0.00101842
9.67927E+06 0.00101796
9.68729E+06 0.00101751
9.69531E+06 0.00101706
9.70332E+06 0.00101660
9.71134E+06 0.00101615
9.71936E+06 0.00101570
9.72738E+06 0.00101525
9.73540E+06 0.00101480
9.74342E+06 0.00101435
9.75143E+06 0.00101390
9.75945E+06 0.00101345
9.76747E+06 0.00101300
9.77549E+06 0.00101255
9.78351E+06 0.00101210
9.79153E+06 0.00101166
9.79954E+06 0.00101121
9.80756E+06 0.00101076
9.81558E+06 0.00101032
9.82360E+06 0.00100987
9.83162E+06 0.00100943
9.83964E+06 0.00100899
9.84765E+06 0.00100854
9.85567E+06 0.00100810
9.86369E+06 0.00100766
9.87171E+06 0.00100722
9.87973E+06 0.00100678
9.88775E+06 0.00100634
9.89576E+06 0.00100590
9.90378E+06 0.00100546
9.91180E+06 0.00100502
9.91982E+06 0.00100458
9.92784E+06 0.00100414
9.93585E+06 0.00100371
9.94387E+06 0.00100327
9.95189E+06 0.00100283
9.95991E+06 0.00100240
9.96793E+06 0.00100196
9.97595E+06 0.00100153
9.98396E+06 0.00100110
9.99198E+06 0.00100066
1.00000E+07 0.00100023
1.00059E+07 0.00100004
1.00118E+07 0.000999855
1.00177E+07 0.000999667
1.00236E+07 0.000999480
1.00295E+07 0.000999293
1.00354E+07 0.000999106
1.00413E+07 0.000998919
1.00472E+07 0.000998733
1.00532E+07 0.000998546
1.00591E+07 0.000998360
1.00650E+07 0.000998173
1.00709E+07 0.000997987
1.00768E+07 0.000997801
1.00827E+07 0.000997615
1.00886E+07 0.000997430
1.00945E+07 0.000997245
1.01004E+07 0.000997059
1.01063E+07 0.000996874
1.01122E+07 0.000996689
1.01181E+07 0.000996504
1.01240E+07 0.000996319
1.01299E+07 0.000996134
1.01358E+07 0.000995950
1.01417E+07 0.000995766
1.01476E+07 0.000995581
1.01535E+07 0.000995397
1.01594E+07 0.000995213
1.01653E+07 0.000995030
1.01712E+07 0.000994846
1.01771E+07 0.000994662
1.01830E+07 0.000994479
1.01889E+07 0.000994296
1.01948E+07 0.000994113
1.02007E+07 0.000993930
1.02067E+07 0.000993747
1.02126E+07 0.000993564
1.02185E+07 0.000993382
1.02244E+07 0.000993199
1.02303E+07 0.000993017
1.02362E+07 0.000992835
1.02421E+07 0.000992653
1.02480E+07 0.000992471
1.02539E+07 0.000992289
1.02598E+07 0.000992108
1.02657E+07 0.000991926
1.02716E+07 0.000991745
1.02775E+07 0.000991564
1.02834E+07 0.000991383
1.02893E+07 0.000991202
1.02952E+07 0.000991022
1.03011E+07 0.000990841
1.03070E+07 0.000990660
1.03129E+07 0.000990480
1.03188E+07 0.000990300
1.03247E+07 0.000990120
1.03306E+07 0.000989940
1.03365E+07 0.000989760
1.03424E+07 0.000989581
1.03483E+07 0.000989401
1.03542E+07 0.000989222
1.03602E+07 0.000989042
1.03661E+07 0.000988863
1.03720E+07 0.000988684
1.03779E+07 0.000988506
1.03838E+07 0.000988327
1.03897E+07 0.000988148
1.03956E+07 0.000987970
1.04015E+07 0.000987791
1.04074E+07 0.000987613
1.04133E+07 0.000987435
1.04192E+07 0.000987257
1.04251E+07 0.000987079
1.04310E+07 0.000986901
1.04369E+07 0.000986724
1.04428E+07 0.000986546
1.04487E+07 0.000986369
1.04546E+07 0.000986192
1.04605E+07 0.000986015
1.04664E+07 0.000985838
1.04723E+07 0.000985662
1.04782E+07 0.000985485
1.04841E+07 0.000985309
1.04900E+07 0.000985132
1.04959E+07 0.000984956
1.05019E+07 0.000984780
1.05078E+07 0.000984604
1.05137E+07 0.000984428
1.05196E+07 0.000984253
1.05255E+07 0.000984077
1.05314E+07 0.000983902
1.05373E+07 0.000983726
1.05432E+07 0.000983551
1.05491E+07 0.000983376
1.05550E+07 0.000983201
1.05609E+07 0.000983027
1.05668E+07 0.000982852
1.05727E+07 0.000982677
1.05786E+07 0.000982503
1.05845E+07 0.000982329
1.05904E+07 0.000982155
1.05963E+07 0.000981980
1.06022E+07 0.000981807
1.06081E+07 0.000981633
1.06140E+07 0.000981460
1.06199E+07 0.000981286
1.06258E+07 0.000981113
1.06317E+07 0.000980939
1.06376E+07 0.000980766
1.06435E+07 0.000980593
1.06494E+07 0.000980420
1.06553E+07 0.000980248
1.06612E+07 0.000980075
1.06672E+07 0.000979903
1.06731E+07 0.000979730
1.06790E+07 0.000979558
1.06849E+07 0.000979386
1.06908E+07 0.000979214
1.06967E+07 0.000979042
1.07026E+07 0.000978870
1.07085E+07 0.000978699
1.07144E+07 0.000978527
1.07203E+07 0.000978356
1.07262E+07 0.000978185
1.07321E+07 0.000978014
1.07380E+07 0.000977842
1.07439E+07 0.000977672
1.07498E+07 0.000977501
1.07557E+07 0.000977331
1.07633E+07 0.000977110
1.07710E+07 0.000976890
1.07786E+07 0.000976670
1.07862E+07 0.000976450
1.07939E+07 0.000976230
1.08015E+07 0.000976011
1.08092E+07 0.000975792
1.08168E+07 0.000975573
1.08244E+07 0.000975354
1.08321E+07 0.000975135
1.08397E+07 0.000974917
1.08473E+07 0.000974699
1.08550E+07 0.000974480
1.08626E+07 0.000974263
1.08702E+07 0.000974045
1.08779E+07 0.000973828
1.08855E+07 0.000973611
1.08931E+07 0.000973394
1.09008E+07 0.000973177
1.09084E+07 0.000972960
1.09160E+07 0.000972744
1.09237E+07 0.000972528
1.09313E+07 0.000972312
1.09389E+07 0.000972096
1.09466E+07 0.000971880
1.09542E+07 0.000971665
1.09618E+07 0.000971450
1.09695E+07 0.000971235
1.09771E+07 0.000971020
1.09847E+07 0.000970805
1.09924E+07 0.000970591
1.10000E+07 0.000970377
1.10153E+07 0.000970268
1.10306E+07 0.000970159
1.10459E+07 0.000970050
1.10611E+07 0.000969942
1.10764E+07 0.000969833
1.10917E+07 0.000969725
1.11070E+07 0.000969617
1.11223E+07 0.000969509
1.11376E+07 0.000969401
1.11529E+07 0.000969293
1.11681E+07 0.000969186
1.11834E+07 0.000969078
1.11987E+07 0.000968971
1.12140E+07 0.000968864
1.12293E+07 0.000968757
1.12446E+07 0.000968651
1.12598E+07 0.000968544
1.12751E+07 0.000968438
1.12904E+07 0.000968331
1.13057E+07 0.000968225
1.13210E+07 0.000968119
1.13363E+07 0.000968014
1.13516E+07 0.000967908
1.13668E+07 0.000967802
1.13821E+07 0.000967697
1.13974E+07 0.000967592
1.14127E+07 0.000967487
1.14280E+07 0.000967382
1.14433E+07 0.000967277
1.14585E+07 0.000967173
1.14738E+07 0.000967068
1.14891E+07 0.000966964
1.15051E+07 0.000966855
1.15210E+07 0.000966747
1.15370E+07 0.000966638
1.15530E+07 0.000966530
1.15689E+07 0.000966422
1.15849E+07 0.000966314
1.16009E+07 0.000966206
1.16168E+07 0.000966099
1.16328E+07 0.000965991
1.16488E+07 0.000965884
1.16647E+07 0.000965777
1.16807E+07 0.000965670
1.16967E+07 0.000965563
1.17126E+07 0.000965456
1.17286E+07 0.000965350
1.17446E+07 0.000965244
1.17605E+07 0.000965137
1.17765E+07 0.000965031
1.17925E+07 0.000964925
1.18084E+07 0.000964820
1.18244E+07 0.000964714
1.18404E+07 0.000964609
1.18563E+07 0.000964503
1.18723E+07 0.000964398
1.18883E+07 0.000964293
1.19042E+07 0.000964189
1.19202E+07 0.000964084
1.19361E+07 0.000963980
1.19521E+07 0.000963875
1.19681E+07 0.000963771
1.19840E+07 0.000963667
1.20000E+07 0.000963563
1.20153E+07 0.000963744
1.20306E+07 0.000963924
1.20459E+07 0.000964104
1.20613E+07 0.000964285
1.20766E+07 0.000964465
1.20919E+07 0.000964644
1.21072E+07 0.000964824
1.21225E+07 0.000965003
1.21378E+07 0.000965182
1.21531E+07 0.000965361
1.21684E+07 0.000965540
1.21838E+07 0.000965718
1.21991E+07 0.000965897
1.22144E+07 0.000966075
1.22297E+07 0.000966253
1.22450E+07 0.000966430
1.22603E+07 0.000966608
1.22756E+07 0.000966785
1.22909E+07 0.000966963
1.23063E+07 0.000967140
1.23216E+07 0.000967317
1.23369E+07 0.000967493
1.23522E+07 0.000967670
1.23675E+07 0.000967846
1.23828E+07 0.000968022
1.23981E+07 0.000968198
1.24134E+07 0.000968374
1.24288E+07 0.000968549
1.24441E+07 0.000968724
1.24594E+07 0.000968900
1.24747E+07 0.000969075
1.24900E+07 0.000969249
1.25059E+07 0.000969431
1.25219E+07 0.000969613
1.25378E+07 0.000969794
1.25538E+07 0.000969975
1.25697E+07 0.000970156
1.25856E+07 0.000970337
1.26016E+07 0.000970517
1.26175E+07 0.000970698
1.26334E+07 0.000970878
1.26494E+07 0.000971058
1.26653E+07 0.000971238
1.26813E+07 0.000971417
1.26972E+07 0.000971597
1.27131E+07 0.000971776
1.27291E+07 0.000971955
1.27450E+07 0.000972134
1.27609E+07 0.000972312
1.27769E+07 0.000972491
1.27928E+07 0.000972669
1.28088E+07 0.000972847
1.28247E+07 0.000973025
1.28406E+07 0.000973203
1.28566E+07 0.000973380
1.28725E+07 0.000973557
1.28884E+07 0.000973734
1.29044E+07 0.000973911
1.29203E+07 0.000974088
1.29363E+07 0.000974265
1.29522E+07 0.000974441
1.29681E+07 0.000974617
1.29841E+07 0.000974793
1.30000E+07 0.000974969
1.30110E+07 0.000975261
1.30220E+07 0.000975552
1.30330E+07 0.000975843
1.30440E+07 0.000976133
1.30550E+07 0.000976424
1.30660E+07 0.000976715
1.30770E+07 0.000977005
1.30880E+07 0.000977295
1.30990E+07 0.000977585
1.31100E+07 0.000977875
1.31210E+07 0.000978165
1.31320E+07 0.000978454
1.31430E+07 0.000978744
1.31540E+07 0.000979033
1.31650E+07 0.000979322
1.31760E+07 0.000979611
1.31870E+07 0.000979900
1.31980E+07 0.000980188
1.32090E+07 0.000980477
1.32200E+07 0.000980765
1.32310E+07 0.000981053
1.32420E+07 0.000981341
1.32530E+07 0.000981629
1.32640E+07 0.000981916
1.32751E+07 0.000982204
1.32861E+07 0.000982491
1.32971E+07 0.000982779
1.33081E+07 0.000983066
1.33191E+07 0.000983352
1.33301E+07 0.000983639
1.33411E+07 0.000983926
1.33521E+07 0.000984212
1.33631E+07 0.000984499
1.33741E+07 0.000984785
1.33851E+07 0.000985071
1.33961E+07 0.000985356
1.34071E+07 0.000985642
1.34181E+07 0.000985928
1.34291E+07 0.000986213
1.34401E+07 0.000986498
1.34511E+07 0.000986784
1.34621E+07 0.000987069
1.34731E+07 0.000987353
1.34841E+07 0.000987638
1.34951E+07 0.000987922
1.35061E+07 0.000988207
1.35171E+07 0.000988491
1.35281E+07 0.000988775
1.35391E+07 0.000989059
1.35501E+07 0.000989342
1.35611E+07 0.000989626
1.35721E+07 0.000989909
1.35831E+07 0.000990193
1.35941E+07 0.000990476
1.36051E+07 0.000990759
1.36161E+07 0.000991041
1.36271E+07 0.000991324
1.36381E+07 0.000991607
1.36491E+07 0.000991889
1.36601E+07 0.000992171
1.36711E+07 0.000992453
1.36821E+07 0.000992735
1.36931E+07 0.000993017
1.37041E+07 0.000993299
1.37134E+07 0.000993535
1.37226E+07 0.000993772
1.37319E+07 0.000994009
1.37411E+07 0.000994245
1.37503E+07 0.000994481
1.37596E+07 0.000994717
1.37688E+07 0.000994953
1.37781E+07 0.000995189
1.37873E+07 0.000995425
1.37966E+07 0.000995661
1.38058E+07 0.000995896
1.38151E+07 0.000996132
1.38243E+07 0.000996367
1.38336E+07 0.000996602
1.38428E+07 0.000996837
1.38521E+07 0.000997072
1.38613E+07 0.000997307
1.38706E+07 0.000997542
1.38798E+07 0.000997777
1.38890E+07 0.000998012
1.38983E+07 0.000998246
1.39075E+07 0.000998481
1.39168E+07 0.000998715
1.39260E+07 0.000998950
1.39353E+07 0.000999184
1.39445E+07 0.000999418
1.39538E+07 0.000999652
1.39630E+07 0.000999886
1.39723E+07 0.00100012
1.39815E+07 0.00100035
1.39908E+07 0.00100059
1.40000E+07 0.00100082
1.40078E+07 0.00100112
1.40156E+07 0.00100142
1.40234E+07 0.00100171
1.40313E+07 0.00100201
1.40391E+07 0.00100231
1.40469E+07 0.00100261
1.40547E+07 0.00100290
1.40625E+07 0.00100320
1.40703E+07 0.00100350
1.40781E+07 0.00100380
1.40859E+07 0.00100409
1.40938E+07 0.00100439
1.41016E+07 0.00100469
1.41094E+07 0.00100499
1.41172E+07 0.00100528
1.41250E+07 0.00100558
1.41328E+07 0.00100588
1.41406E+07 0.00100617
1.41484E+07 0.00100647
1.41563E+07 0.00100677
1.41641E+07 0.00100706
1.41719E+07 0.00100736
1.41797E+07 0.00100765
1.41875E+07 0.00100795
1.41953E+07 0.00100825
1.42031E+07 0.00100854
1.42109E+07 0.00100884
1.42188E+07 0.00100913
1.42266E+07 0.00100943
1.42344E+07 0.00100973
1.42422E+07 0.00101002
1.42500E+07 0.00101032
1.42578E+07 0.00101061
1.42656E+07 0.00101091
1.42734E+07 0.00101120
1.42813E+07 0.00101150
1.42891E+07 0.00101179
1.42969E+07 0.00101209
1.43047E+07 0.00101238
1.43125E+07 0.00101268
1.43203E+07 0.00101297
1.43281E+07 0.00101327
1.43359E+07 0.00101356
1.43438E+07 0.00101386
1.43516E+07 0.00101415
1.43594E+07 0.00101445
1.43672E+07 0.00101474
1.43750E+07 0.00101504
1.43828E+07 0.00101533
1.43906E+07 0.00101563
1.43984E+07 0.00101592
1.44063E+07 0.00101621
1.44141E+07 0.00101651
1.44219E+07 0.00101680
1.44297E+07 0.00101710
1.44375E+07 0.00101739
1.44453E+07 0.00101768
1.44531E+07 0.00101798
1.44609E+07 0.00101827
1.44688E+07 0.00101856
1.44766E+07 0.00101886
1.44844E+07 0.00101915
1.44922E+07 0.00101944
1.45000E+07 0.00101974
1.45078E+07 0.00102003
1.45156E+07 0.00102032
1.45234E+07 0.00102062
1.45313E+07 0.00102091
1.45391E+07 0.00102120
1.45469E+07 0.00102149
1.45547E+07 0.00102179
1.45625E+07 0.00102208
1.45703E+07 0.00102237
1.45781E+07 0.00102266
1.45859E+07 0.00102296
1.45938E+07 0.00102325
1.46016E+07 0.00102354
1.46094E+07 0.00102383
1.46172E+07 0.00102413
1.46250E+07 0.00102442
1.46328E+07 0.00102471
1.46406E+07 0.00102500
1.46484E+07 0.00102529
1.46563E+07 0.00102559
1.46641E+07 0.00102588
1.46719E+07 0.00102617
1.46797E+07 0.00102646
1.46875E+07 0.00102675
1.46953E+07 0.00102704
1.47031E+07 0.00102733
1.47109E+07 0.00102763
1.47188E+07 0.00102792
1.47266E+07 0.00102821
1.47344E+07 0.00102850
1.47422E+07 0.00102879
1.47500E+07 0.00102908
1.47578E+07 0.00102937
1.47656E+07 0.00102966
1.47734E+07 0.00102995
1.47813E+07 0.00103024
1.47891E+07 0.00103053
1.47969E+07 0.00103082
1.48047E+07 0.00103111
1.48125E+07 0.00103140
1.48203E+07 0.00103170
1.48281E+07 0.00103199
1.48359E+07 0.00103228
1.48438E+07 0.00103257
1.48516E+07 0.00103286
1.48594E+07 0.00103315
1.48672E+07 0.00103343
1.48750E+07 0.00103372
1.48828E+07 0.00103401
1.48906E+07 0.00103430
1.48984E+07 0.00103459
1.49063E+07 0.00103488
1.49141E+07 0.00103517
1.49219E+07 0.00103546
1.49297E+07 0.00103575
1.49375E+07 0.00103604
1.49453E+07 0.00103633
1.49531E+07 0.00103662
1.49609E+07 0.00103691
1.49688E+07 0.00103720
1.49766E+07 0.00103748
1.49844E+07 0.00103777
1.49922E+07 0.00103806
1.50000E+07 0.00103835
1.50077E+07 0.00103872
1.50154E+07 0.00103909
1.50231E+07 0.00103946
1.50308E+07 0.00103983
1.50384E+07 0.00104020
1.50461E+07 0.00104057
1.50538E+07 0.00104094
1.50615E+07 0.00104130
1.50692E+07 0.00104167
1.50769E+07 0.00104204
1.50846E+07 0.00104241
1.50922E+07 0.00104278
1.50999E+07 0.00104315
1.51076E+07 0.00104352
1.51153E+07 0.00104389
1.51230E+07 0.00104425
1.51307E+07 0.00104462
1.51384E+07 0.00104499
1.51461E+07 0.00104536
1.51537E+07 0.00104573
1.51614E+07 0.00104610
1.51691E+07 0.00104646
1.51768E+07 0.00104683
1.51845E+07 0.00104720
1.51922E+07 0.00104757
1.51998E+07 0.00104794
1.52075E+07 0.00104830
1.52152E+07 0.00104867
1.52229E+07 0.00104904
1.52306E+07 0.00104941
1.52383E+07 0.00104978
1.52460E+07 0.00105014
1.52536E+07 0.00105051
1.52613E+07 0.00105088
1.52690E+07 0.00105125
1.52767E+07 0.00105161
1.52844E+07 0.00105198
1.52921E+07 0.00105235
1.52998E+07 0.00105272
1.53074E+07 0.00105308
1.53151E+07 0.00105345
1.53228E+07 0.00105382
1.53305E+07 0.00105418
1.53382E+07 0.00105455
1.53459E+07 0.00105492
1.53536E+07 0.00105528
1.53613E+07 0.00105565
1.53689E+07 0.00105602
1.53766E+07 0.00105638
1.53843E+07 0.00105675
1.53997E+07 0.00105748
1.54151E+07 0.00105822
1.54304E+07 0.00105895
1.54458E+07 0.00105968
1.54612E+07 0.00106041
1.54765E+07 0.00106115
1.54919E+07 0.00106188
1.54998E+07 0.00106226
1.55078E+07 0.00106263
1.55157E+07 0.00106301
1.55237E+07 0.00106339
1.55316E+07 0.00106377
1.55395E+07 0.00106414
1.55475E+07 0.00106452
1.55554E+07 0.00106490
1.55634E+07 0.00106528
1.55713E+07 0.00106565
1.55792E+07 0.00106603
1.55872E+07 0.00106641
1.55951E+07 0.00106679
1.56031E+07 0.00106716
1.56110E+07 0.00106754
1.56189E+07 0.00106792
1.56269E+07 0.00106829
1.56348E+07 0.00106867
1.56428E+07 0.00106905
1.56507E+07 0.00106942
1.56586E+07 0.00106980
1.56666E+07 0.00107018
1.56745E+07 0.00107055
1.56824E+07 0.00107093
1.56904E+07 0.00107131
1.56983E+07 0.00107168
1.57063E+07 0.00107206
1.57142E+07 0.00107243
1.57221E+07 0.00107281
1.57301E+07 0.00107319
1.57380E+07 0.00107356
1.57460E+07 0.00107394
1.57539E+07 0.00107431
1.57618E+07 0.00107469
1.57698E+07 0.00107507
1.57777E+07 0.00107544
1.57857E+07 0.00107582
1.57936E+07 0.00107619
1.58015E+07 0.00107657
1.58095E+07 0.00107694
1.58174E+07 0.00107732
1.58254E+07 0.00107770
1.58333E+07 0.00107807
1.58412E+07 0.00107845
1.58492E+07 0.00107882
1.58571E+07 0.00107920
1.58651E+07 0.00107957
1.58730E+07 0.00107995
1.58809E+07 0.00108032
1.58889E+07 0.00108070
1.59047E+07 0.00108145
1.59206E+07 0.00108220
1.59365E+07 0.00108295
1.59524E+07 0.00108369
1.59683E+07 0.00108444
1.59841E+07 0.00108519
1.60000E+07 0.00108594
1.60119E+07 0.00108661
1.60237E+07 0.00108728
1.60355E+07 0.00108796
1.60474E+07 0.00108863
1.60592E+07 0.00108930
1.60711E+07 0.00108997
1.60829E+07 0.00109064
1.60947E+07 0.00109131
1.61066E+07 0.00109198
1.61184E+07 0.00109265
1.61303E+07 0.00109332
1.61421E+07 0.00109399
1.61540E+07 0.00109467
1.61658E+07 0.00109534
1.61776E+07 0.00109601
1.61895E+07 0.00109668
1.62013E+07 0.00109735
1.62132E+07 0.00109802
1.62250E+07 0.00109869
1.62369E+07 0.00109936
1.62487E+07 0.00110003
1.62605E+07 0.00110070
1.62724E+07 0.00110137
1.62842E+07 0.00110204
1.62961E+07 0.00110271
1.63079E+07 0.00110338
1.63198E+07 0.00110405
1.63316E+07 0.00110471
1.63434E+07 0.00110538
1.63553E+07 0.00110605
1.63671E+07 0.00110672
1.63790E+07 0.00110739
1.63908E+07 0.00110806
1.64026E+07 0.00110873
1.64145E+07 0.00110940
1.64263E+07 0.00111007
1.64382E+07 0.00111074
1.64500E+07 0.00111140
1.64619E+07 0.00111207
1.64737E+07 0.00111274
1.64855E+07 0.00111341
1.64974E+07 0.00111408
1.65092E+07 0.00111475
1.65211E+07 0.00111541
1.65329E+07 0.00111608
1.65448E+07 0.00111675
1.65566E+07 0.00111742
1.65684E+07 0.00111809
1.65803E+07 0.00111875
1.65921E+07 0.00111942
1.66040E+07 0.00112009
1.66158E+07 0.00112076
1.66277E+07 0.00112142
1.66395E+07 0.00112209
1.66513E+07 0.00112276
1.66632E+07 0.00112343
1.66750E+07 0.00112409
1.66869E+07 0.00112476
1.66987E+07 0.00112543
1.67105E+07 0.00112609
1.67224E+07 0.00112676
1.67342E+07 0.00112743
1.67461E+07 0.00112809
1.67579E+07 0.00112876
1.67730E+07 0.00112961
1.67882E+07 0.00113046
1.68033E+07 0.00113131
1.68184E+07 0.00113217
1.68336E+07 0.00113302
1.68487E+07 0.00113387
1.68638E+07 0.00113472
1.68790E+07 0.00113557
1.68941E+07 0.00113642
1.69092E+07 0.00113727
1.69244E+07 0.00113812
1.69395E+07 0.00113897
1.69546E+07 0.00113982
1.69697E+07 0.00114067
1.69849E+07 0.00114152
1.70000E+07 0.00114237
1.70156E+07 0.00114338
1.70313E+07 0.00114438
1.70469E+07 0.00114539
1.70625E+07 0.00114639
1.70781E+07 0.00114740
1.70938E+07 0.00114840
1.71094E+07 0.00114941
1.71250E+07 0.00115041
1.71406E+07 0.00115142
1.71563E+07 0.00115242
1.71719E+07 0.00115343
1.71875E+07 0.00115443
1.72031E+07 0.00115544
1.72188E+07 0.00115644
1.72344E+07 0.00115745
1.72500E+07 0.00115845
1.72656E+07 0.00115946
1.72813E+07 0.00116046
1.72969E+07 0.00116146
1.73125E+07 0.00116247
1.73281E+07 0.00116347
1.73438E+07 0.00116448
1.73594E+07 0.00116548
1.73750E+07 0.00116649
1.73906E+07 0.00116749
1.74063E+07 0.00116850
1.74219E+07 0.00116950
1.74375E+07 0.00117050
1.74531E+07 0.00117151
1.74688E+07 0.00117251
1.74844E+07 0.00117352
1.75000E+07 0.00117452
1.75156E+07 0.00117552
1.75313E+07 0.00117653
1.75469E+07 0.00117753
1.75625E+07 0.00117854
1.75781E+07 0.00117954
1.75938E+07 0.00118054
1.76094E+07 0.00118155
1.76250E+07 0.00118255
1.76406E+07 0.00118356
1.76563E+07 0.00118456
1.76719E+07 0.00118556
1.76875E+07 0.00118657
1.77031E+07 0.00118757
1.77188E+07 0.00118857
1.77344E+07 0.00118958
1.77500E+07 0.00119058
1.77656E+07 0.00119158
1.77813E+07 0.00119259
1.77969E+07 0.00119359
1.78125E+07 0.00119459
1.78281E+07 0.00119560
1.78438E+07 0.00119660
1.78594E+07 0.00119760
1.78750E+07 0.00119861
1.78906E+07 0.00119961
1.79063E+07 0.00120061
1.79219E+07 0.00120162
1.79375E+07 0.00120262
1.79531E+07 0.00120362
1.79688E+07 0.00120462
1.79844E+07 0.00120563
1.80000E+07 0.00120663
1.80156E+07 0.00120775
1.80313E+07 0.00120887
1.80469E+07 0.00120999
1.80625E+07 0.00121110
1.80781E+07 0.00121222
1.80938E+07 0.00121334
1.81094E+07 0.00121446
1.81250E+07 0.00121558
1.81406E+07 0.00121670
1.81563E+07 0.00121782
1.81719E+07 0.00121894
1.81875E+07 0.00122005
1.82031E+07 0.00122117
1.82188E+07 0.00122229
1.82344E+07 0.00122341
1.82500E+07 0.00122453
1.82656E+07 0.00122565
1.82813E+07 0.00122677
1.82969E+07 0.00122789
1.83125E+07 0.00122901
1.83281E+07 0.00123013
1.83438E+07 0.00123125
1.83594E+07 0.00123237
1.83750E+07 0.00123349
1.83906E+07 0.00123461
1.84063E+07 0.00123573
1.84219E+07 0.00123685
1.84375E+07 0.00123797
1.84531E+07 0.00123909
1.84688E+07 0.00124021
1.84844E+07 0.00124133
1.85000E+07 0.00124245
1.85156E+07 0.00124357
1.85313E+07 0.00124469
1.85469E+07 0.00124581
1.85625E+07 0.00124693
1.85781E+07 0.00124805
1.85938E+07 0.00124917
1.86094E+07 0.00125029
1.86250E+07 0.00125141
1.86406E+07 0.00125253
1.86563E+07 0.00125365
1.86719E+07 0.00125478
1.86875E+07 0.00125590
1.87031E+07 0.00125702
1.87188E+07 0.00125814
1.87344E+07 0.00125926
1.87500E+07 0.00126038
1.87656E+07 0.00126150
1.87813E+07 0.00126262
1.87969E+07 0.00126375
1.88125E+07 0.00126487
1.88281E+07 0.00126599
1.88438E+07 0.00126711
1.88594E+07 0.00126823
1.88750E+07 0.00126935
1.88906E+07 0.00127048
1.89063E+07 0.00127160
1.89219E+07 0.00127272
1.89375E+07 0.00127384
1.89531E+07 0.00127496
1.89688E+07 0.00127609
1.89844E+07 0.00127721
1.90000E+07 0.00127833
1.90156E+07 0.00127956
1.90313E+07 0.00128078
1.90469E+07 0.00128200
1.90625E+07 0.00128323
1.90781E+07 0.00128445
1.90938E+07 0.00128568
1.91094E+07 0.00128691
1.91250E+07 0.00128813
1.91406E+07 0.00128936
1.91563E+07 0.00129058
1.91719E+07 0.00129181
1.91875E+07 0.00129303
1.92031E+07 0.00129426
1.92188E+07 0.00129549
1.92344E+07 0.00129671
1.92500E+07 0.00129794
1.92656E+07 0.00129917
1.92813E+07 0.00130039
1.92969E+07 0.00130162
1.93125E+07 0.00130285
1.93281E+07 0.00130408
1.93438E+07 0.00130531
1.93594E+07 0.00130653
1.93750E+07 0.00130776
1.93906E+07 0.00130899
1.94063E+07 0.00131022
1.94219E+07 0.00131145
1.94375E+07 0.00131268
1.94531E+07 0.00131390
1.94688E+07 0.00131513
1.94844E+07 0.00131636
1.95000E+07 0.00131759
1.95156E+07 0.00131882
1.95313E+07 0.00132005
1.95469E+07 0.00132128
1.95625E+07 0.00132251
1.95781E+07 0.00132374
1.95938E+07 0.00132497
1.96094E+07 0.00132620
1.96250E+07 0.00132743
1.96406E+07 0.00132867
1.96563E+07 0.00132990
1.96719E+07 0.00133113
1.96875E+07 0.00133236
1.97031E+07 0.00133359
1.97188E+07 0.00133482
1.97344E+07 0.00133605
1.97500E+07 0.00133729
1.97656E+07 0.00133852
1.97813E+07 0.00133975
1.97969E+07 0.00134098
1.98125E+07 0.00134222
1.98281E+07 0.00134345
1.98438E+07 0.00134468
1.98594E+07 0.00134592
1.98750E+07 0.00134715
1.98906E+07 0.00134838
1.99063E+07 0.00134962
1.99219E+07 0.00135085
1.99375E+07 0.00135208
1.99531E+07 0.00135332
1.99688E+07 0.00135455
1.99844E+07 0.00135579
2.00000E+07 0.00135702
