Ce-136(n,g) ENDFB-8.0
Energy(eV) XS(b)
1.00000E-05 375.090
1.03125E-05 369.364
1.06250E-05 363.891
1.09375E-05 358.655
1.12500E-05 353.639
1.15625E-05 348.827
1.18750E-05 344.207
1.21875E-05 339.765
1.25000E-05 335.491
1.28125E-05 331.374
1.31250E-05 327.406
1.34375E-05 323.576
1.37500E-05 319.878
1.43750E-05 312.847
1.50000E-05 306.260
1.56250E-05 300.072
1.62500E-05 294.245
1.68750E-05 288.745
1.75000E-05 283.542
1.81250E-05 278.610
1.87500E-05 273.927
1.93750E-05 269.473
2.00000E-05 265.229
2.09375E-05 259.223
2.18750E-05 253.607
2.28125E-05 248.342
2.37500E-05 243.391
2.46875E-05 238.725
2.56250E-05 234.317
2.65625E-05 230.145
2.75000E-05 226.188
2.84375E-05 222.428
2.93750E-05 218.850
3.03125E-05 215.439
3.12500E-05 212.183
3.21875E-05 209.070
3.31250E-05 206.091
3.40625E-05 203.235
3.50000E-05 200.494
3.59375E-05 197.862
3.68750E-05 195.330
3.78125E-05 192.894
3.87500E-05 190.546
3.96875E-05 188.282
4.06250E-05 186.097
4.25000E-05 181.946
4.43750E-05 178.060
4.62500E-05 174.413
4.81250E-05 170.982
5.00000E-05 167.745
5.15625E-05 165.184
5.31250E-05 162.737
5.46875E-05 160.395
5.62500E-05 158.152
5.78125E-05 156.000
5.93750E-05 153.934
6.09375E-05 151.947
6.25000E-05 150.036
6.40625E-05 148.195
6.56250E-05 146.420
6.71875E-05 144.708
6.87500E-05 143.054
7.18750E-05 139.909
7.50000E-05 136.964
7.81250E-05 134.196
8.12500E-05 131.590
8.43750E-05 129.130
8.75000E-05 126.804
9.06250E-05 124.598
9.37500E-05 122.504
9.68750E-05 120.512
0.000100000 118.614
0.000103125 116.803
0.000106250 115.072
0.000109375 113.417
0.000112500 111.830
0.000115625 110.309
0.000118750 108.848
0.000121875 107.443
0.000125000 106.091
0.000128125 104.790
0.000131250 103.535
0.000134375 102.324
0.000137500 101.154
0.000143750 98.9308
0.000150000 96.8478
0.000156250 94.8910
0.000162500 93.0483
0.000168750 91.3089
0.000175000 89.6636
0.000181250 88.1041
0.000187500 86.6232
0.000193750 85.2146
0.000200000 83.8726
0.000209375 81.9733
0.000218750 80.1975
0.000228125 78.5323
0.000237500 76.9667
0.000246875 75.4912
0.000256250 74.0974
0.000265625 72.7780
0.000275000 71.5267
0.000284375 70.3378
0.000293750 69.2063
0.000303125 68.1277
0.000312500 67.0980
0.000321875 66.1136
0.000331250 65.1713
0.000340625 64.2682
0.000350000 63.4016
0.000359375 62.5692
0.000368750 61.7687
0.000378125 60.9981
0.000387500 60.2557
0.000396875 59.5398
0.000406250 58.8488
0.000425000 57.5360
0.000443750 56.3073
0.000462500 55.1541
0.000481250 54.0690
0.000500000 53.0455
0.000515625 52.2356
0.000531250 51.4617
0.000546875 50.7212
0.000562500 50.0118
0.000578125 49.3313
0.000593750 48.6779
0.000609375 48.0498
0.000625000 47.4453
0.000640625 46.8632
0.000656250 46.3019
0.000671875 45.7603
0.000687500 45.2374
0.000718750 44.2430
0.000750000 43.3115
0.000781250 42.4364
0.000812500 41.6123
0.000843750 40.8344
0.000875000 40.0986
0.000906250 39.4012
0.000937500 38.7389
0.000968750 38.1090
0.00100000 37.5088
0.00103125 36.9361
0.00106250 36.3889
0.00109375 35.8653
0.00112500 35.3637
0.00115625 34.8825
0.00118750 34.4205
0.00121875 33.9763
0.00125000 33.5489
0.00128125 33.1373
0.00131250 32.7404
0.00134375 32.3574
0.00137500 31.9876
0.00143750 31.2845
0.00150000 30.6258
0.00156250 30.0070
0.00162500 29.4243
0.00168750 28.8743
0.00175000 28.3540
0.00181250 27.8608
0.00187500 27.3925
0.00193750 26.9470
0.00200000 26.5226
0.00209375 25.9220
0.00218750 25.3604
0.00228125 24.8338
0.00237500 24.3387
0.00246875 23.8721
0.00256250 23.4313
0.00265625 23.0141
0.00275000 22.6184
0.00284375 22.2424
0.00293750 21.8845
0.00303125 21.5434
0.00312500 21.2178
0.00321875 20.9065
0.00331250 20.6085
0.00340625 20.3229
0.00350000 20.0488
0.00359375 19.7856
0.00368750 19.5324
0.00378125 19.2888
0.00387500 19.0540
0.00396875 18.8276
0.00406250 18.6091
0.00425000 18.1939
0.00443750 17.8053
0.00462500 17.4407
0.00481250 17.0975
0.00500000 16.7738
0.00515625 16.5177
0.00531250 16.2730
0.00546875 16.0388
0.00562500 15.8145
0.00578125 15.5993
0.00593750 15.3926
0.00609375 15.1940
0.00625000 15.0029
0.00640625 14.8188
0.00656250 14.6413
0.00671875 14.4700
0.00687500 14.3046
0.00718750 13.9902
0.00750000 13.6956
0.00781250 13.4189
0.00812500 13.1582
0.00843750 12.9122
0.00875000 12.6795
0.00906250 12.4589
0.00937500 12.2495
0.00968750 12.0502
0.0100000 11.8604
0.0103125 11.6793
0.0106250 11.5062
0.0109375 11.3406
0.0112500 11.1819
0.0115625 11.0298
0.0118750 10.8837
0.0121875 10.7432
0.0125000 10.6081
0.0128125 10.4779
0.0131250 10.3524
0.0134375 10.2313
0.0137500 10.1144
0.0143750 9.89204
0.0150000 9.68374
0.0156250 9.48806
0.0162500 9.30376
0.0168750 9.12979
0.0175000 8.96521
0.0181250 8.80921
0.0187500 8.66108
0.0193750 8.52018
0.0200000 8.38593
0.0206625 8.25033
0.0213250 8.12110
0.0219875 7.99776
0.0226500 7.87987
0.0233125 7.76704
0.0239750 7.65893
0.0246375 7.55521
0.0253000 7.45559
0.0264578 7.29056
0.0276156 7.13604
0.0287734 6.99095
0.0299313 6.85437
0.0310891 6.72552
0.0322469 6.60367
0.0334047 6.48821
0.0345625 6.37860
0.0355274 6.29137
0.0364922 6.20761
0.0374570 6.12709
0.0384219 6.04962
0.0393867 5.97501
0.0403516 5.90308
0.0413164 5.83369
0.0422813 5.76668
0.0442109 5.63931
0.0461406 5.52001
0.0480703 5.40797
0.0500000 5.30248
0.0515625 5.22144
0.0531250 5.14401
0.0546875 5.06991
0.0562500 4.99893
0.0578125 4.93085
0.0593750 4.86547
0.0609375 4.80264
0.0625000 4.74218
0.0640625 4.68396
0.0656250 4.62783
0.0671875 4.57369
0.0687500 4.52140
0.0718750 4.42197
0.0750000 4.32880
0.0781250 4.24123
0.0812500 4.15875
0.0843750 4.08089
0.0875000 4.00723
0.0906250 3.93742
0.0937500 3.87113
0.0968750 3.80807
0.100000 3.74800
0.103125 3.69067
0.106250 3.63589
0.109375 3.58348
0.112500 3.53326
0.115625 3.48510
0.118750 3.43885
0.121875 3.39439
0.125000 3.35161
0.128125 3.31042
0.131250 3.27072
0.134375 3.23242
0.137500 3.19544
0.143750 3.12513
0.150000 3.05920
0.156250 2.99723
0.162500 2.93887
0.168750 2.88378
0.175000 2.83166
0.181250 2.78227
0.187500 2.73537
0.193750 2.69079
0.200000 2.64832
0.209375 2.58822
0.218750 2.53197
0.228125 2.47920
0.237500 2.42958
0.246875 2.38282
0.256250 2.33865
0.265625 2.29683
0.275000 2.25717
0.284375 2.21948
0.293750 2.18362
0.303125 2.14943
0.312500 2.11678
0.321875 2.08558
0.331250 2.05570
0.340625 2.02707
0.350000 1.99959
0.359375 1.97319
0.368750 1.94781
0.378125 1.92337
0.387500 1.89984
0.396875 1.87716
0.406250 1.85529
0.425000 1.81372
0.443750 1.77473
0.462500 1.73813
0.500000 1.67131
0.531250 1.62112
0.562500 1.57506
0.593750 1.53267
0.625000 1.49349
0.687500 1.42330
0.750000 1.36206
0.812500 1.30802
0.875000 1.25998
0.937500 1.21681
1.00000 1.17762
1.06250 1.14193
1.12500 1.10924
1.18750 1.07917
1.25000 1.05137
1.37500 1.00156
1.50000 0.958085
1.62500 0.919711
1.75000 0.885574
1.87500 0.854893
2.00000 0.827030
2.18750 0.789800
2.37500 0.757078
2.56250 0.728001
2.75000 0.701980
2.93750 0.678481
3.12500 0.657081
3.31250 0.637520
3.50000 0.619550
3.68750 0.602966
3.87500 0.587599
4.25000 0.559976
4.62500 0.535790
5.00000 0.514406
5.31250 0.498356
5.62500 0.483658
5.93750 0.470150
6.25000 0.457683
6.87500 0.435396
7.50000 0.416025
8.12500 0.399007
8.75000 0.383938
9.37500 0.370483
10.0000 0.358379
10.6250 0.347445
11.2500 0.337523
11.8750 0.328485
12.5000 0.320224
13.7500 0.305698
15.0000 0.293398
16.2500 0.282928
17.5000 0.274005
18.7500 0.266403
20.0000 0.259941
20.9375 0.255774
21.8750 0.252147
23.7500 0.246367
25.6250 0.242404
27.5000 0.240157
29.3750 0.239583
30.7813 0.240384
32.1875 0.242127
33.5938 0.244688
35.0000 0.248540
35.9375 0.251836
36.8750 0.255750
37.8125 0.260338
38.7500 0.265669
39.6875 0.271826
40.6250 0.278909
41.5625 0.287037
42.5000 0.296355
43.4375 0.307038
44.3750 0.319303
45.3125 0.333413
46.2500 0.349698
47.1875 0.368520
47.6563 0.379033
48.1250 0.390437
48.5938 0.402779
49.0625 0.416160
49.5313 0.430692
50.0000 0.446515
50.6016 0.468960
51.2032 0.494149
51.8049 0.522509
52.4065 0.554579
53.0081 0.591071
53.3089 0.611330
53.6097 0.632880
53.9105 0.656077
54.2113 0.680726
54.5121 0.707517
54.8129 0.736440
55.1613 0.772869
55.5096 0.812840
55.8579 0.856832
56.2062 0.905402
56.5545 0.959213
56.9028 1.01905
57.2511 1.08585
57.5994 1.16075
57.9002 1.23300
58.2010 1.31337
58.5018 1.40313
58.6522 1.45200
58.8026 1.50382
58.9530 1.55883
59.1034 1.61729
59.2538 1.67950
59.4042 1.74576
59.5547 1.81628
59.7051 1.89149
59.8555 1.97216
60.0059 2.05880
60.1404 2.14178
60.2750 2.23033
60.4096 2.32499
60.5441 2.42631
60.6787 2.53489
60.7460 2.59211
60.8133 2.65144
60.8806 2.71299
60.9479 2.77688
61.0152 2.84324
61.0824 2.91217
61.1339 2.96671
61.1853 3.02289
61.2368 3.08080
61.2883 3.14049
61.3397 3.20205
61.3912 3.26555
61.4426 3.33108
61.4941 3.39872
61.5337 3.45224
61.5732 3.50711
61.6128 3.56338
61.6524 3.62108
61.6920 3.68028
61.7316 3.74101
61.7711 3.80335
61.8107 3.86733
61.8345 3.90655
61.8582 3.94637
61.8820 3.98686
61.9057 4.02799
61.9334 4.07685
61.9611 4.12664
61.9888 4.17740
62.0165 4.22913
62.0482 4.28952
62.0799 4.35125
62.1115 4.41440
62.1432 4.47898
62.1749 4.54507
62.2065 4.61268
62.2382 4.68188
62.2698 4.75271
62.3134 4.85290
62.3569 4.95642
62.4005 5.06344
62.4440 5.17411
62.4717 5.24652
62.4994 5.32050
62.5271 5.39615
62.5548 5.47345
62.5825 5.55252
62.6102 5.63336
62.6379 5.71607
62.6656 5.80065
62.6874 5.86850
62.7092 5.93758
62.7309 6.00794
62.7527 6.07960
62.7745 6.15260
62.7963 6.22696
62.8180 6.30272
62.8398 6.37993
62.8616 6.45861
62.8833 6.53880
62.9051 6.62054
62.9269 6.70388
62.9486 6.78886
62.9704 6.87551
62.9922 6.96389
63.0139 7.05399
63.0575 7.23978
63.1010 7.43325
63.1446 7.63482
63.1881 7.84491
63.2316 8.06410
63.2752 8.29289
63.3187 8.53183
63.3622 8.78150
63.4058 9.04266
63.4493 9.31597
63.4929 9.60219
63.5364 9.90217
63.5799 10.2168
63.6235 10.5471
63.6670 10.8940
63.7106 11.2587
63.7541 11.6425
63.7976 12.0468
63.8412 12.4730
63.8847 12.9227
63.9282 13.3978
63.9718 13.9002
64.0153 14.4320
64.0589 14.9955
64.1024 15.5935
64.1459 16.2288
64.1895 16.9046
64.2330 17.6243
64.2766 18.3919
64.3201 19.2119
64.3636 20.0891
64.4072 21.0288
64.4507 22.0375
64.4942 23.1221
64.5378 24.2905
64.5813 25.5512
64.6031 26.2196
64.6249 26.9151
64.6466 27.6391
64.6684 28.3934
64.6902 29.1795
64.7119 29.9995
64.7337 30.8551
64.7555 31.7483
64.7772 32.6820
64.7990 33.6584
64.8208 34.6801
64.8425 35.7501
64.8643 36.8713
64.8861 38.0474
64.9079 39.2818
64.9296 40.5786
64.9514 41.9421
64.9732 43.3771
64.9949 44.8887
65.0167 46.4825
65.0385 48.1649
65.0602 49.9425
65.0820 51.8229
65.1038 53.8134
65.1354 56.9275
65.1671 60.3270
65.1829 62.1466
65.1988 64.0511
65.2146 66.0473
65.2304 68.1414
65.2463 70.3415
65.2621 72.6521
65.2779 75.0827
65.2938 77.6419
65.3096 80.3394
65.3254 83.1858
65.3413 86.1926
65.3571 89.3728
65.3789 94.0557
65.4006 99.1356
65.4224 104.661
65.4442 110.689
65.4659 117.287
65.4877 124.534
65.4986 128.431
65.5095 132.524
65.5204 136.835
65.5312 141.372
65.5421 146.162
65.5530 151.215
65.5639 156.563
65.5748 162.220
65.5857 168.224
65.5966 174.593
65.6074 181.366
65.6183 188.579
65.6292 196.280
65.6401 204.500
65.6510 213.305
65.6619 222.735
65.6727 232.869
65.6836 243.757
65.6945 255.484
65.7054 268.133
65.7153 280.524
65.7252 293.832
65.7351 308.141
65.7450 323.524
65.7549 340.112
65.7648 357.976
65.7747 377.265
65.7846 398.063
65.7945 420.543
65.8043 444.796
65.8142 471.018
65.8241 499.310
65.8340 529.891
65.8439 562.866
65.8538 598.475
65.8637 636.824
65.8746 682.476
65.8855 731.903
65.8964 785.437
65.9073 843.215
65.9181 905.567
65.9290 972.588
65.9399 1044.52
65.9508 1121.54
65.9617 1203.85
65.9726 1291.39
65.9834 1384.38
65.9943 1482.65
66.0052 1586.32
66.0161 1695.08
66.0270 1808.96
66.0379 1927.47
66.0488 2050.50
66.0596 2177.41
66.0814 2441.24
66.1249 2989.50
66.1487 3284.67
66.1724 3563.94
66.1950 3804.60
66.2062 3913.04
66.2175 4012.01
66.2354 4147.47
66.2533 4253.17
66.2711 4326.37
66.2801 4350.08
66.2890 4364.96
66.3000 4371.04
66.3089 4365.97
66.3179 4351.97
66.3268 4329.14
66.3358 4297.67
66.3536 4209.59
66.3715 4090.26
66.3838 3991.24
66.3962 3880.14
66.4085 3758.24
66.4208 3626.98
66.4434 3367.45
66.4660 3090.95
66.5091 2548.35
66.5306 2283.60
66.5521 2030.59
66.5634 1904.08
66.5747 1782.47
66.5860 1665.90
66.5973 1554.85
66.6086 1449.30
66.6198 1349.55
66.6311 1255.53
66.6424 1167.24
66.6537 1084.50
66.6650 1007.36
66.6763 935.499
66.6875 868.854
66.6988 807.081
66.7101 750.050
66.7214 697.447
66.7327 649.011
66.7440 604.437
66.7552 563.539
66.7665 526.016
66.7778 491.614
66.7891 460.060
66.8004 431.179
66.8117 404.718
66.8229 380.470
66.8342 358.221
66.8455 337.829
66.8568 319.108
66.8681 301.902
66.8794 286.058
66.8906 271.474
66.9019 258.019
66.9132 245.587
66.9245 234.071
66.9358 223.405
66.9471 213.493
66.9583 204.281
66.9696 195.690
66.9809 187.679
66.9922 180.187
67.0035 173.171
67.0148 166.584
67.0260 160.399
67.0373 154.574
67.0486 149.089
67.0712 139.015
67.0937 129.997
67.1112 123.650
67.1286 117.783
67.1461 112.347
67.1635 107.297
67.1809 102.597
67.1984 98.2117
67.2158 94.1138
67.2332 90.2792
67.2507 86.6809
67.2681 83.3009
67.2856 80.1213
67.3030 77.1276
67.3204 74.3020
67.3379 71.6331
67.3727 66.7212
67.3953 63.8127
67.4179 61.0946
67.4405 58.5501
67.4630 56.1656
67.4856 53.9256
67.5082 51.8194
67.5307 49.8364
67.5533 47.9678
67.5759 46.2033
67.5984 44.5360
67.6436 41.4655
67.6887 38.7062
67.7338 36.2170
67.7790 33.9628
67.8241 31.9157
67.8692 30.0504
67.9143 28.3459
67.9595 26.7837
68.0046 25.3491
68.0497 24.0280
68.0949 22.8086
68.1400 21.6805
68.1851 20.6350
68.2303 19.6637
68.2754 18.7600
68.3206 17.9174
68.3657 17.1309
68.4108 16.3954
68.4559 15.7066
68.5011 15.0605
68.5462 14.4539
68.5913 13.8836
68.6365 13.3467
68.6816 12.8405
68.7267 12.3630
68.7719 11.9119
68.8170 11.4853
68.9073 10.6987
68.9975 9.99102
69.0878 9.35208
69.1781 8.77330
69.2683 8.24724
69.3586 7.76778
69.4489 7.32948
69.5391 6.92785
69.6048 6.65647
69.6704 6.40104
69.7361 6.16038
69.8017 5.93338
69.8674 5.71906
69.9330 5.51644
70.0643 5.14288
70.1956 4.80652
70.3269 4.50264
70.4582 4.22730
70.5895 3.97716
70.6798 3.81822
70.7700 3.66893
70.8603 3.52852
70.9506 3.39631
71.0408 3.27167
71.1311 3.15402
71.3116 2.93776
71.4922 2.74391
71.6727 2.56952
71.8533 2.41206
72.0338 2.26943
72.2471 2.11754
72.4605 1.98137
72.6739 1.85883
72.8872 1.74820
73.1006 1.64812
73.3139 1.55740
73.5273 1.47452
73.7406 1.39863
73.9212 1.33941
74.1017 1.28434
74.2822 1.23304
74.4628 1.18519
74.6433 1.14048
74.8238 1.09865
75.0044 1.05947
75.1849 1.02271
75.3654 0.988190
75.5460 0.955735
75.9070 0.896400
76.2681 0.843611
76.6292 0.796469
76.8425 0.770955
77.0559 0.747012
77.4826 0.703372
77.9093 0.664707
78.3360 0.630327
78.7627 0.599669
79.1895 0.572466
79.6162 0.547812
80.0429 0.525639
80.4040 0.508634
80.7650 0.493020
81.1261 0.478669
81.4872 0.465520
81.8482 0.453426
82.2093 0.442277
82.9314 0.422619
83.6536 0.405936
84.3757 0.391830
85.0978 0.379929
85.8199 0.369928
86.5421 0.361619
87.2642 0.354801
87.9863 0.349500
88.7085 0.345106
89.4306 0.341814
90.1527 0.339666
90.8749 0.338331
91.5970 0.337818
92.6474 0.338628
93.6978 0.341068
94.7481 0.345071
95.7985 0.350604
96.8489 0.357663
97.8993 0.366272
98.9496 0.376483
100.000 0.388379
101.104 0.402817
102.208 0.419394
103.312 0.438321
104.416 0.459853
105.520 0.484246
106.072 0.497623
106.624 0.511937
107.177 0.527196
107.729 0.543463
108.281 0.560817
108.833 0.579303
109.160 0.590858
109.488 0.602910
109.816 0.615453
110.144 0.628509
110.472 0.642103
110.635 0.649110
110.799 0.656260
110.963 0.663554
111.127 0.670999
111.291 0.678602
111.455 0.686365
111.645 0.695569
111.834 0.704996
112.024 0.714662
112.214 0.724566
112.404 0.734725
112.593 0.745137
112.688 0.750445
112.783 0.755820
112.878 0.761264
112.973 0.766773
113.107 0.774662
113.240 0.782696
113.374 0.790877
113.508 0.799208
113.641 0.807693
113.775 0.816336
113.842 0.820721
113.909 0.825142
113.976 0.829610
114.042 0.834114
114.111 0.838812
114.146 0.841178
114.180 0.843555
114.215 0.845944
114.249 0.848345
114.284 0.850758
114.318 0.853182
114.336 0.854403
114.368 0.856696
114.400 0.858993
114.433 0.861308
114.465 0.863627
114.498 0.865963
114.530 0.868304
114.594 0.873017
114.648 0.876990
114.702 0.880988
114.756 0.885016
114.810 0.889077
114.918 0.897295
115.026 0.905643
115.134 0.914125
115.241 0.922741
115.349 0.931496
115.457 0.940391
115.604 0.952728
115.677 0.958994
115.750 0.965331
115.824 0.971747
115.897 0.978226
115.970 0.984777
116.044 0.991402
116.117 0.998111
116.190 1.00489
116.264 1.01174
116.337 1.01867
116.410 1.02568
116.483 1.03277
116.557 1.03994
116.630 1.04720
116.759 1.06022
116.889 1.07352
117.018 1.08709
117.148 1.10094
117.277 1.11509
117.406 1.12955
117.536 1.14431
117.665 1.15938
117.760 1.17065
117.855 1.18210
117.950 1.19373
118.045 1.20555
118.140 1.21757
118.234 1.22978
118.329 1.24219
118.424 1.25479
118.519 1.26762
118.614 1.28066
118.709 1.29392
118.804 1.30740
118.994 1.33506
119.183 1.36366
119.373 1.39328
119.563 1.42395
119.753 1.45572
119.942 1.48862
120.132 1.52275
120.322 1.55812
120.512 1.59485
120.701 1.63295
120.891 1.67255
121.081 1.71369
121.271 1.75646
121.460 1.80092
121.650 1.84721
121.840 1.89538
122.030 1.94559
122.219 1.99790
122.409 2.05249
122.599 2.10942
122.789 2.16890
122.978 2.23102
123.168 2.29600
123.358 2.36396
123.548 2.43514
123.737 2.50968
123.927 2.58788
124.117 2.66994
124.307 2.75611
124.497 2.84663
124.686 2.94190
124.876 3.04214
125.066 3.14783
125.256 3.25924
125.445 3.37693
125.635 3.50131
125.825 3.63289
126.015 3.77217
126.204 3.91993
126.394 4.07670
126.584 4.24339
126.774 4.42070
126.963 4.60973
127.153 4.81143
127.343 5.02699
127.533 5.25755
127.723 5.50483
127.912 5.77019
128.102 6.05576
128.292 6.36330
128.482 6.69551
128.671 7.05490
128.861 7.44452
129.051 7.86764
129.146 8.09319
129.241 8.32873
129.336 8.57485
129.430 8.83192
129.525 9.10118
129.620 9.38312
129.715 9.67854
129.810 9.98798
129.905 10.3131
130.000 10.6545
130.095 11.0133
130.189 11.3908
130.284 11.7883
130.379 12.2072
130.474 12.6491
130.569 13.1152
130.664 13.6083
130.759 14.1301
130.854 14.6827
130.948 15.2679
131.043 15.8897
131.138 16.5504
131.233 17.2533
131.328 18.0014
131.423 18.8005
131.518 19.6548
131.613 20.5695
131.707 21.5494
131.802 22.6028
131.897 23.7362
131.992 24.9577
132.087 26.2753
132.182 27.7023
132.277 29.2497
132.372 30.9313
132.466 32.7612
132.561 34.7616
132.656 36.9521
132.751 39.3577
132.846 42.0045
132.893 43.4327
132.941 44.9323
132.988 46.5146
133.036 48.1789
133.083 49.9383
133.131 51.7923
133.178 53.7562
133.226 55.8299
133.273 58.0311
133.320 60.3605
133.368 62.8388
133.415 65.4675
133.463 68.2712
133.510 71.2527
133.558 74.4343
133.605 77.8343
133.661 82.1688
133.717 86.8767
133.773 92.0024
133.829 97.5865
133.885 103.708
133.941 110.413
133.998 117.805
134.054 125.951
134.101 133.542
134.148 141.821
134.196 150.913
134.243 160.883
134.291 171.893
134.338 184.038
134.362 190.594
134.386 197.503
134.409 204.789
134.433 212.481
134.457 220.642
134.481 229.236
134.504 238.330
134.528 247.963
134.552 258.220
134.575 269.058
134.599 280.567
134.623 292.799
134.647 305.868
134.670 319.722
134.694 334.481
134.718 350.215
134.741 366.997
134.765 384.908
134.789 404.030
134.813 424.454
134.845 454.647
134.877 487.585
134.910 523.724
134.942 563.093
134.974 606.185
135.007 652.961
135.039 703.909
135.071 758.863
135.095 802.067
135.119 847.385
135.143 894.968
135.166 944.759
135.190 996.662
135.214 1050.54
135.261 1163.43
135.400 1511.25
135.434 1595.12
135.469 1674.07
135.504 1746.70
135.538 1810.77
135.559 1843.79
135.579 1872.90
135.599 1898.00
135.619 1918.82
135.639 1935.24
135.660 1946.93
135.680 1953.85
135.700 1955.95
135.719 1953.54
135.738 1946.94
135.756 1936.23
135.775 1921.48
135.813 1880.46
135.850 1825.29
135.888 1757.80
135.926 1680.14
135.963 1594.60
136.001 1503.81
136.123 1196.12
136.154 1121.50
136.184 1049.35
136.215 980.164
136.245 914.547
136.276 853.110
136.306 795.517
136.336 741.438
136.366 691.209
136.396 644.413
136.426 601.231
136.456 561.343
136.486 524.563
136.517 490.586
136.547 459.434
136.577 430.785
136.607 404.441
136.637 380.135
136.667 357.845
136.697 337.318
136.727 318.399
136.758 300.887
136.788 284.766
136.818 269.807
136.848 255.999
136.878 243.152
136.908 231.262
136.938 220.202
136.969 209.902
136.999 200.264
137.029 191.294
137.059 182.904
137.089 175.049
137.119 167.659
137.149 160.745
137.179 154.246
137.210 148.131
137.240 142.351
137.270 136.918
137.300 131.789
137.330 126.941
137.390 117.997
137.451 109.975
137.511 102.731
137.571 96.1874
137.631 90.2393
137.692 84.8341
137.733 81.4178
137.774 78.2035
137.815 75.1759
137.856 72.3206
137.897 69.6249
137.938 67.0772
138.020 62.3890
138.102 58.1702
138.185 54.3685
138.267 50.9225
138.349 47.7962
138.409 45.6792
138.469 43.6992
138.530 41.8448
138.590 40.1084
138.650 38.4749
138.710 36.9415
138.771 35.4955
138.831 34.1347
138.891 32.8485
138.951 31.6354
139.012 30.4863
139.072 29.4003
139.192 27.3935
139.313 25.5849
139.433 23.9493
139.554 22.4653
139.674 21.1147
139.795 19.8821
139.915 18.7542
140.036 17.7194
140.156 16.7681
140.277 15.8916
140.387 15.1529
140.496 14.4647
140.606 13.8222
140.715 13.2217
140.825 12.6585
140.934 12.1307
141.044 11.6345
141.153 11.1684
141.263 10.7293
141.373 10.3159
141.482 9.92548
141.592 9.55710
141.701 9.20848
141.811 8.87884
142.030 8.27010
142.150 7.96131
142.271 7.66968
142.512 7.13238
142.753 6.64948
142.994 6.21389
143.235 5.81946
143.476 5.46148
143.717 5.13547
143.958 4.83772
144.122 4.64919
144.287 4.47155
144.451 4.30388
144.615 4.14545
144.780 3.99556
144.944 3.85385
145.273 3.59267
145.601 3.35678
145.930 3.14295
146.259 2.94879
146.587 2.77213
146.828 2.65241
147.069 2.54033
147.310 2.43521
147.551 2.33649
147.792 2.24362
148.033 2.15622
148.274 2.07384
148.515 1.99610
148.757 1.92264
148.998 1.85319
149.480 1.72517
149.962 1.61002
150.444 1.50609
150.926 1.41195
151.408 1.32644
151.890 1.24854
152.372 1.17738
152.854 1.11219
153.336 1.05235
153.818 0.997282
154.300 0.946503
154.738 0.903723
155.176 0.864115
155.614 0.826894
156.053 0.792073
156.491 0.759389
156.929 0.728815
157.367 0.700107
157.805 0.673092
158.244 0.647732
158.682 0.623811
159.120 0.601269
159.558 0.580027
159.997 0.559923
160.435 0.540952
161.311 0.505990
161.793 0.488338
162.275 0.471687
163.239 0.441141
164.203 0.413904
165.167 0.389612
166.132 0.367918
167.096 0.348617
168.060 0.331514
169.024 0.316490
169.593 0.308579
170.163 0.301391
170.733 0.294941
171.302 0.289265
171.872 0.284428
172.442 0.280528
173.012 0.277684
173.581 0.276007
173.976 0.275791
174.370 0.276459
174.764 0.278186
175.159 0.281215
175.553 0.285885
175.750 0.288964
175.947 0.292626
176.145 0.296970
176.342 0.302133
176.539 0.308261
176.736 0.315518
176.922 0.323606
177.109 0.333116
177.295 0.344346
177.481 0.357646
177.667 0.373500
177.761 0.382568
177.854 0.392528
177.947 0.403508
178.040 0.415619
178.133 0.429031
178.226 0.443924
178.336 0.463652
178.445 0.486163
178.555 0.511990
178.610 0.526350
178.664 0.541774
178.719 0.558432
178.774 0.576425
178.829 0.595900
178.884 0.616987
178.938 0.639956
178.993 0.664997
179.048 0.692370
179.103 0.722325
179.163 0.758822
179.223 0.799447
179.283 0.845025
179.344 0.896247
179.404 0.954327
179.434 0.986252
179.464 1.02038
179.494 1.05707
179.524 1.09632
179.555 1.13854
179.585 1.18407
179.609 1.22417
179.634 1.26684
179.659 1.31270
179.683 1.36172
179.708 1.41469
179.733 1.47162
179.757 1.53354
179.782 1.60057
179.807 1.67404
179.831 1.75429
179.856 1.84310
179.880 1.94115
179.905 2.05090
179.930 2.17355
179.954 2.31263
179.967 2.38878
179.979 2.47010
179.994 2.57771
180.009 2.69488
180.024 2.82273
180.039 2.96158
180.054 3.11473
180.069 3.28173
180.085 3.46659
180.100 3.66885
180.115 3.89340
180.130 4.13970
180.145 4.41371
180.160 4.71473
180.175 5.05002
180.190 5.41861
180.205 5.82924
180.220 6.28054
180.234 6.73423
180.247 7.23117
180.261 7.77512
180.275 8.36999
180.288 9.01991
180.302 9.72916
180.316 10.5022
180.330 11.3435
180.343 12.2578
180.357 13.2498
180.371 14.3241
180.384 15.4855
180.398 16.7387
180.412 18.0880
180.425 19.5377
180.439 21.0919
180.454 22.9304
180.469 24.9046
180.484 27.0182
180.499 29.2585
180.515 31.6571
180.530 34.1829
180.545 36.8690
180.560 39.6780
180.575 42.6438
180.590 45.7433
180.605 48.9699
180.620 52.2925
180.635 55.7454
180.650 59.2713
180.665 62.9033
180.680 66.5783
180.699 71.3526
180.719 76.1697
180.738 80.9867
180.757 85.7332
180.787 93.0052
180.817 99.8514
180.844 105.548
180.872 110.586
180.877 111.490
180.892 113.845
180.907 115.934
180.924 117.880
180.939 119.357
180.957 120.727
180.982 121.826
181.000 122.046
181.014 121.886
181.029 121.424
181.047 120.374
181.066 118.838
181.082 117.165
181.098 115.170
181.115 112.637
181.132 109.785
181.148 106.898
181.164 103.780
181.195 96.9621
181.227 89.5299
181.259 81.7572
181.302 70.9632
181.345 60.3961
181.376 53.0304
181.392 49.5146
181.408 46.1267
181.424 42.8765
181.440 39.7717
181.455 36.8182
181.471 34.0196
181.487 31.3621
181.503 28.8793
181.519 26.5533
181.534 24.3817
181.550 22.3611
181.566 20.4871
181.582 18.7545
181.598 17.1575
181.613 15.7520
181.628 14.4585
181.643 13.2710
181.658 12.1833
181.673 11.1889
181.688 10.2817
181.703 9.45558
181.718 8.70921
181.733 8.02687
181.749 7.40822
181.764 6.84792
181.779 6.34093
181.794 5.88252
181.809 5.46822
181.824 5.09391
181.839 4.75786
181.849 4.54993
181.859 4.35559
181.869 4.17392
181.879 4.00566
181.889 3.84664
181.899 3.69925
181.910 3.55981
181.920 3.43043
181.930 3.30789
181.940 3.19294
181.950 3.08501
181.960 2.98459
181.980 2.80024
182.000 2.63654
182.022 2.48034
182.043 2.34222
182.065 2.21833
182.086 2.10769
182.108 2.00746
182.129 1.91706
182.151 1.83440
182.172 1.75917
182.194 1.68979
182.216 1.62615
182.237 1.56702
182.259 1.51241
182.280 1.46137
182.302 1.41396
182.323 1.36942
182.345 1.32787
182.377 1.27114
182.408 1.21938
182.440 1.17183
182.471 1.12803
182.503 1.08744
182.535 1.05000
182.566 1.01526
182.598 0.982972
182.630 0.952818
182.661 0.924792
182.724 0.874152
182.788 0.829781
182.851 0.790746
182.900 0.763721
182.948 0.739192
182.997 0.716810
183.046 0.696450
183.095 0.677844
183.144 0.660903
183.193 0.645419
183.242 0.631330
183.339 0.606802
183.437 0.586608
183.535 0.570206
183.632 0.557183
183.724 0.547732
183.816 0.540820
183.908 0.536303
184.000 0.534111
184.063 0.533933
184.127 0.534839
184.190 0.536848
184.253 0.539977
184.316 0.544271
184.380 0.549767
184.443 0.556530
184.506 0.564636
184.569 0.574195
184.633 0.585288
184.696 0.598062
184.759 0.612675
184.822 0.629345
184.885 0.648247
184.949 0.669674
185.012 0.693952
185.075 0.721514
185.138 0.752744
185.202 0.788254
185.265 0.828743
185.328 0.875075
185.360 0.900760
185.391 0.928334
185.423 0.957979
185.454 0.989901
185.486 1.02434
185.518 1.06157
185.543 1.09438
185.569 1.12947
185.595 1.16708
185.621 1.20731
185.647 1.25078
185.673 1.29769
185.699 1.34846
185.725 1.40337
185.750 1.46345
185.776 1.52922
185.802 1.60154
185.828 1.68116
185.854 1.77000
185.880 1.86898
185.906 1.98083
185.931 2.10713
185.947 2.19363
185.963 2.28709
185.979 2.38896
185.995 2.50027
186.011 2.62220
186.026 2.75607
186.042 2.90336
186.058 3.06576
186.074 3.24513
186.090 3.44356
186.105 3.66339
186.121 3.90719
186.137 4.17780
186.153 4.47837
186.169 4.81233
186.184 5.18341
186.199 5.55739
186.213 5.96888
186.228 6.42142
186.242 6.91516
186.256 7.46093
186.271 8.05962
186.285 8.71558
186.299 9.42813
186.314 10.2119
186.328 11.0669
186.343 11.9979
186.357 13.0027
186.371 14.1000
186.386 15.2794
186.400 16.5620
186.414 17.9345
186.430 19.5810
186.446 21.3480
186.462 23.2497
186.478 25.2898
186.493 27.4712
186.509 29.7955
186.525 32.2633
186.541 34.8738
186.557 37.6246
186.572 40.5120
186.588 43.5305
186.604 46.6727
186.620 49.9296
186.636 53.2900
186.651 56.7412
186.667 60.2684
186.687 64.8618
186.707 69.4902
186.728 74.1338
186.748 78.7465
186.779 85.8177
186.811 92.4920
186.841 98.3132
186.871 103.416
186.880 104.715
186.895 106.813
186.910 108.665
186.926 110.323
186.942 111.672
186.961 112.904
186.975 113.506
186.989 113.836
187.000 113.905
187.014 113.759
187.029 113.341
187.048 112.362
187.067 110.926
187.084 109.221
187.101 107.175
187.119 104.789
187.136 102.097
187.166 96.8031
187.196 90.8628
187.231 83.3659
187.266 75.4982
187.301 67.4734
187.335 59.5716
187.370 51.9483
187.388 48.3016
187.405 44.8069
187.422 41.4370
187.440 38.2230
187.457 35.1729
187.474 32.3081
187.492 29.5986
187.509 27.0625
187.527 24.6989
187.544 22.5050
187.561 20.4769
187.570 19.5233
187.579 18.6090
187.587 17.7333
187.596 16.8952
187.605 16.0937
187.613 15.3366
187.628 14.1525
187.642 13.0650
187.656 12.0610
187.670 11.1358
187.685 10.2791
187.699 9.49819
187.713 8.78220
187.727 8.12670
187.742 7.52331
187.756 6.97627
187.770 6.47717
187.784 6.02219
187.798 5.60771
187.813 5.23034
187.827 4.88686
187.841 4.57428
187.850 4.39684
187.858 4.22934
187.867 4.07122
187.876 3.92193
187.884 3.78095
187.893 3.64779
187.911 3.40306
187.928 3.18429
187.945 2.98841
187.963 2.81267
187.980 2.65550
187.997 2.51297
188.015 2.38412
188.032 2.26731
188.050 2.16168
188.067 2.06474
188.084 1.97603
188.102 1.89458
188.119 1.81999
188.144 1.72089
188.170 1.63200
188.195 1.55179
188.220 1.47929
188.245 1.41288
188.271 1.35203
188.296 1.29604
188.321 1.24452
188.347 1.19657
188.372 1.15200
188.397 1.11046
188.422 1.07178
188.448 1.03542
188.473 1.00129
188.523 0.939117
188.558 0.900326
188.593 0.864436
188.628 0.831146
188.663 0.800281
188.697 0.771439
188.732 0.744588
188.767 0.719401
188.802 0.695869
188.871 0.652962
188.941 0.614946
189.010 0.581079
189.080 0.550761
189.136 0.528231
189.193 0.507518
189.250 0.488423
189.307 0.470777
189.364 0.454431
189.421 0.439255
189.478 0.425135
189.535 0.411993
189.648 0.388189
189.762 0.367298
189.876 0.348817
189.990 0.332404
190.084 0.320066
190.179 0.308798
190.274 0.298473
190.369 0.288987
190.464 0.280247
190.558 0.272173
190.653 0.264696
190.748 0.257753
190.938 0.245257
191.127 0.234328
191.317 0.224700
191.506 0.216163
191.683 0.209031
191.860 0.202594
192.037 0.196750
192.214 0.191428
192.391 0.186556
192.568 0.182084
192.922 0.174163
193.276 0.167369
193.630 0.161440
193.984 0.156213
194.338 0.151578
194.692 0.147437
195.045 0.143710
195.399 0.140335
195.753 0.137270
196.461 0.131918
197.169 0.127289
197.877 0.123279
198.584 0.119766
199.292 0.116657
200.000 0.113891
201.373 0.109302
202.745 0.105508
204.118 0.102359
205.490 0.0997538
206.862 0.0976065
208.235 0.0958877
209.607 0.0945682
210.980 0.0936364
211.978 0.0932134
212.976 0.0930137
214.099 0.0930778
215.222 0.0934829
216.345 0.0942810
217.468 0.0955479
218.591 0.0973960
219.152 0.0985857
219.714 0.0999871
220.275 0.101603
220.837 0.103547
221.398 0.105846
221.960 0.108569
222.427 0.111232
222.895 0.114327
223.363 0.117945
223.831 0.122186
224.299 0.127202
224.533 0.130081
224.767 0.133244
225.001 0.136729
225.235 0.140576
225.469 0.144839
225.703 0.149581
225.952 0.155254
226.202 0.161666
226.451 0.168955
226.701 0.177279
226.950 0.186850
227.075 0.192188
227.200 0.197946
227.325 0.204181
227.449 0.210935
227.574 0.218279
227.699 0.226272
227.871 0.238488
228.042 0.252346
228.128 0.259986
228.214 0.268160
228.300 0.276918
228.385 0.286308
228.471 0.296416
228.557 0.307305
228.643 0.319058
228.728 0.331755
228.814 0.345533
228.900 0.360505
228.986 0.376816
229.071 0.394614
229.157 0.414137
229.243 0.435597
229.329 0.459266
229.415 0.485431
229.500 0.514535
229.586 0.547005
229.672 0.583393
229.715 0.603260
229.758 0.624319
229.799 0.645752
229.840 0.668467
229.881 0.692692
229.921 0.718439
229.962 0.745980
230.003 0.775345
230.044 0.806862
230.085 0.840585
230.126 0.876919
230.167 0.915956
230.208 0.958199
230.249 1.00380
230.290 1.05340
230.331 1.10725
230.372 1.16604
230.413 1.23045
230.456 1.30496
230.499 1.38776
230.541 1.48034
230.563 1.53100
230.584 1.58461
230.606 1.64202
230.627 1.70308
230.649 1.76879
230.670 1.83906
230.692 1.91516
230.713 1.99706
230.734 2.08593
230.756 2.18272
230.777 2.28907
230.799 2.40531
230.820 2.53407
230.842 2.67598
230.863 2.83449
230.885 3.01060
230.906 3.20886
230.927 3.43077
230.938 3.55327
230.949 3.68229
230.960 3.81951
230.970 3.96554
230.981 4.12254
230.992 4.28830
231.003 4.46499
231.013 4.65341
231.024 4.85634
231.035 5.07093
231.045 5.29996
231.056 5.54444
231.067 5.80544
231.078 6.08409
231.088 6.38159
231.099 6.69918
231.112 7.10401
231.124 7.54132
231.137 8.01352
231.150 8.51902
231.162 9.06848
231.175 9.66083
231.188 10.2990
231.200 10.9803
231.213 11.7188
231.226 12.5123
231.238 13.3641
231.251 14.2701
231.264 15.2480
231.276 16.2943
231.289 17.4123
231.302 18.5957
231.313 19.6714
231.323 20.7951
231.334 21.9783
231.345 23.2229
231.355 24.5432
231.366 25.9164
231.377 27.3560
231.388 28.8636
231.398 30.4555
231.409 32.1034
231.420 33.8227
231.430 35.6143
231.441 37.4787
231.452 39.4165
231.463 41.4277
231.473 43.5123
231.491 47.0998
231.508 50.8597
231.526 54.8295
231.543 58.9566
231.561 63.2780
231.579 67.7320
231.596 72.3543
231.614 77.0746
231.635 83.0133
231.657 89.0373
231.678 95.1267
231.699 101.230
231.727 108.945
231.754 116.467
231.766 119.599
231.787 125.166
231.809 130.409
231.830 135.314
231.851 139.777
231.873 143.781
231.894 147.238
231.916 150.133
231.937 152.402
231.963 154.291
231.982 155.033
232.000 155.274
232.015 155.101
232.037 154.233
232.059 152.655
232.074 151.157
232.090 149.340
232.118 145.229
232.146 140.185
232.174 134.296
232.202 127.733
232.230 120.611
232.258 113.071
232.285 105.594
232.311 98.0134
232.365 82.8690
232.393 75.1788
232.421 67.7743
232.449 60.7305
232.477 54.1059
232.496 49.8495
232.515 45.8170
232.534 42.0144
232.553 38.4446
232.572 35.1078
232.591 32.0018
232.611 29.1223
232.630 26.4633
232.644 24.6372
232.658 22.9354
232.672 21.3405
232.686 19.8487
232.700 18.4557
232.714 17.1572
232.728 15.9487
232.742 14.8257
232.756 13.7765
232.770 12.8116
232.784 11.9186
232.798 11.0934
232.812 10.3315
232.826 9.62885
232.840 8.98150
232.854 8.38557
232.868 7.83362
232.882 7.32996
232.896 6.86716
232.910 6.44208
232.924 6.05175
232.938 5.69337
232.952 5.36433
232.966 5.06219
232.980 4.78468
232.994 4.52968
233.008 4.29524
233.022 4.07957
233.036 3.88100
233.050 3.69801
233.064 3.52919
233.078 3.37327
233.092 3.22810
233.106 3.09464
233.120 2.97088
233.134 2.85592
233.148 2.74897
233.162 2.64931
233.176 2.55627
233.190 2.46928
233.204 2.38778
233.218 2.31131
233.246 2.17173
233.274 2.04755
233.302 1.93633
233.330 1.83575
233.358 1.74492
233.386 1.66216
233.414 1.58637
233.442 1.51668
233.470 1.45234
233.498 1.39275
233.526 1.33738
233.554 1.28560
233.582 1.23743
233.610 1.19233
233.638 1.15002
233.666 1.11013
233.694 1.07272
233.750 1.00415
233.806 0.942761
233.862 0.887730
233.918 0.838087
233.974 0.793127
234.023 0.757585
234.071 0.724776
234.120 0.694420
234.168 0.666272
234.216 0.640118
234.265 0.615769
234.313 0.593061
234.362 0.571889
234.410 0.552034
234.458 0.533427
234.507 0.515963
234.555 0.499551
234.652 0.469554
234.749 0.442888
234.805 0.428742
234.861 0.415493
234.973 0.391310
235.085 0.369859
235.197 0.350762
235.309 0.333661
235.421 0.318317
235.533 0.304477
235.645 0.291973
235.757 0.280621
235.869 0.270292
235.981 0.260867
236.093 0.252255
236.206 0.244353
236.318 0.237102
236.430 0.230424
236.542 0.224274
236.766 0.213339
236.990 0.203969
237.214 0.195895
237.438 0.188910
237.632 0.183624
237.825 0.178941
238.019 0.174780
238.212 0.171073
238.406 0.167758
238.600 0.164798
238.987 0.159796
239.374 0.155826
239.761 0.152699
240.148 0.150271
240.535 0.148431
240.861 0.147277
241.187 0.146452
241.839 0.145587
242.287 0.145509
242.736 0.145810
243.184 0.146456
243.632 0.147418
244.529 0.150203
245.425 0.154053
246.322 0.158916
247.218 0.164790
248.115 0.171709
249.011 0.179743
249.908 0.188998
250.804 0.199610
251.701 0.211762
252.149 0.218485
252.597 0.225681
253.045 0.233389
253.494 0.241649
253.942 0.250514
254.390 0.260029
254.838 0.270259
255.287 0.281268
255.735 0.293134
256.183 0.305934
256.672 0.321044
257.161 0.337470
257.650 0.355505
258.139 0.375286
258.628 0.397019
259.117 0.420961
259.606 0.447416
260.095 0.476743
260.543 0.506512
260.992 0.539430
261.440 0.575969
261.888 0.616657
262.112 0.638769
262.336 0.662165
262.561 0.686956
262.785 0.713255
263.009 0.741200
263.233 0.770903
263.457 0.802528
263.681 0.836240
263.916 0.873921
264.150 0.914270
264.384 0.957576
264.618 1.00419
264.853 1.05448
264.970 1.08114
265.087 1.10883
265.204 1.13767
265.321 1.16766
265.439 1.19892
265.556 1.23147
265.668 1.26394
265.780 1.29775
265.892 1.33298
266.004 1.36968
266.116 1.40800
266.228 1.44796
266.340 1.48973
266.452 1.53334
266.539 1.56843
266.625 1.60476
266.669 1.62342
266.712 1.64241
266.755 1.66175
266.799 1.68143
266.839 1.70032
266.906 1.73165
266.972 1.76389
267.038 1.79706
267.104 1.83119
267.147 1.85406
267.191 1.87737
267.277 1.92535
267.364 1.97523
267.451 2.02712
267.494 2.05385
267.537 2.08112
267.580 2.10895
267.624 2.13735
267.667 2.16633
267.710 2.19593
267.754 2.22614
267.797 2.25699
267.853 2.29795
267.909 2.33998
267.965 2.38319
268.021 2.42763
268.077 2.47344
268.133 2.52049
268.189 2.56893
268.245 2.61880
268.301 2.67025
268.357 2.72317
268.413 2.77781
268.469 2.83403
268.525 2.89211
268.581 2.95191
268.637 3.01362
268.693 3.07732
268.750 3.14321
268.806 3.21116
268.862 3.28136
268.918 3.35393
268.974 3.42911
269.030 3.50674
269.086 3.58708
269.142 3.67026
269.198 3.75656
269.254 3.84584
269.310 3.93855
269.366 4.03454
269.422 4.13431
269.478 4.23769
269.534 4.34507
269.590 4.45663
269.633 4.54590
269.677 4.63792
269.720 4.73280
269.763 4.83066
269.806 4.93162
269.850 5.03582
269.893 5.14340
269.936 5.25450
269.980 5.36928
270.023 5.48791
270.066 5.61057
270.110 5.73744
270.153 5.86871
270.196 6.00461
270.239 6.14534
270.283 6.29081
270.339 6.48767
270.395 6.69368
270.451 6.91020
270.507 7.13715
270.563 7.37608
270.619 7.62693
270.675 7.89101
270.731 8.16926
270.787 8.46327
270.843 8.77312
270.899 9.10059
270.955 9.44705
271.011 9.81468
271.067 10.2039
271.123 10.6171
271.179 11.0563
271.235 11.5248
271.291 12.0234
271.347 12.5566
271.403 13.1258
271.459 13.7366
271.515 14.3907
271.571 15.0938
271.627 15.8509
271.684 16.6695
271.740 17.5532
271.796 18.5110
271.852 19.5518
271.908 20.6878
271.936 21.2933
271.964 21.9268
271.992 22.5898
272.020 23.2845
272.048 24.0129
272.076 24.7773
272.104 25.5832
272.132 26.4276
272.160 27.3162
272.188 28.2525
272.216 29.2436
272.244 30.2865
272.272 31.3890
272.300 32.5561
272.328 33.7977
272.356 35.1110
272.384 36.5070
272.412 37.9933
272.440 39.5782
272.468 41.2712
272.496 43.0829
272.524 45.0253
272.546 46.6290
272.567 48.3181
272.589 50.1160
272.611 52.0144
272.632 54.0401
272.654 56.1845
272.676 58.4786
272.697 60.9134
272.719 63.5249
272.740 66.3037
272.762 69.2915
272.784 72.4784
272.805 75.9131
272.827 79.5847
272.849 83.5499
272.870 87.7966
272.898 93.8123
272.912 97.0344
272.926 100.417
272.940 103.969
272.954 107.699
272.968 111.617
272.982 115.732
272.996 120.054
273.010 124.594
273.024 129.362
273.038 134.369
273.052 139.627
273.066 145.147
273.080 150.939
273.094 157.017
273.109 163.438
273.123 170.122
273.137 177.127
273.151 184.464
273.165 192.144
273.179 200.179
273.193 208.578
273.207 217.354
273.221 226.515
273.235 236.072
273.263 256.402
273.291 278.405
273.319 302.118
273.345 326.438
273.372 352.240
273.399 379.691
273.426 408.531
273.452 438.893
273.479 470.437
273.506 503.251
273.533 536.911
273.589 609.661
273.645 683.271
273.701 754.806
273.729 788.777
273.757 820.986
273.798 864.090
273.838 901.156
273.859 917.142
273.879 931.158
273.900 943.228
273.920 953.137
273.940 960.737
273.960 966.160
273.980 969.417
274.000 970.450
274.013 969.901
274.035 966.891
274.057 961.319
274.078 953.229
274.100 942.697
274.122 929.756
274.143 914.642
274.165 897.437
274.186 878.293
274.224 840.738
274.262 798.744
274.300 753.328
274.337 705.655
274.413 606.365
274.451 556.971
274.489 508.806
274.527 462.512
274.565 418.597
274.602 377.433
274.621 357.915
274.640 339.270
274.673 308.767
274.706 280.718
274.722 267.532
274.739 255.001
274.755 242.963
274.771 231.553
274.788 220.618
274.804 210.216
274.820 200.332
274.837 191.004
274.853 182.100
274.869 173.712
274.886 165.717
274.902 158.196
274.921 149.939
274.940 142.241
274.959 134.993
274.978 128.242
274.997 121.891
275.016 115.979
275.035 110.417
275.054 105.241
275.073 100.370
275.092 95.8345
275.111 91.5647
275.130 87.5857
275.149 83.8363
275.167 80.3382
275.186 77.0379
275.205 73.9545
275.226 70.7889
275.247 67.8275
275.267 65.0542
275.288 62.4664
275.309 60.0253
275.329 57.7316
275.350 55.5738
275.371 53.5511
275.391 51.6342
275.412 49.8245
275.453 46.5034
275.495 43.5226
275.536 40.8357
275.574 38.5953
275.612 36.5443
275.650 34.6609
275.688 32.9264
275.726 31.3250
275.763 29.8426
275.801 28.4673
275.839 27.1886
275.877 25.9972
275.915 24.8851
275.953 23.8452
275.991 22.8710
276.029 21.9571
276.067 21.0984
276.105 20.2903
276.142 19.5290
276.180 18.8108
276.218 18.1323
276.294 16.8833
276.370 15.7614
276.446 14.7498
276.521 13.8341
276.597 13.0025
276.673 12.2449
276.749 11.5525
276.811 11.0288
276.873 10.5411
276.935 10.0855
276.997 9.65914
277.059 9.25958
277.121 8.88457
277.183 8.53211
277.245 8.20040
277.307 7.88733
277.369 7.59244
277.431 7.31391
277.493 7.05053
277.617 6.56499
277.741 6.12825
277.817 5.88255
277.893 5.65144
277.968 5.43378
278.044 5.22854
278.120 5.03480
278.196 4.85170
278.347 4.51444
278.499 4.21139
278.651 3.93804
278.802 3.69064
278.954 3.46598
279.133 3.22608
279.312 3.01053
279.491 2.81595
279.670 2.63994
279.850 2.48004
280.029 2.33447
280.208 2.20134
280.387 2.07937
280.539 1.98389
280.690 1.89485
280.842 1.81171
280.993 1.73397
281.145 1.66116
281.297 1.59288
281.448 1.52877
281.600 1.46853
281.751 1.41178
281.903 1.35829
282.055 1.30782
282.206 1.26014
282.509 1.17236
282.812 1.09358
283.116 1.02255
283.419 0.958316
283.722 0.900032
284.025 0.847003
284.328 0.798585
284.632 0.754272
284.935 0.713613
285.238 0.676229
285.486 0.647821
285.734 0.621223
285.982 0.596303
286.230 0.572922
286.478 0.550899
286.726 0.530128
286.974 0.510514
287.222 0.491999
287.718 0.457940
288.215 0.427400
288.711 0.399909
289.207 0.375074
289.510 0.361059
289.813 0.347845
290.116 0.335373
290.420 0.323587
291.026 0.301881
291.632 0.282385
292.239 0.264802
292.845 0.248893
293.451 0.234451
294.058 0.221303
294.471 0.212999
294.885 0.205186
295.298 0.197824
295.711 0.190878
296.538 0.178117
297.365 0.166747
298.192 0.156474
299.019 0.147187
299.846 0.138776
300.673 0.131136
301.279 0.125970
301.885 0.121135
302.492 0.116601
303.098 0.112353
303.704 0.108359
304.311 0.104600
305.523 0.0977254
306.736 0.0915937
307.949 0.0861066
309.162 0.0811749
310.374 0.0767240
311.201 0.0739347
312.028 0.0713244
312.855 0.0688778
313.682 0.0665819
315.336 0.0623935
316.162 0.0604817
316.989 0.0587022
318.643 0.0553811
320.297 0.0524075
321.950 0.0497359
323.604 0.0473270
324.817 0.0457156
326.030 0.0442082
327.242 0.0427943
328.455 0.0414857
330.880 0.0391044
333.306 0.0370194
335.731 0.0351692
338.157 0.0335346
340.582 0.0320806
343.008 0.0307790
345.102 0.0297695
347.197 0.0288517
351.386 0.0272574
355.576 0.0259222
359.765 0.0248196
361.860 0.0243347
363.955 0.0239019
366.049 0.0234946
368.144 0.0231413
372.333 0.0225184
376.523 0.0220208
380.933 0.0216244
385.343 0.0213392
389.753 0.0211547
394.162 0.0210688
399.013 0.0210937
403.864 0.0212281
408.715 0.0214791
413.566 0.0218580
418.417 0.0223576
423.268 0.0230051
425.693 0.0233809
428.119 0.0238081
432.970 0.0247787
436.718 0.0256723
440.467 0.0267041
444.215 0.0278934
447.963 0.0292640
449.838 0.0300223
451.712 0.0308452
453.586 0.0317148
455.460 0.0326505
457.334 0.0336685
459.209 0.0347667
461.083 0.0359532
462.957 0.0372369
465.383 0.0390622
467.808 0.0410888
470.233 0.0433520
472.659 0.0458942
475.084 0.0487460
477.510 0.0519790
478.722 0.0537506
479.935 0.0556531
481.148 0.0576794
482.361 0.0598423
484.014 0.0630584
485.668 0.0666090
487.322 0.0705428
488.975 0.0749142
489.802 0.0772549
490.629 0.0797568
492.283 0.0852216
493.110 0.0882062
493.937 0.0913775
494.763 0.0947524
495.590 0.0983479
496.693 0.103522
497.795 0.109178
498.898 0.115380
500.000 0.122208
501.144 0.130042
502.288 0.138747
503.432 0.148465
504.004 0.153751
504.576 0.159359
505.148 0.165307
505.720 0.171632
506.292 0.178358
506.864 0.185502
507.436 0.193095
508.008 0.201244
508.580 0.209983
509.152 0.219351
509.628 0.227685
510.105 0.236538
510.582 0.245955
511.058 0.255972
511.535 0.266655
511.773 0.272269
512.012 0.278076
512.250 0.284088
512.488 0.290307
512.727 0.296745
512.965 0.303412
513.251 0.311733
513.537 0.320420
513.823 0.329496
514.109 0.338981
514.395 0.348904
514.681 0.359291
514.824 0.364667
514.967 0.370172
515.110 0.375808
515.253 0.381576
515.388 0.387159
515.455 0.389997
515.523 0.392868
515.590 0.395777
515.658 0.398715
515.725 0.401687
515.793 0.404695
515.843 0.406932
515.892 0.409184
515.914 0.410185
515.920 0.410437
515.920 0.410464
515.921 0.410515
515.924 0.410639
515.930 0.410914
515.936 0.411185
515.950 0.411829
515.964 0.412470
515.992 0.413757
516.053 0.416631
516.115 0.419532
516.176 0.422470
516.238 0.425435
516.295 0.428242
516.353 0.431077
516.468 0.436838
516.583 0.442720
516.699 0.448727
516.814 0.454862
516.929 0.461128
517.044 0.467531
517.159 0.474067
517.334 0.484268
517.509 0.494816
517.684 0.505726
517.858 0.517007
518.033 0.528692
518.208 0.540792
518.383 0.553328
518.558 0.566313
518.732 0.579785
518.907 0.593760
519.082 0.608264
519.257 0.623316
519.431 0.638960
519.606 0.655211
519.694 0.663582
519.781 0.672120
519.868 0.680828
519.956 0.689702
520.043 0.698766
520.130 0.708015
520.218 0.717454
520.305 0.727089
520.393 0.736925
520.480 0.746967
520.655 0.767684
520.830 0.789311
521.004 0.811891
521.179 0.835481
521.354 0.860127
521.529 0.885923
521.703 0.912928
521.878 0.941217
522.053 0.970857
522.228 1.00197
522.403 1.03464
522.577 1.06897
522.752 1.10506
522.927 1.14306
523.102 1.18311
523.276 1.22533
523.451 1.26989
523.626 1.31699
523.801 1.36678
523.975 1.41954
524.150 1.47544
524.325 1.53480
524.500 1.59788
524.675 1.66500
524.849 1.73647
525.024 1.81276
525.199 1.89428
525.374 1.98150
525.548 2.07494
525.723 2.17530
525.898 2.28323
526.073 2.39952
526.247 2.52498
526.335 2.59152
526.422 2.66076
526.510 2.73285
526.597 2.80794
526.684 2.88622
526.772 2.96786
526.859 3.05306
526.947 3.14192
527.034 3.23487
527.121 3.33207
527.209 3.43376
527.296 3.54024
527.384 3.65182
527.471 3.76881
527.558 3.89159
527.646 4.02040
527.733 4.15593
527.820 4.29852
527.908 4.44867
527.995 4.60672
528.083 4.77364
528.170 4.94989
528.257 5.13620
528.345 5.33312
528.464 5.62102
528.583 5.93316
528.702 6.27238
528.821 6.64161
528.941 7.04525
529.000 7.26122
529.060 7.48741
529.119 7.72451
529.179 7.97322
529.239 8.23433
529.298 8.50821
529.385 8.93638
529.473 9.39827
529.560 9.89754
529.648 10.4377
529.735 11.0249
529.822 11.6640
529.910 12.3614
529.997 13.1237
530.084 13.9613
530.172 14.8834
530.216 15.3799
530.259 15.9022
530.303 16.4522
530.347 17.0319
530.390 17.6436
530.434 18.2896
530.478 18.9726
530.521 19.6956
530.565 20.4619
530.609 21.2749
530.653 22.1386
530.696 23.0553
530.736 23.9441
530.776 24.8841
530.815 25.8821
530.855 26.9427
530.895 28.0744
530.935 29.2773
530.974 30.5606
531.014 31.9315
531.054 33.4017
531.093 34.9725
531.133 36.6569
531.173 38.4653
531.213 40.4091
531.252 42.5007
531.292 44.7538
531.332 47.1829
531.375 50.0792
531.419 53.2307
531.463 56.6617
531.506 60.3984
531.550 64.4679
531.594 68.8989
531.638 73.7205
531.681 78.9499
531.725 84.6404
531.769 90.8087
531.812 97.4813
531.856 104.682
531.900 112.430
531.943 120.739
531.987 129.619
532.031 139.045
532.074 149.053
532.118 159.601
532.162 170.658
532.205 182.179
532.249 194.105
532.293 206.365
532.380 231.525
532.478 259.658
532.575 286.459
532.624 298.883
532.672 310.349
532.721 320.702
532.770 329.714
532.827 338.467
532.885 344.876
532.942 348.777
533.000 350.062
533.029 349.706
533.076 347.714
533.123 344.015
533.169 338.677
533.216 331.797
533.263 323.501
533.310 313.933
533.357 303.257
533.403 291.648
533.472 273.297
533.541 253.906
533.678 214.197
533.744 195.457
533.811 177.459
533.877 160.448
533.910 152.357
533.943 144.596
533.992 133.839
534.040 123.793
534.088 114.440
534.136 105.772
534.185 97.7570
534.233 90.4014
534.281 83.6568
534.329 77.4873
534.362 73.5526
534.395 69.8705
534.429 66.4060
534.462 63.1670
534.495 60.1215
534.528 57.2753
534.561 54.5994
534.594 52.0983
534.628 49.7460
534.661 47.5461
534.694 45.4754
534.727 43.5370
534.760 41.7105
534.793 39.9985
534.826 38.3831
534.860 36.8668
534.893 35.4338
534.926 34.0864
534.959 32.8110
534.992 31.6097
535.025 30.4706
535.058 29.3958
535.125 27.4096
535.191 25.6215
535.257 24.0062
535.324 22.5421
535.390 21.2108
535.444 20.2083
535.498 19.2784
535.553 18.4111
535.607 17.6037
535.661 16.8480
535.715 16.1422
535.770 15.4795
535.824 14.8586
535.878 14.2740
535.932 13.7248
535.987 13.2063
536.041 12.7179
536.095 12.2557
536.149 11.8195
536.258 11.0143
536.324 10.5626
536.391 10.1385
536.457 9.73978
536.523 9.36440
536.589 9.01057
536.656 8.67665
536.722 8.36117
536.788 8.06279
536.921 7.51250
537.054 7.01726
537.186 6.56990
537.319 6.16442
537.463 5.76374
537.608 5.40128
537.753 5.07232
537.897 4.77304
538.042 4.49959
538.187 4.24940
538.331 4.01958
538.476 3.80823
538.609 3.62872
538.741 3.46183
538.874 3.30626
539.007 3.16103
539.139 3.02523
539.272 2.89806
539.404 2.77882
539.537 2.66687
539.670 2.56161
539.802 2.46254
539.935 2.36917
540.067 2.28107
540.200 2.19786
540.333 2.11918
540.598 1.97414
540.863 1.84369
541.128 1.72594
541.393 1.61929
541.659 1.52238
541.924 1.43407
542.189 1.35337
542.454 1.27943
542.719 1.21153
542.936 1.16002
543.153 1.11184
543.370 1.06670
543.587 1.02434
543.804 0.984521
544.021 0.947029
544.238 0.911681
544.455 0.878339
544.672 0.846831
544.889 0.817046
545.323 0.762172
545.757 0.712860
546.191 0.668397
546.456 0.643328
546.722 0.619725
546.987 0.597468
547.252 0.576458
547.782 0.537824
548.313 0.503190
548.843 0.472027
549.374 0.443893
549.904 0.418413
550.434 0.395267
550.772 0.381626
551.110 0.368761
551.785 0.345129
552.460 0.323980
553.135 0.305012
553.810 0.287972
554.485 0.272529
555.160 0.258509
555.835 0.245775
556.366 0.236576
556.896 0.228023
557.426 0.220058
557.957 0.212635
558.487 0.205707
559.018 0.199238
559.548 0.193192
560.078 0.187536
561.139 0.177282
562.200 0.168280
563.261 0.160365
564.322 0.153400
565.093 0.148865
565.865 0.144736
566.636 0.140979
567.408 0.137566
568.179 0.134471
568.951 0.131696
570.494 0.126926
572.037 0.123094
573.580 0.120127
575.123 0.117947
576.666 0.116492
578.209 0.115720
579.752 0.115602
580.716 0.115861
581.681 0.116356
582.645 0.117100
583.610 0.118108
584.574 0.119354
585.538 0.120874
586.503 0.122665
587.467 0.124723
588.432 0.127093
589.396 0.129759
590.360 0.132748
591.325 0.136103
592.289 0.139804
593.254 0.143909
594.218 0.148393
595.182 0.153391
596.243 0.159484
597.304 0.166256
598.365 0.173785
599.426 0.182157
600.487 0.191477
601.547 0.201867
602.608 0.213471
603.669 0.226461
604.320 0.235206
604.971 0.244603
605.622 0.254700
606.273 0.265552
606.924 0.277285
607.249 0.283508
607.575 0.289980
607.900 0.296713
608.226 0.303720
608.551 0.311013
608.877 0.318607
609.142 0.325035
609.407 0.331688
609.672 0.338576
609.938 0.345709
610.203 0.353097
610.468 0.360753
610.733 0.368689
610.998 0.376919
611.185 0.382902
611.372 0.389044
611.559 0.395349
611.746 0.401819
611.933 0.408468
612.120 0.415295
612.213 0.418782
612.307 0.422313
612.400 0.425893
612.493 0.429524
612.614 0.434286
612.674 0.436699
612.734 0.439131
612.819 0.442577
612.903 0.446067
612.988 0.449602
613.072 0.453182
613.156 0.456809
613.241 0.460484
613.325 0.464206
613.410 0.467973
613.524 0.473173
613.639 0.478461
613.753 0.483846
613.868 0.489328
613.982 0.494915
614.097 0.500600
614.211 0.506389
614.326 0.512286
614.440 0.518298
614.555 0.524418
614.669 0.530653
614.784 0.537007
614.898 0.543483
615.013 0.550083
615.127 0.556811
615.242 0.563670
615.411 0.574028
615.579 0.584690
615.748 0.595667
615.917 0.606966
616.086 0.618614
616.255 0.630618
616.423 0.642993
616.592 0.655747
616.737 0.667007
616.881 0.678566
617.026 0.690450
617.171 0.702655
617.315 0.715211
617.460 0.728111
617.605 0.741388
617.749 0.755036
617.882 0.767898
618.014 0.781103
618.147 0.794663
618.280 0.808592
618.412 0.822904
618.545 0.837611
618.677 0.852729
618.810 0.868274
618.943 0.884262
619.075 0.900710
619.208 0.917635
619.340 0.935057
619.473 0.952995
619.606 0.971469
619.738 0.990501
619.871 1.01011
620.004 1.03035
620.136 1.05119
620.269 1.07270
620.401 1.09488
620.534 1.11778
620.667 1.14143
620.799 1.16585
620.932 1.19108
621.064 1.21717
621.197 1.24414
621.330 1.27202
621.462 1.30088
621.595 1.33075
621.727 1.36168
621.860 1.39373
621.993 1.42694
622.125 1.46137
622.258 1.49709
622.390 1.53416
622.523 1.57265
622.656 1.61262
622.788 1.65417
622.921 1.69737
623.053 1.74232
623.186 1.78909
623.319 1.83781
623.451 1.88857
623.584 1.94150
623.716 1.99671
623.849 2.05434
623.982 2.11454
624.114 2.17746
624.241 2.24022
624.367 2.30576
624.494 2.37426
624.621 2.44584
624.747 2.52079
624.874 2.59928
625.000 2.68153
625.127 2.76771
625.253 2.85822
625.380 2.95328
625.507 3.05318
625.633 3.15820
625.760 3.26884
625.886 3.38545
626.013 3.50846
626.139 3.63825
626.272 3.78236
626.405 3.93518
626.537 4.09754
626.670 4.27025
626.803 4.45420
626.935 4.65041
627.068 4.85997
627.200 5.08411
627.333 5.32423
627.466 5.58187
627.598 5.85878
627.731 6.15694
627.863 6.47857
627.996 6.82620
628.129 7.20272
628.261 7.61142
628.394 8.05607
628.526 8.54101
628.659 9.07126
628.725 9.35516
628.792 9.65264
628.858 9.96458
628.924 10.2919
628.990 10.6357
629.057 10.9971
629.123 11.3772
629.189 11.7774
629.256 12.1991
629.322 12.6439
629.388 13.1142
629.455 13.6105
629.521 14.1354
629.587 14.6913
629.654 15.2806
629.720 15.9060
629.786 16.5704
629.852 17.2772
629.919 18.0300
629.985 18.8328
630.051 19.6900
630.118 20.6066
630.184 21.5881
630.250 22.6405
630.317 23.7707
630.383 24.9862
630.449 26.2953
630.515 27.7075
630.582 29.2332
630.648 30.8839
630.714 32.6724
630.781 34.6130
630.847 36.7212
630.913 39.0143
630.980 41.5109
631.046 44.2313
631.112 47.1972
631.178 50.4317
631.245 53.9587
631.311 57.8029
631.377 61.9891
631.444 66.5339
631.510 71.4811
631.576 76.8285
631.643 82.5984
631.709 88.7997
631.775 95.4340
631.841 102.493
631.908 109.958
631.974 117.795
632.041 126.046
632.108 134.551
632.242 152.015
632.376 169.362
632.443 177.652
632.509 185.497
632.571 192.176
632.632 198.229
632.693 203.559
632.755 208.067
632.816 211.670
632.877 214.285
632.939 215.867
633.000 216.381
633.049 216.015
633.089 215.209
633.129 213.957
633.169 212.270
633.209 210.162
633.289 204.757
633.369 197.921
633.448 189.860
633.528 180.836
633.608 171.094
633.688 160.884
633.845 140.298
633.924 130.169
634.002 120.355
634.081 110.971
634.160 102.102
634.238 93.8032
634.317 86.1045
634.398 78.7983
634.438 75.3896
634.479 72.1373
634.519 69.0304
634.560 66.0801
634.600 63.2739
634.641 60.6068
634.682 58.0674
634.722 55.6628
634.763 53.3808
634.803 51.2159
634.844 49.1575
634.884 47.2102
634.925 45.3633
634.965 43.6115
635.006 41.9457
635.046 40.3692
635.127 37.4489
635.208 34.8152
635.289 32.4388
635.371 30.2851
635.452 28.3340
635.533 26.5583
635.614 24.9426
635.669 23.9211
635.724 22.9601
635.780 22.0550
635.835 21.2033
635.890 20.3980
635.945 19.6386
636.001 18.9193
636.056 18.2397
636.166 16.9831
636.277 15.8523
636.387 14.8305
636.498 13.9040
636.579 13.2780
636.660 12.6932
636.741 12.1461
636.822 11.6342
636.903 11.1534
636.984 10.7023
637.065 10.2774
637.146 9.87784
637.227 9.50065
637.309 9.14466
637.390 8.80831
637.471 8.49057
637.633 7.90425
637.795 7.37668
637.957 6.89997
638.119 6.46833
638.281 6.07601
638.443 5.71838
638.605 5.39149
638.768 5.09191
638.930 4.81672
639.092 4.56333
639.232 4.36017
639.372 4.17046
639.512 3.99292
639.652 3.82649
639.792 3.67027
639.932 3.52341
640.072 3.38518
640.212 3.25492
640.352 3.13203
640.492 3.01597
640.632 2.90624
640.772 2.80240
641.052 2.61078
641.332 2.43821
641.494 2.34598
641.656 2.25895
641.818 2.17669
641.980 2.09887
642.305 1.95522
642.629 1.82593
642.953 1.70906
643.277 1.60314
643.602 1.50680
643.926 1.41894
644.309 1.32470
644.692 1.23959
645.075 1.16248
645.458 1.09244
645.842 1.02862
646.225 0.970324
646.608 0.916854
646.991 0.867676
647.315 0.829072
647.640 0.793012
647.964 0.759265
648.288 0.727655
648.612 0.697990
648.937 0.670129
649.261 0.643921
649.585 0.619238
649.909 0.595957
650.234 0.573986
650.558 0.553224
650.882 0.533582
651.530 0.497345
652.179 0.464733
652.827 0.435267
653.476 0.408560
654.124 0.384278
654.773 0.362138
655.421 0.341891
656.070 0.323331
656.718 0.306272
657.367 0.290562
657.956 0.277351
658.546 0.265082
659.135 0.253607
659.725 0.242853
660.314 0.232782
660.904 0.223345
661.493 0.214487
662.083 0.206163
662.672 0.198330
663.262 0.190951
663.851 0.183992
664.441 0.177420
665.620 0.165330
666.799 0.154484
667.447 0.148987
668.096 0.143792
669.393 0.134225
670.689 0.125628
671.986 0.117876
673.283 0.110861
674.580 0.104492
675.877 0.0986938
677.174 0.0933994
678.117 0.0898325
679.061 0.0864835
680.004 0.0833346
680.947 0.0803704
681.890 0.0775772
682.833 0.0749548
684.720 0.0701236
686.606 0.0657826
688.493 0.0618809
690.379 0.0583621
692.265 0.0551786
693.562 0.0531677
694.859 0.0512804
696.156 0.0495061
697.453 0.0478474
700.047 0.0448157
702.641 0.0421333
705.235 0.0397415
707.829 0.0376112
710.422 0.0357060
713.016 0.0339957
714.903 0.0328642
716.789 0.0318174
718.676 0.0308485
720.562 0.0299514
722.448 0.0291208
724.335 0.0283548
728.108 0.0269878
731.881 0.0258185
735.653 0.0248269
739.426 0.0239947
743.199 0.0233071
747.915 0.0226391
750.273 0.0223727
752.631 0.0221625
754.989 0.0219851
757.347 0.0218623
762.063 0.0217398
766.308 0.0217887
770.552 0.0219894
772.675 0.0221449
774.797 0.0223482
776.919 0.0225815
779.041 0.0228769
781.164 0.0232005
783.286 0.0235925
785.408 0.0240237
787.530 0.0245188
789.653 0.0250611
791.775 0.0256808
793.897 0.0263722
796.019 0.0271422
798.613 0.0282019
801.207 0.0294040
803.801 0.0307695
806.395 0.0323230
808.988 0.0340865
811.582 0.0360995
812.879 0.0372087
814.176 0.0383994
815.473 0.0396714
816.770 0.0410322
818.774 0.0433378
820.779 0.0459153
822.783 0.0488058
824.787 0.0520582
825.789 0.0538360
826.792 0.0557319
827.794 0.0577363
828.796 0.0598650
829.798 0.0621551
830.800 0.0646044
831.802 0.0672260
832.805 0.0700354
834.102 0.0739805
835.398 0.0783152
836.695 0.0830920
837.992 0.0883719
839.289 0.0942270
840.586 0.100743
841.883 0.108022
842.531 0.111985
843.180 0.116186
844.300 0.124064
845.420 0.132827
846.540 0.142613
847.100 0.147939
847.660 0.153585
848.220 0.159578
848.780 0.165945
849.340 0.172719
849.900 0.179928
850.460 0.187600
851.020 0.195778
851.580 0.204543
852.140 0.213950
852.671 0.223501
853.202 0.233728
853.732 0.244696
854.263 0.256474
854.793 0.269146
855.324 0.282794
855.589 0.290020
855.854 0.297534
856.120 0.305354
856.385 0.313494
856.680 0.322941
856.974 0.332829
857.269 0.343191
857.564 0.354051
857.859 0.365448
858.153 0.377408
858.448 0.389980
858.596 0.396507
858.743 0.403197
858.949 0.412865
859.052 0.417833
859.156 0.422887
859.259 0.428041
859.362 0.433286
859.465 0.438635
859.568 0.444080
859.657 0.448837
859.745 0.453667
859.834 0.458582
859.922 0.463573
860.010 0.468653
860.099 0.473812
860.187 0.479058
860.276 0.484393
860.438 0.494420
860.600 0.504760
860.762 0.515431
860.924 0.526449
861.086 0.537829
861.248 0.549586
861.410 0.561738
861.573 0.574303
861.735 0.587308
861.897 0.600756
862.059 0.614677
862.221 0.629094
862.383 0.644029
862.545 0.659509
862.707 0.675560
862.869 0.692211
863.032 0.709502
863.194 0.727446
863.275 0.736682
863.356 0.746085
863.437 0.755684
863.518 0.765458
863.599 0.775438
863.680 0.785603
863.842 0.806561
864.004 0.828378
864.166 0.851100
864.329 0.874794
864.491 0.899484
864.653 0.925245
864.815 0.952138
864.977 0.980230
865.139 1.00960
865.301 1.04031
865.463 1.07246
865.625 1.10616
865.788 1.14146
865.950 1.17850
866.112 1.21737
866.274 1.25822
866.436 1.30118
866.598 1.34639
866.760 1.39401
866.922 1.44426
867.084 1.49726
867.247 1.55325
867.409 1.61247
867.571 1.67520
867.733 1.74164
867.895 1.81215
868.057 1.88705
868.219 1.96678
868.381 2.05165
868.544 2.14217
868.706 2.23886
868.868 2.34229
869.030 2.45310
869.192 2.57201
869.354 2.69985
869.516 2.83761
869.678 2.98617
869.759 3.06494
869.840 3.14679
869.922 3.23209
870.003 3.32081
870.084 3.41339
870.165 3.50979
870.246 3.61049
870.327 3.71548
870.408 3.82530
870.489 3.93994
870.570 4.06000
870.651 4.18552
870.732 4.31715
870.813 4.45514
870.894 4.59990
870.975 4.75170
871.056 4.91138
871.137 5.07911
871.218 5.25585
871.299 5.44182
871.381 5.63816
871.462 5.84514
871.543 6.06409
871.624 6.29538
871.705 6.54057
871.786 6.80016
871.867 7.07600
871.948 7.36874
872.051 7.76903
872.154 8.20316
872.257 8.67507
872.361 9.18880
872.464 9.75057
872.567 10.3654
872.618 10.6953
872.670 11.0414
872.722 11.4048
872.773 11.7857
872.854 12.4257
872.935 13.1196
873.016 13.8735
873.097 14.6933
873.179 15.5891
873.260 16.5676
873.341 17.6415
873.422 18.8200
873.462 19.4545
873.503 20.1191
873.543 20.8172
873.584 21.5508
873.624 22.3241
873.665 23.1356
873.705 23.9894
873.746 24.8883
873.786 25.8372
873.827 26.8344
873.867 27.8849
873.908 28.9919
873.949 30.1615
873.989 31.3912
874.030 32.6871
874.070 34.0526
874.111 35.4949
874.151 37.0102
874.192 38.6096
874.232 40.2887
874.273 42.0589
874.313 43.9149
874.354 45.8639
874.394 47.9086
874.435 50.0570
874.475 52.3005
874.516 54.6460
874.556 57.0947
874.597 59.6536
874.638 62.3100
874.719 67.9299
874.778 72.2729
874.836 76.8059
874.895 81.5282
874.954 86.4024
875.072 96.5280
875.190 106.906
875.334 119.389
875.406 125.328
875.478 130.930
875.550 136.088
875.622 140.700
875.694 144.668
875.765 147.907
875.824 149.958
875.883 151.441
875.941 152.337
876.000 152.629
876.047 152.424
876.123 151.269
876.200 149.122
876.276 146.040
876.352 142.107
876.428 137.412
876.505 132.071
876.581 126.206
876.657 119.951
876.795 108.041
876.933 95.9254
877.070 84.1754
877.139 78.5712
877.208 73.2117
877.278 68.0447
877.348 63.1699
877.417 58.5987
877.487 54.3353
877.557 50.3776
877.627 46.7184
877.697 43.3466
877.766 40.2483
877.836 37.4074
877.906 34.8069
877.976 32.4290
878.046 30.2561
878.115 28.2708
878.185 26.4566
878.255 24.7977
878.325 23.2793
878.385 22.0703
878.445 20.9478
878.506 19.9042
878.566 18.9325
878.626 18.0262
878.687 17.1794
878.747 16.3864
878.807 15.6433
878.867 14.9430
878.928 14.2824
878.988 13.6574
879.048 13.0653
879.109 12.5008
879.169 11.9619
879.289 10.9511
879.378 10.2535
879.467 9.59138
879.556 8.95961
879.645 8.35751
879.734 7.78309
879.822 7.23829
879.911 6.72356
880.000 3.23496
999.999 2.92074
1000.00 2.92074
1000.00 2.92074
1250.00 2.44690
1500.00 2.12125
1700.00 1.92555
2000.00 1.70131
2500.00 1.44133
3000.00 1.26403
3500.00 1.13506
4000.00 1.03677
5000.00 0.896221
6000.00 0.799778
7000.00 0.728825
8000.00 0.673954
9000.00 0.629906
10000.0 0.593516
11000.0 0.562765
12000.0 0.536305
13000.0 0.513199
14000.0 0.492775
15000.0 0.474538
16000.0 0.458114
17000.0 0.443216
18000.0 0.429618
19000.0 0.417138
20000.0 0.405632
25000.0 0.359136
30000.0 0.325241
35000.0 0.299352
40000.0 0.278987
50000.0 0.249248
60000.0 0.228983
70000.0 0.214662
80000.0 0.204272
90000.0 0.196573
100000 0.190756
125000 0.181099
150000 0.175502
170000 0.172498
200000 0.169304
250000 0.164869
260000 0.164260
300000 0.161824
350000 0.158925
400000 0.157052
483562 0.154781
500000 0.154335
556260 0.153611
556260 0.156427
556298 0.156424
556298 0.156424
792000 0.135926
792000 0.135926
800000 0.135230
900000 0.139923
1.00000E+06 0.146931
1.08429E+06 0.144989
1.08429E+06 0.144989
1.10020E+06 0.144622
1.10020E+06 0.144622
1.20000E+06 0.142322
1.32390E+06 0.141629
1.32390E+06 0.141629
1.50000E+06 0.140645
1.56453E+06 0.141369
1.56453E+06 0.141369
1.70000E+06 0.142890
1.90000E+06 0.153738
1.99318E+06 0.160682
1.99319E+06 0.160682
2.00000E+06 0.161190
2.30000E+06 0.171246
2.50000E+06 0.170011
2.70000E+06 0.162780
2.90000E+06 0.150785
3.00000E+06 0.143530
3.50000E+06 0.106184
4.00000E+06 0.0710608
5.00000E+06 0.0295109
6.00000E+06 0.0115258
7.00000E+06 0.00555056
7.18090E+06 0.00515091
7.18090E+06 0.00515090
8.00000E+06 0.00334130
9.00000E+06 0.00236297
1.00000E+07 0.00191126
1.00097E+07 0.00190855
1.00098E+07 0.00190854
1.03744E+07 0.00180662
1.10000E+07 0.00163176
1.20000E+07 0.00144660
1.30000E+07 0.00130908
1.40000E+07 0.00116857
1.50000E+07 0.00100748
1.60000E+07 0.000817525
1.67373E+07 0.000686372
1.70000E+07 0.000639642
1.80000E+07 0.000461758
1.80288E+07 0.000458115
1.80288E+07 0.000458111
1.90000E+07 0.000335256
2.00000E+07 0.000232757
