Er-166(n,g) ENDFB-8.0
Energy(eV) XS(b)
1.00000E-05 651.930
1.03125E-05 641.976
1.06250E-05 632.465
1.09375E-05 623.364
1.12500E-05 614.646
1.15625E-05 606.283
1.18750E-05 598.252
1.21875E-05 590.532
1.25000E-05 583.104
1.28125E-05 575.949
1.31250E-05 569.051
1.34375E-05 562.395
1.37500E-05 555.968
1.43750E-05 543.747
1.50000E-05 532.299
1.56250E-05 521.544
1.62500E-05 511.416
1.68750E-05 501.856
1.75000E-05 492.813
1.81250E-05 484.241
1.87500E-05 476.102
1.93750E-05 468.360
2.00000E-05 460.984
2.09375E-05 450.545
2.18750E-05 440.785
2.28125E-05 431.633
2.37500E-05 423.028
2.46875E-05 414.918
2.56250E-05 407.257
2.65625E-05 400.006
2.75000E-05 393.129
2.84375E-05 386.594
2.93750E-05 380.375
3.03125E-05 374.447
3.12500E-05 368.787
3.21875E-05 363.377
3.31250E-05 358.198
3.40625E-05 353.234
3.50000E-05 348.471
3.59375E-05 343.896
3.68750E-05 339.496
3.78125E-05 335.261
3.87500E-05 331.181
3.96875E-05 327.246
4.06250E-05 323.448
4.25000E-05 316.232
4.43750E-05 309.479
4.62500E-05 303.141
4.81250E-05 297.177
5.00000E-05 291.552
5.15625E-05 287.100
5.31250E-05 282.847
5.46875E-05 278.777
5.62500E-05 274.878
5.78125E-05 271.138
5.93750E-05 267.546
6.09375E-05 264.094
6.25000E-05 260.772
6.40625E-05 257.572
6.56250E-05 254.487
6.71875E-05 251.511
6.87500E-05 248.636
7.18750E-05 243.171
7.50000E-05 238.051
7.81250E-05 233.241
8.12500E-05 228.712
8.43750E-05 224.436
8.75000E-05 220.392
9.06250E-05 216.559
9.37500E-05 212.919
9.68750E-05 209.457
0.000100000 206.158
0.000103125 203.010
0.000106250 200.002
0.000109375 197.125
0.000112500 194.367
0.000115625 191.723
0.000118750 189.183
0.000121875 186.742
0.000125000 184.393
0.000128125 182.130
0.000131250 179.949
0.000134375 177.844
0.000137500 175.812
0.000143750 171.947
0.000150000 168.327
0.000156250 164.926
0.000162500 161.723
0.000168750 158.700
0.000175000 155.840
0.000181250 153.130
0.000187500 150.556
0.000193750 148.108
0.000200000 145.775
0.000209375 142.474
0.000218750 139.388
0.000228125 136.493
0.000237500 133.772
0.000246875 131.208
0.000256250 128.785
0.000265625 126.492
0.000275000 124.317
0.000284375 122.251
0.000293750 120.284
0.000303125 118.409
0.000312500 116.620
0.000321875 114.909
0.000331250 113.271
0.000340625 111.701
0.000350000 110.195
0.000359375 108.748
0.000368750 107.357
0.000378125 106.018
0.000387500 104.727
0.000396875 103.483
0.000406250 102.282
0.000425000 100.000
0.000443750 97.8647
0.000462500 95.8604
0.000481250 93.9744
0.000500000 92.1955
0.000515625 90.7878
0.000531250 89.4426
0.000546875 88.1556
0.000562500 86.9226
0.000578125 85.7399
0.000593750 84.6041
0.000609375 83.5124
0.000625000 82.4619
0.000640625 81.4500
0.000656250 80.4745
0.000671875 79.5332
0.000687500 78.6242
0.000718750 76.8959
0.000750000 75.2768
0.000781250 73.7559
0.000812500 72.3235
0.000843750 70.9715
0.000875000 69.6926
0.000906250 68.4804
0.000937500 67.3294
0.000968750 66.2345
0.00100000 65.1913
0.00103125 64.1959
0.00106250 63.2448
0.00109375 62.3347
0.00112500 61.4628
0.00115625 60.6265
0.00118750 59.8235
0.00121875 59.0515
0.00125000 58.3087
0.00128125 57.5932
0.00131250 56.9034
0.00134375 56.2378
0.00137500 55.5950
0.00143750 54.3729
0.00150000 53.2280
0.00156250 52.1525
0.00162500 51.1397
0.00168750 50.1837
0.00175000 49.2793
0.00181250 48.4221
0.00187500 47.6082
0.00193750 46.8339
0.00200000 46.0962
0.00209375 45.0523
0.00218750 44.0762
0.00228125 43.1608
0.00237500 42.3003
0.00246875 41.4892
0.00256250 40.7230
0.00265625 39.9978
0.00275000 39.3100
0.00284375 38.6565
0.00293750 38.0345
0.00303125 37.4416
0.00312500 36.8756
0.00321875 36.3345
0.00331250 35.8165
0.00340625 35.3201
0.00350000 34.8437
0.00359375 34.3862
0.00368750 33.9461
0.00378125 33.5226
0.00387500 33.1145
0.00396875 32.7210
0.00406250 32.3411
0.00425000 31.6195
0.00443750 30.9441
0.00462500 30.3102
0.00481250 29.7137
0.00500000 29.1511
0.00515625 28.7059
0.00531250 28.2805
0.00546875 27.8734
0.00562500 27.4835
0.00578125 27.1094
0.00593750 26.7502
0.00609375 26.4050
0.00625000 26.0727
0.00640625 25.7527
0.00656250 25.4442
0.00671875 25.1465
0.00687500 24.8590
0.00718750 24.3124
0.00750000 23.8003
0.00781250 23.3193
0.00812500 22.8662
0.00843750 22.4386
0.00875000 22.0340
0.00906250 21.6506
0.00937500 21.2864
0.00968750 20.9401
0.0100000 20.6101
0.0103125 20.2952
0.0106250 19.9943
0.0109375 19.7064
0.0112500 19.4306
0.0115625 19.1661
0.0118750 18.9121
0.0121875 18.6679
0.0125000 18.4330
0.0128125 18.2067
0.0131250 17.9885
0.0134375 17.7780
0.0137500 17.5747
0.0143750 17.1882
0.0150000 16.8261
0.0156250 16.4859
0.0162500 16.1655
0.0168750 15.8630
0.0175000 15.5768
0.0181250 15.3056
0.0187500 15.0480
0.0193750 14.8030
0.0200000 14.5696
0.0206625 14.3339
0.0213250 14.1092
0.0219875 13.8947
0.0226500 13.6897
0.0233125 13.4935
0.0239750 13.3055
0.0246375 13.1252
0.0253000 12.9519
0.0264578 12.6650
0.0276156 12.3963
0.0287734 12.1440
0.0299313 11.9064
0.0310891 11.6824
0.0322469 11.4705
0.0334047 11.2697
0.0345625 11.0791
0.0355274 10.9274
0.0364922 10.7817
0.0374570 10.6416
0.0384219 10.5069
0.0393867 10.3771
0.0403516 10.2520
0.0413164 10.1313
0.0422813 10.0148
0.0442109 9.79319
0.0461406 9.58567
0.0480703 9.39078
0.0500000 9.20727
0.0515625 9.06629
0.0531250 8.93158
0.0546875 8.80267
0.0562500 8.67918
0.0578125 8.56072
0.0593750 8.44698
0.0609375 8.33764
0.0625000 8.23244
0.0640625 8.13113
0.0656250 8.03348
0.0671875 7.93927
0.0687500 7.84829
0.0718750 7.67529
0.0750000 7.51313
0.0781250 7.36073
0.0812500 7.21717
0.0843750 7.08165
0.0875000 6.95345
0.0906250 6.83193
0.0937500 6.71653
0.0968750 6.60676
0.100000 6.50217
0.103125 6.40237
0.106250 6.30700
0.109375 6.21574
0.112500 6.12831
0.115625 6.04444
0.118750 5.96390
0.121875 5.88648
0.125000 5.81198
0.128125 5.74024
0.131250 5.67110
0.134375 5.60441
0.137500 5.54001
0.143750 5.41754
0.150000 5.30270
0.156250 5.19475
0.162500 5.09307
0.168750 4.99709
0.175000 4.90629
0.181250 4.82022
0.187500 4.73850
0.193750 4.66080
0.200000 4.58681
0.209375 4.48207
0.218750 4.38402
0.228125 4.29205
0.237500 4.20557
0.246875 4.12405
0.256250 4.04705
0.265625 3.97415
0.275000 3.90501
0.284375 3.83932
0.293750 3.77679
0.303125 3.71718
0.312500 3.66027
0.321875 3.60587
0.331250 3.55378
0.340625 3.50387
0.350000 3.45597
0.359375 3.40995
0.368750 3.36570
0.378125 3.32311
0.387500 3.28208
0.396875 3.24255
0.406250 3.20445
0.425000 3.13200
0.443750 3.06407
0.462500 3.00031
0.500000 2.88395
0.531250 2.79659
0.562500 2.71644
0.593750 2.64274
0.625000 2.57467
0.687500 2.45285
0.750000 2.34676
0.812500 2.25333
0.875000 2.17049
0.937500 2.09626
1.00000 2.02910
1.06250 1.96816
1.12500 1.91259
1.18750 1.86170
1.25000 1.81489
1.37500 1.73173
1.50000 1.66013
1.62500 1.59795
1.75000 1.54369
1.87500 1.49602
2.00000 1.45386
2.18750 1.39975
2.37500 1.35503
2.56250 1.31837
2.75000 1.28896
2.93750 1.26609
3.12500 1.24929
3.31250 1.23848
3.50000 1.23366
3.68750 1.23503
3.87500 1.24295
4.06250 1.25801
4.25000 1.28105
4.43750 1.31302
4.53125 1.33280
4.62500 1.35567
4.71875 1.38176
4.81250 1.41137
4.90625 1.44490
5.00000 1.48278
5.11778 1.53742
5.23556 1.60107
5.35334 1.67532
5.47112 1.76214
5.53001 1.81100
5.58890 1.86401
5.64779 1.92153
5.70668 1.98406
5.76557 2.05217
5.82446 2.12639
5.88335 2.20712
5.94224 2.29528
6.00394 2.39733
6.06563 2.51021
6.12733 2.63528
6.18902 2.77428
6.25072 2.92928
6.31241 3.10276
6.37411 3.29770
6.43580 3.51770
6.48908 3.73126
6.54236 3.97024
6.59565 4.23879
6.62229 4.38570
6.64893 4.54197
6.67557 4.70841
6.70221 4.88590
6.72885 5.07534
6.75549 5.27776
6.78213 5.49435
6.80877 5.72664
6.83541 5.97639
6.86205 6.24549
6.89290 6.58390
6.92375 6.95440
6.95460 7.36110
6.98544 7.80883
7.01629 8.30334
7.04714 8.85136
7.07799 9.46096
7.10883 10.1418
7.13828 10.8687
7.15300 11.2641
7.16772 11.6831
7.18245 12.1277
7.19717 12.5999
7.21189 13.1022
7.22661 13.6369
7.24134 14.2072
7.25606 14.8161
7.27078 15.4672
7.28550 16.1645
7.30023 16.9126
7.31495 17.7164
7.32967 18.5819
7.34439 19.5157
7.35982 20.5755
7.37524 21.7286
7.39067 22.9862
7.40609 24.3614
7.42151 25.8696
7.43694 27.5285
7.45236 29.3591
7.46778 31.3861
7.48321 33.6390
7.49092 34.8610
7.49863 36.1532
7.50634 37.5212
7.51405 38.9711
7.52177 40.5096
7.52948 42.1441
7.53719 43.8832
7.54490 45.7359
7.55261 47.7125
7.56032 49.8243
7.56804 52.0847
7.57575 54.5078
7.58346 57.1101
7.59117 59.9096
7.60099 63.7923
7.61080 68.0799
7.62062 72.8321
7.63043 78.1206
7.63534 80.9925
7.64025 84.0315
7.64515 87.2525
7.65006 90.6693
7.65497 94.3000
7.65988 98.1616
7.66478 102.276
7.66969 106.665
7.67740 114.181
7.68512 122.555
7.68897 127.104
7.69283 131.921
7.69668 137.027
7.70054 142.443
7.70440 148.197
7.70825 154.314
7.71211 160.825
7.71596 167.762
7.71982 175.162
7.72368 183.061
7.72753 191.502
7.73139 200.528
7.73507 209.738
7.73875 219.572
7.74243 230.077
7.74611 241.302
7.74979 253.308
7.75347 266.146
7.75715 279.878
7.76083 294.561
7.76451 310.265
7.76819 327.053
7.77188 344.989
7.77556 364.136
7.77924 384.568
7.78292 406.338
7.78660 429.519
7.79028 454.154
7.79413 481.590
7.79799 510.737
7.80185 541.633
7.80570 574.307
7.80956 608.769
7.81341 645.017
7.81727 683.023
7.82112 722.733
7.82410 754.559
7.82708 787.313
7.83006 820.966
7.83304 855.431
7.83602 890.661
7.83900 926.549
7.84198 963.026
7.84496 999.965
7.84882 1048.30
7.85267 1096.96
7.85653 1145.66
7.86038 1194.07
7.86432 1242.88
7.86826 1290.68
7.87220 1337.05
7.87614 1381.60
7.88030 1426.25
7.88446 1467.94
7.88862 1506.25
7.89278 1540.75
7.89958 1587.97
7.90299 1606.88
7.90639 1622.45
7.90979 1634.55
7.91319 1643.08
7.91660 1647.98
7.92000 1649.20
7.92605 1642.28
7.93210 1623.93
7.93815 1594.61
7.94420 1555.10
7.94871 1519.57
7.95323 1479.40
7.95774 1435.12
7.96225 1387.29
7.96677 1336.51
7.97128 1283.38
7.97579 1228.48
7.98030 1172.40
7.98576 1103.80
7.99122 1035.19
7.99667 967.387
8.00213 901.107
8.00758 836.956
8.01304 775.423
8.01850 716.890
8.02395 661.627
8.02941 609.807
8.03486 561.517
8.04032 516.763
8.04578 475.489
8.05123 437.589
8.05669 402.914
8.06214 371.288
8.06760 342.515
8.07306 316.388
8.07851 292.697
8.08397 271.235
8.08942 251.798
8.09488 234.196
8.10034 218.248
8.10579 203.787
8.11125 190.661
8.11571 180.813
8.12018 171.694
8.12464 163.240
8.12910 155.393
8.13357 148.100
8.13803 141.312
8.14250 134.986
8.14696 129.081
8.15142 123.562
8.15589 118.397
8.16035 113.556
8.16482 109.013
8.16928 104.744
8.17374 100.727
8.17821 96.9418
8.18267 93.3715
8.18813 89.2758
8.19358 85.4502
8.19904 81.8710
8.20450 78.5172
8.20995 75.3698
8.21541 72.4121
8.22086 69.6287
8.22632 67.0061
8.23178 64.5318
8.23723 62.1947
8.24814 57.8927
8.25906 54.0294
8.26997 50.5469
8.28187 47.1241
8.29377 44.0427
8.30568 41.2584
8.31758 38.7338
8.32949 36.4373
8.34139 34.3420
8.35329 32.4248
8.36520 30.6660
8.37611 29.1780
8.38702 27.7969
8.39793 26.5128
8.40885 25.3167
8.41976 24.2006
8.43067 23.1576
8.44158 22.1813
8.45249 21.2663
8.46341 20.4074
8.47432 19.6002
8.48523 18.8406
8.49614 18.1250
8.50705 17.4499
8.51797 16.8125
8.53979 15.6397
8.56161 14.5873
8.58344 13.6394
8.60526 12.7825
8.62708 12.0055
8.64891 11.2986
8.67073 10.6536
8.69256 10.0637
8.71438 9.52261
8.73124 9.13470
8.74811 8.77074
8.76497 8.42883
8.78184 8.10719
8.79870 7.80423
8.81556 7.51848
8.83243 7.24862
8.84929 6.99349
8.88302 6.52318
8.91675 6.10029
8.95047 5.71875
8.98420 5.37341
9.00602 5.16714
9.02785 4.97311
9.04967 4.79037
9.07150 4.61807
9.09332 4.45542
9.11514 4.30172
9.15879 4.01866
9.20244 3.76435
9.24609 3.53505
9.28974 3.32758
9.33338 3.13926
9.36314 3.02064
9.39290 2.90923
9.42266 2.80444
9.45242 2.70579
9.48218 2.61282
9.51194 2.52515
9.57146 2.36412
9.63098 2.21963
9.69050 2.08932
9.75002 1.97154
9.80954 1.86481
9.85715 1.78646
9.90477 1.71373
9.95239 1.64611
10.0000 1.58316
10.0537 1.51716
10.1074 1.45593
10.1611 1.39903
10.2149 1.34608
10.2686 1.29673
10.3223 1.25065
10.3760 1.20757
10.4297 1.16722
10.4834 1.12936
10.5371 1.09382
10.6445 1.02890
10.7520 0.971184
10.8594 0.919629
10.9326 0.887559
11.0059 0.857722
11.0791 0.829906
11.1524 0.803930
11.2988 0.756870
11.4453 0.715679
11.5918 0.679008
11.7383 0.646298
11.8848 0.617040
12.0313 0.590749
12.1484 0.571587
12.2656 0.553889
12.3828 0.537498
12.5000 0.522295
12.6563 0.503673
12.8125 0.486718
12.9688 0.471230
13.1250 0.457040
13.2813 0.444003
13.4375 0.432061
13.7500 0.410769
14.0625 0.392398
14.3750 0.376499
14.6875 0.362659
15.0000 0.350559
15.3125 0.339946
15.6250 0.330620
15.9375 0.322420
16.2500 0.315218
16.5625 0.308911
16.8750 0.303415
17.1875 0.298666
17.5000 0.294610
17.9688 0.289761
18.4375 0.286251
18.9063 0.284110
19.3750 0.283256
19.6875 0.283447
20.0000 0.284261
20.4508 0.286608
20.9015 0.290396
21.3522 0.295828
21.8030 0.303168
22.2537 0.312636
22.4791 0.318361
22.7045 0.324751
22.9298 0.331914
23.1552 0.340015
23.3806 0.349046
23.6059 0.359120
23.8518 0.371573
24.0977 0.385509
24.3435 0.401523
24.5894 0.419773
24.8352 0.440635
25.0811 0.464574
25.2040 0.477873
25.3270 0.492169
25.4499 0.507557
25.5728 0.524144
25.7470 0.549937
25.9211 0.578785
26.0953 0.611168
26.2694 0.647671
26.4436 0.688966
26.5307 0.711596
26.6177 0.735729
26.7048 0.761612
26.7919 0.789383
26.8790 0.819188
26.9660 0.851209
27.0787 0.896312
27.1914 0.946061
27.3041 1.00112
27.4168 1.06226
27.5295 1.13042
27.6421 1.20669
27.6985 1.24828
27.7548 1.29243
27.8112 1.33934
27.8675 1.38926
27.9546 1.47295
28.0417 1.56556
28.1287 1.66841
28.2158 1.78300
28.3029 1.91114
28.3464 1.98095
28.3900 2.05504
28.4335 2.13382
28.4770 2.21772
28.5206 2.30717
28.5641 2.40264
28.6205 2.53609
28.6768 2.68188
28.7331 2.84162
28.7895 3.01715
28.8458 3.21068
28.9022 3.42468
28.9585 3.66220
29.0149 3.92685
29.0686 4.20880
29.0955 4.36187
29.1224 4.52387
29.1493 4.69550
29.1762 4.87754
29.2031 5.07087
29.2300 5.27643
29.2569 5.49535
29.2838 5.72865
29.3107 5.97770
29.3376 6.24396
29.3644 6.52908
29.3913 6.83490
29.4182 7.16355
29.4451 7.51738
29.4733 7.91818
29.5015 8.35301
29.5296 8.82605
29.5578 9.34197
29.5860 9.90616
29.6141 10.5249
29.6423 11.2055
29.6705 11.9567
29.6987 12.7890
29.7268 13.7141
29.7409 14.2162
29.7550 14.7468
29.7691 15.3092
29.7832 15.9051
29.7973 16.5380
29.8113 17.2104
29.8254 17.9266
29.8395 18.6895
29.8536 19.5045
29.8677 20.3755
29.8818 21.3092
29.8959 22.3104
29.9151 23.7994
29.9343 25.4498
29.9535 27.2867
29.9631 28.2851
29.9727 29.3411
29.9823 30.4618
29.9919 31.6506
30.0015 32.9160
30.0111 34.2623
30.0207 35.7002
30.0303 37.2355
30.0399 38.8795
30.0495 40.6438
30.0636 43.4787
30.0707 45.0178
30.0777 46.6477
30.0847 48.3791
30.0918 50.2158
30.0988 52.1702
30.1059 54.2532
30.1129 56.4805
30.1200 58.8597
30.1270 61.4093
30.1340 64.1467
30.1411 67.0916
30.1481 70.2658
30.1552 73.6939
30.1622 77.4032
30.1683 80.8624
30.1744 84.5706
30.1805 88.5640
30.1865 92.8557
30.1926 97.4887
30.1987 102.479
30.2048 107.867
30.2078 110.722
30.2109 113.691
30.2139 116.788
30.2170 120.000
30.2200 123.340
30.2230 126.816
30.2261 130.432
30.2291 134.195
30.2322 138.110
30.2352 142.185
30.2382 146.439
30.2413 150.853
30.2443 155.445
30.2474 160.224
30.2504 165.196
30.2534 170.369
30.2565 175.751
30.2595 181.348
30.2619 185.944
30.2643 190.665
30.2667 195.533
30.2691 200.552
30.2715 205.726
30.2739 211.060
30.2763 216.556
30.2787 222.220
30.2811 228.080
30.2835 234.090
30.2883 246.653
30.2931 259.965
30.2979 274.055
30.3005 281.900
30.3031 289.978
30.3056 298.296
30.3082 306.858
30.3117 319.069
30.3152 331.724
30.3188 344.866
30.3223 358.503
30.3258 372.643
30.3293 387.294
30.3328 402.460
30.3364 418.146
30.3399 434.404
30.3434 451.142
30.3469 468.407
30.3504 486.199
30.3540 504.514
30.3575 523.350
30.3610 542.700
30.3645 562.556
30.3681 582.969
30.3716 603.810
30.3786 646.895
30.3857 691.734
30.3927 738.161
30.3997 786.041
30.4068 834.998
30.4138 884.824
30.4209 935.212
30.4279 985.894
30.4350 1036.36
30.4490 1135.25
30.4631 1228.69
30.4702 1272.21
30.4772 1313.06
30.4835 1347.16
30.4899 1378.41
30.4962 1406.66
30.5025 1431.55
30.5111 1459.73
30.5197 1480.89
30.5283 1494.71
30.5369 1500.94
30.5400 1501.30
30.5463 1498.96
30.5525 1492.56
30.5619 1475.45
30.5713 1449.70
30.5807 1415.84
30.5901 1374.54
30.5965 1342.48
30.6029 1307.66
30.6093 1270.35
30.6157 1230.85
30.6233 1181.81
30.6308 1130.71
30.6460 1024.44
30.6588 932.726
30.6716 841.797
30.6844 753.586
30.6971 669.730
30.7035 629.765
30.7099 591.288
30.7163 554.390
30.7227 519.192
30.7291 485.629
30.7355 453.786
30.7419 423.672
30.7483 395.323
30.7565 361.621
30.7646 330.641
30.7687 316.090
30.7728 302.206
30.7768 288.938
30.7809 276.268
30.7850 264.150
30.7891 252.626
30.7931 241.646
30.7972 231.193
30.8013 221.246
30.8053 211.787
30.8094 202.796
30.8135 194.254
30.8199 181.684
30.8263 170.104
30.8327 159.444
30.8391 149.634
30.8455 140.610
30.8519 132.308
30.8583 124.671
30.8647 117.653
30.8711 111.182
30.8775 105.220
30.8839 99.7225
30.8903 94.6493
30.8967 89.9624
30.9031 85.6272
30.9095 81.6121
30.9159 77.8940
30.9223 74.4350
30.9287 71.2176
30.9351 68.2202
30.9415 65.4235
30.9479 62.8097
30.9543 60.3631
30.9607 58.0694
30.9670 55.9189
30.9734 53.8934
30.9798 51.9857
30.9926 48.4896
31.0054 45.3600
31.0182 42.5484
31.0299 40.2268
31.0415 38.1045
31.0531 36.1545
31.0648 34.3606
31.0764 32.7027
31.0880 31.1692
31.0997 29.7461
31.1113 28.4225
31.1229 27.1880
31.1346 26.0362
31.1462 24.9588
31.1578 23.9492
31.1695 23.0009
31.1811 22.1103
31.1927 21.2720
31.2044 20.4819
31.2172 19.6635
31.2300 18.8945
31.2428 18.1709
31.2555 17.4896
31.2683 16.8464
31.2811 16.2393
31.3067 15.1213
31.3323 14.1169
31.3579 13.2118
31.3835 12.3927
31.4091 11.6489
31.4254 11.2105
31.4417 10.7969
31.4580 10.4063
31.4742 10.0371
31.5068 9.35614
31.5394 8.74370
31.5720 8.19048
31.6045 7.68927
31.6371 7.23352
31.6697 6.81783
31.6953 6.51620
31.7209 6.23462
31.7465 5.97125
31.7721 5.72457
31.7977 5.49309
31.8232 5.27577
31.8488 5.07140
31.8744 4.87896
31.9000 4.69747
31.9256 4.52626
31.9512 4.36449
31.9768 4.21147
32.0280 3.92924
32.0792 3.67531
32.1304 3.44592
32.1815 3.23806
32.2327 3.04910
32.2839 2.87686
32.3351 2.71937
32.3863 2.57504
32.4375 2.44248
32.4887 2.32047
32.5375 2.21279
32.5864 2.11284
32.6352 2.01985
32.6841 1.93318
32.7330 1.85228
32.7818 1.77666
32.8307 1.70588
32.8795 1.63956
32.9284 1.57732
32.9773 1.51885
33.0261 1.46383
33.0750 1.41202
33.1238 1.36316
33.1727 1.31703
33.2704 1.23222
33.3728 1.15274
33.4752 1.08157
33.5775 1.01758
33.6799 0.959853
33.7823 0.907596
33.8847 0.860157
33.9870 0.816963
34.0894 0.777532
34.1778 0.746199
34.2662 0.717176
34.3546 0.690233
34.4430 0.665113
34.5315 0.641635
34.6199 0.619692
34.7083 0.599172
34.7967 0.579961
34.9735 0.545053
35.1503 0.514248
35.3272 0.486949
35.5040 0.462673
35.7087 0.437806
35.9135 0.415932
36.1182 0.396624
36.3230 0.379537
36.5277 0.364380
36.7325 0.350912
36.9372 0.338934
37.1420 0.328336
37.3281 0.319739
37.5142 0.311927
37.7004 0.304916
37.8865 0.298647
38.0726 0.293028
38.2587 0.288042
38.6310 0.279738
39.0033 0.273451
39.3755 0.268960
39.7478 0.266108
40.1201 0.264804
40.5296 0.265104
40.9390 0.267195
41.3485 0.271137
41.7580 0.277052
41.9628 0.280798
42.1675 0.285115
42.3723 0.290049
42.5770 0.295629
42.7818 0.301915
42.9865 0.308983
43.1912 0.316890
43.3960 0.325722
43.6193 0.336519
43.8427 0.348619
44.0661 0.362396
44.2894 0.377999
44.5128 0.395703
44.7361 0.415857
44.9595 0.438893
45.0712 0.451656
45.1829 0.465351
45.3597 0.489171
45.5365 0.515982
45.7133 0.546301
45.8017 0.562968
45.8902 0.580763
45.9786 0.599791
46.0670 0.620164
46.1554 0.642009
46.2438 0.665453
46.3322 0.690647
46.4206 0.717794
46.5090 0.747164
46.5975 0.779029
46.6998 0.819403
46.8022 0.863977
46.9046 0.913367
47.0069 0.968310
47.1093 1.02970
47.2117 1.09859
47.2629 1.13626
47.3141 1.17632
47.3653 1.21899
47.4164 1.26449
47.4955 1.34103
47.5747 1.42613
47.6538 1.52111
47.7329 1.62758
47.7724 1.68572
47.8120 1.74749
47.8515 1.81324
47.8911 1.88331
47.9306 1.95816
47.9702 2.03819
48.0097 2.12394
48.0493 2.21597
48.1005 2.34544
48.1517 2.48807
48.2028 2.64577
48.2540 2.82072
48.3052 3.01567
48.3308 3.12159
48.3564 3.23375
48.3820 3.35272
48.4076 3.47896
48.4332 3.61314
48.4588 3.75596
48.5006 4.01037
48.5425 4.29391
48.5635 4.44805
48.5844 4.61132
48.6053 4.78447
48.6263 4.96833
48.6472 5.16385
48.6682 5.37204
48.6891 5.59406
48.7100 5.83121
48.7310 6.08493
48.7519 6.35686
48.7729 6.64884
48.7938 6.96296
48.8194 7.38054
48.8450 7.83962
48.8706 8.34649
48.8962 8.90785
48.9218 9.53266
48.9346 9.87194
48.9474 10.2308
48.9602 10.6114
48.9730 11.0151
48.9858 11.4446
48.9986 11.9015
49.0114 12.3891
49.0242 12.9102
49.0370 13.4679
49.0497 14.0658
49.0625 14.7092
49.0753 15.4022
49.0881 16.1518
49.1009 16.9637
49.1137 17.8475
49.1265 18.8120
49.1393 19.8686
49.1521 21.0299
49.1649 22.3139
49.1777 23.7378
49.1905 25.3269
49.2033 27.1064
49.2097 28.0788
49.2161 29.1121
49.2225 30.2113
49.2289 31.3822
49.2353 32.6307
49.2417 33.9636
49.2481 35.3882
49.2545 36.9096
49.2609 38.5413
49.2673 40.2901
49.2737 42.1659
49.2801 44.1793
49.2865 46.3419
49.2929 48.6657
49.2993 51.1640
49.3057 53.8464
49.3121 56.7359
49.3185 59.8442
49.3249 63.1879
49.3313 66.7842
49.3377 70.6512
49.3441 74.8079
49.3505 79.2738
49.3569 84.0614
49.3633 89.2062
49.3697 94.7223
49.3761 100.631
49.3825 106.943
49.3889 113.701
49.3953 120.915
49.4017 128.606
49.4080 136.782
49.4127 143.068
49.4174 149.620
49.4220 156.474
49.4267 163.605
49.4313 171.050
49.4360 178.782
49.4406 186.821
49.4453 195.171
49.4499 203.853
49.4546 212.831
49.4592 222.126
49.4639 231.737
49.4685 241.685
49.4732 251.925
49.4778 262.474
49.4825 273.328
49.4883 287.334
49.4941 301.794
49.5000 316.690
49.5058 331.973
49.5122 349.256
49.5186 366.971
49.5250 385.075
49.5314 403.517
49.5378 422.243
49.5442 441.164
49.5569 479.442
49.5697 517.810
49.5825 555.599
49.5953 592.128
49.6081 626.659
49.6209 658.535
49.6337 687.013
49.6450 708.800
49.6563 727.059
49.6633 736.540
49.6703 744.438
49.6774 750.706
49.6844 755.300
49.6922 758.399
49.7000 759.359
49.7125 756.433
49.7219 750.669
49.7313 741.939
49.7406 730.342
49.7500 716.054
49.7608 696.577
49.7715 674.137
49.7822 649.058
49.7930 621.781
49.8037 592.697
49.8145 562.226
49.8252 530.788
49.8359 498.790
49.8574 434.603
49.8789 372.459
49.8872 349.434
49.8955 327.161
49.9038 305.693
49.9121 285.096
49.9204 265.422
49.9287 246.710
49.9370 228.983
49.9453 212.256
49.9522 199.223
49.9590 186.884
49.9658 175.194
49.9727 164.175
49.9795 153.780
49.9863 144.023
49.9932 134.854
50.0000 126.278
50.0050 120.308
50.0101 114.631
50.0151 109.237
50.0202 104.126
50.0252 99.2672
50.0302 94.6606
50.0353 90.2958
50.0403 86.1706
50.0453 82.2582
50.0504 78.5570
50.0554 75.0570
50.0605 71.7548
50.0655 68.6280
50.0705 65.6738
50.0756 62.8835
50.0806 60.2532
50.0854 57.8748
50.0902 55.6230
50.0950 53.4910
50.0998 51.4764
50.1046 49.5646
50.1095 47.7540
50.1191 44.4170
50.1287 41.4162
50.1383 38.7197
50.1479 36.2874
50.1575 34.0939
50.1671 32.1073
50.1768 30.3075
50.1864 28.6694
50.1960 27.1777
50.2056 25.8128
50.2152 24.5630
50.2248 23.4131
50.2344 22.3544
50.2445 21.3301
50.2546 20.3853
50.2647 19.5099
50.2747 18.6981
50.2848 17.9421
50.2949 17.2376
50.3050 16.5792
50.3150 15.9625
50.3251 15.3831
50.3352 14.8390
50.3453 14.3261
50.3553 13.8429
50.3755 12.9541
50.3956 12.1573
50.4112 11.5958
50.4268 11.0763
50.4423 10.5945
50.4579 10.1471
50.4735 9.73008
50.4890 9.34102
50.5046 8.97739
50.5202 8.63717
50.5357 8.31795
50.5513 8.01820
50.5669 7.73634
50.5824 7.47113
50.6136 6.98482
50.6447 6.55085
50.6649 6.29432
50.6850 6.05494
50.7052 5.83125
50.7253 5.62201
50.7454 5.42585
50.7656 5.24191
50.7857 5.06905
50.8059 4.90659
50.8462 4.60946
50.8865 4.34530
50.9268 4.10963
50.9670 3.89876
50.9945 3.76757
51.0220 3.64569
51.0495 3.53230
51.0769 3.42674
51.1044 3.32837
51.1319 3.23673
51.1868 3.07156
51.2418 2.92781
51.2967 2.80276
51.3517 2.69415
51.4066 2.60016
51.4652 2.51435
51.5238 2.44202
51.5824 2.38199
51.6410 2.33333
51.6996 2.29526
51.7582 2.26727
51.8169 2.24896
51.8755 2.24013
51.9560 2.24338
51.9963 2.25177
52.0366 2.26479
52.0769 2.28258
52.1172 2.30532
52.1575 2.33323
52.1978 2.36659
52.2381 2.40576
52.2784 2.45110
52.3187 2.50311
52.3590 2.56233
52.3993 2.62943
52.4396 2.70519
52.4799 2.79053
52.5202 2.88658
52.5605 2.99468
52.6007 3.11635
52.6410 3.25351
52.6813 3.40840
52.7216 3.58380
52.7619 3.78294
52.8022 4.00996
52.8224 4.13550
52.8425 4.26994
52.8773 4.52590
52.8947 4.66645
52.9121 4.81635
52.9295 4.97646
52.9469 5.14772
52.9643 5.33121
52.9817 5.52812
52.9991 5.73985
53.0165 5.96796
53.0339 6.21425
53.0513 6.48079
53.0687 6.76998
53.0861 7.08464
53.1035 7.42807
53.1209 7.80396
53.1410 8.28653
53.1612 8.82790
53.1713 9.12442
53.1813 9.43986
53.1914 9.77639
53.2015 10.1362
53.2115 10.5221
53.2216 10.9361
53.2317 11.3820
53.2418 11.8632
53.2518 12.3847
53.2619 12.9502
53.2720 13.5659
53.2820 14.2382
53.2912 14.9052
53.3004 15.6314
53.3095 16.4240
53.3187 17.2912
53.3278 18.2421
53.3370 19.2869
53.3462 20.4371
53.3553 21.7041
53.3645 23.1047
53.3736 24.6535
53.3828 26.3678
53.3919 28.2642
53.4011 30.3676
53.4103 32.6984
53.4194 35.2805
53.4286 38.1361
53.4336 39.8367
53.4387 41.6340
53.4437 43.5327
53.4487 45.5335
53.4538 47.6495
53.4588 49.8770
53.4638 52.2302
53.4689 54.7046
53.4739 57.3152
53.4789 60.0621
53.4840 62.9504
53.4890 65.9788
53.4941 69.1641
53.4991 72.4982
53.5041 75.9988
53.5092 79.6562
53.5142 83.4888
53.5192 87.4932
53.5293 96.0210
53.5394 105.278
53.5495 115.258
53.5595 125.986
53.5696 137.433
53.5797 149.592
53.5897 162.432
53.5966 171.558
53.6035 180.962
53.6104 190.621
53.6172 200.510
53.6241 210.602
53.6310 220.863
53.6378 231.260
53.6447 241.738
53.6534 255.103
53.6621 268.468
53.6708 281.739
53.6795 294.815
53.6896 309.568
53.6996 323.755
53.7097 337.208
53.7198 349.762
53.7299 361.268
53.7399 371.552
53.7493 379.880
53.7586 386.953
53.7686 393.028
53.7785 397.487
53.7893 400.414
53.8000 401.347
53.8108 400.266
53.8215 397.187
53.8298 393.505
53.8380 388.721
53.8463 382.877
53.8545 376.027
53.8691 361.668
53.8836 344.795
53.8982 325.857
53.9127 305.345
53.9260 285.734
53.9392 265.621
53.9524 245.342
53.9656 225.220
53.9802 203.599
53.9948 182.853
54.0093 163.226
54.0166 153.888
54.0239 144.910
54.0325 134.756
54.0411 125.122
54.0497 116.019
54.0583 107.451
54.0669 99.4149
54.0755 91.9047
54.0841 84.9090
54.0926 78.4202
54.0999 73.2981
54.1072 68.5091
54.1145 64.0399
54.1218 59.8821
54.1290 56.0097
54.1363 52.4185
54.1436 49.0835
54.1509 45.9988
54.1581 43.1410
54.1654 40.4999
54.1727 38.0610
54.1800 35.8135
54.1872 33.7377
54.1945 31.8267
54.2018 30.0630
54.2091 28.4398
54.2163 26.9418
54.2236 25.5611
54.2309 24.2880
54.2382 23.1153
54.2455 22.0313
54.2527 21.0301
54.2600 20.1045
54.2673 19.2491
54.2746 18.4557
54.2818 17.7198
54.2891 17.0366
54.2964 16.4022
54.3037 15.8108
54.3110 15.2594
54.3182 14.7446
54.3255 14.2639
54.3394 13.4277
54.3533 12.6868
54.3672 12.0264
54.3811 11.4348
54.3950 10.9025
54.4089 10.4215
54.4227 9.98498
54.4366 9.58755
54.4505 9.22451
54.4644 8.89193
54.4783 8.58650
54.4922 8.30536
54.5061 8.04608
54.5200 7.80655
54.5339 7.58493
54.5478 7.37963
54.5650 7.14594
54.5822 6.93282
54.5994 6.73825
54.6166 6.56053
54.6338 6.39814
54.6510 6.24976
54.6854 5.99058
54.7198 5.77528
54.7542 5.59783
54.7886 5.45346
54.8229 5.33842
54.8547 5.25562
54.8864 5.19336
54.9182 5.15016
54.9499 5.12484
54.9791 5.11659
55.0082 5.12213
55.0373 5.14109
55.0664 5.17327
55.0955 5.21859
55.1246 5.27708
55.1537 5.34894
55.1828 5.43441
55.2119 5.53397
55.2410 5.64813
55.2701 5.77758
55.2992 5.92311
55.3283 6.08579
55.3574 6.26672
55.3865 6.46739
55.4156 6.68928
55.4500 6.98166
55.4844 7.31014
55.5188 7.67914
55.5532 8.09394
55.5876 8.56090
55.6220 9.08770
55.6564 9.68365
55.6736 10.0110
55.6908 10.3599
55.7199 11.0057
55.7490 11.7293
55.7636 12.1246
55.7782 12.5441
55.7927 12.9902
55.8073 13.4651
55.8218 13.9718
55.8364 14.5124
55.8509 15.0906
55.8655 15.7100
55.8800 16.3753
55.8946 17.0903
55.9091 17.8609
55.9237 18.6936
55.9349 19.3846
55.9462 20.1210
55.9574 20.9073
55.9687 21.7478
55.9799 22.6496
55.9912 23.6180
56.0024 24.6622
56.0136 25.7892
56.0249 27.0112
56.0361 28.3390
56.0474 29.7865
56.0586 31.3680
56.0699 33.1050
56.0811 35.0159
56.0924 37.1291
56.1036 39.4700
56.1109 41.1241
56.1182 42.8986
56.1255 44.8047
56.1327 46.8518
56.1400 49.0587
56.1473 51.4340
56.1546 53.9999
56.1618 56.7664
56.1691 59.7596
56.1764 62.9911
56.1837 66.4911
56.1909 70.2729
56.1982 74.3712
56.2018 76.5453
56.2055 78.8007
56.2091 81.1533
56.2128 83.6008
56.2164 86.1466
56.2200 88.7871
56.2253 92.8328
56.2306 97.1069
56.2359 101.629
56.2412 106.413
56.2465 111.480
56.2518 116.825
56.2571 122.471
56.2624 128.431
56.2677 134.730
56.2730 141.360
56.2782 148.345
56.2835 155.698
56.2888 163.433
56.2941 171.562
56.2994 180.099
56.3047 189.055
56.3090 196.669
56.3133 204.557
56.3176 212.741
56.3219 221.225
56.3262 230.015
56.3305 239.115
56.3348 248.528
56.3391 258.258
56.3431 267.523
56.3470 277.038
56.3543 295.241
56.3616 314.367
56.3689 334.409
56.3761 355.324
56.3834 377.150
56.3907 399.796
56.3980 423.288
56.4052 447.514
56.4125 472.484
56.4198 498.098
56.4271 524.283
56.4344 550.915
56.4416 577.974
56.4489 605.282
56.4635 660.342
56.4780 715.149
56.4926 768.545
56.5071 819.453
56.5217 866.632
56.5362 908.963
56.5508 945.363
56.5592 963.293
56.5676 978.740
56.5760 991.599
56.5844 1001.72
56.5972 1011.72
56.6100 1014.93
56.6196 1012.82
56.6293 1006.88
56.6389 997.172
56.6485 983.824
56.6581 967.018
56.6729 934.762
56.6878 895.655
56.7023 851.659
56.7169 803.207
56.7281 763.425
56.7394 722.251
56.7506 680.178
56.7618 637.712
56.7909 529.203
56.8055 477.335
56.8200 428.003
56.8346 381.640
56.8419 359.685
56.8491 338.631
56.8564 318.442
56.8637 299.189
56.8710 280.824
56.8782 263.400
56.8852 247.593
56.8921 232.627
56.8991 218.447
56.9060 205.075
56.9130 192.452
56.9199 180.592
56.9268 169.451
56.9338 159.002
56.9407 149.202
56.9477 140.051
56.9546 131.503
56.9615 123.529
56.9685 116.088
56.9754 109.170
56.9824 102.735
56.9893 96.7532
56.9966 90.9349
57.0039 85.5596
57.0111 80.5821
57.0184 75.9867
57.0257 71.7332
57.0330 67.8069
57.0402 64.1722
57.0475 60.8158
57.0548 57.7065
57.0621 54.8326
57.0693 52.1672
57.0766 49.7001
57.0839 47.4082
57.0912 45.2828
57.0984 43.3070
57.1057 41.4679
57.1150 39.3056
57.1242 37.3249
57.1335 35.5066
57.1427 33.8337
57.1520 32.2908
57.1613 30.8647
57.1705 29.5434
57.1798 28.3176
57.1890 27.1755
57.1983 26.1101
57.2076 25.1142
57.2168 24.1823
57.2261 23.3068
57.2353 22.4836
57.2446 21.7082
57.2538 20.9774
57.2684 19.9079
57.2829 18.9259
57.2975 18.0212
57.3120 17.1853
57.3266 16.4107
57.3411 15.6912
57.3557 15.0212
57.3702 14.3966
57.3848 13.8121
57.3993 13.2647
57.4139 12.7511
57.4284 12.2684
57.4430 11.8142
57.4575 11.3860
57.4721 10.9819
57.4866 10.6003
57.5157 9.89680
57.5448 9.26426
57.5739 8.69321
57.6030 8.17589
57.6321 7.70530
57.6612 7.27599
57.6903 6.88318
57.7194 6.52288
57.7459 6.22026
57.7723 5.93927
57.7988 5.67775
57.8252 5.43390
57.8517 5.20605
57.8781 4.99295
57.9046 4.79326
57.9310 4.60585
57.9575 4.42965
57.9839 4.26391
58.0104 4.10773
58.0368 3.96038
58.0897 3.68962
58.1426 3.44701
58.1717 3.32415
58.2008 3.20809
58.2590 2.99446
58.3172 2.80257
58.3754 2.62958
58.4336 2.47301
58.4918 2.33087
58.5500 2.20139
58.6082 2.08312
58.6558 1.99378
58.7034 1.91050
58.7510 1.83272
58.7986 1.75995
58.8462 1.69173
58.8939 1.62771
58.9415 1.56751
58.9891 1.51083
59.0367 1.45740
59.0843 1.40699
59.1795 1.31432
59.2748 1.23127
59.3700 1.15654
59.4282 1.11449
59.4864 1.07493
59.5446 1.03764
59.6028 1.00247
59.7191 0.937834
59.8355 0.879912
59.9519 0.827792
60.0683 0.780710
60.1847 0.738027
60.3011 0.699203
60.3910 0.671553
60.4810 0.645753
60.5709 0.621650
60.6608 0.599111
60.7508 0.577991
60.8407 0.558149
61.0206 0.521837
61.2005 0.489512
61.3803 0.460637
61.5602 0.434732
61.7401 0.411399
61.8565 0.397511
61.9728 0.384480
62.2056 0.360716
62.4384 0.339626
62.6712 0.320820
62.9040 0.303975
63.1367 0.288826
63.3695 0.275151
63.6023 0.262764
63.8033 0.252982
64.0044 0.243974
64.2054 0.235690
64.4064 0.227971
64.6075 0.220790
64.8085 0.214106
65.2106 0.202086
65.6126 0.191604
66.0147 0.182412
66.4168 0.174317
66.8188 0.167158
67.1574 0.161761
67.4960 0.156870
67.8346 0.152429
68.1732 0.148391
68.5118 0.144714
68.8503 0.141385
69.5275 0.135554
70.2047 0.130671
70.8818 0.126605
71.5590 0.123231
72.2362 0.120451
72.7440 0.118718
73.2519 0.117245
74.2677 0.114973
75.2834 0.113553
76.2992 0.112832
77.2303 0.112764
78.1614 0.113197
79.0925 0.114120
80.0236 0.115535
80.9547 0.117417
81.8858 0.119805
82.8169 0.122710
83.7480 0.126156
84.6791 0.130219
85.6102 0.134929
86.5413 0.140380
87.4724 0.146686
88.4035 0.153932
89.3346 0.162324
89.8002 0.166988
90.2657 0.172044
90.7313 0.177474
91.1968 0.183319
91.8317 0.192098
92.4665 0.201901
93.1014 0.212890
93.7362 0.225245
94.0537 0.231916
94.3711 0.239098
94.6885 0.246767
95.0059 0.254952
95.3233 0.263704
95.6408 0.273075
95.9582 0.283127
96.2756 0.293928
96.7412 0.311291
97.2067 0.330724
97.6723 0.352579
97.9050 0.364547
98.1378 0.377289
98.3706 0.390875
98.6034 0.405384
98.8361 0.420906
99.0689 0.437534
99.3017 0.455384
99.5345 0.474579
99.7672 0.495254
100.000 0.517528
100.300 0.548919
100.599 0.583840
100.898 0.622822
101.198 0.666497
101.348 0.690361
101.497 0.715696
101.647 0.742622
101.797 0.771245
101.946 0.801748
102.096 0.834389
102.246 0.869386
102.396 0.906931
102.579 0.956637
102.762 1.01103
102.945 1.07072
103.127 1.13640
103.310 1.20899
103.493 1.28946
103.676 1.37902
103.859 1.47903
104.026 1.58060
104.192 1.69387
104.275 1.75547
104.359 1.82073
104.442 1.88994
104.525 1.96336
104.608 2.04151
104.691 2.12470
104.774 2.21338
104.858 2.30789
104.941 2.40901
105.024 2.51725
105.107 2.63336
105.190 2.75800
105.282 2.90638
105.373 3.06777
105.465 3.24370
105.556 3.43596
105.648 3.64663
105.739 3.87815
105.831 4.13339
105.922 4.41540
105.997 4.66942
106.072 4.94643
106.147 5.25012
106.222 5.58313
106.296 5.95041
106.334 6.14793
106.371 6.35576
106.409 6.57525
106.446 6.80603
106.484 7.04956
106.521 7.30682
106.546 7.48697
106.571 7.67408
106.596 7.86850
106.621 8.06981
106.646 8.28005
106.671 8.49796
106.696 8.72579
106.721 8.96221
106.738 9.13633
106.756 9.31572
106.774 9.50061
106.791 9.69012
106.809 9.88665
106.827 10.0894
106.844 10.2986
106.862 10.5134
106.879 10.7223
106.895 10.9377
106.912 11.1613
106.929 11.3905
106.945 11.6285
106.962 11.8728
106.985 12.2231
107.008 12.5878
107.019 12.7782
107.030 12.9714
107.042 13.1691
107.053 13.3715
107.065 13.5806
107.076 13.7929
107.088 14.0123
107.099 14.2351
107.111 14.4655
107.122 14.6997
107.133 14.9418
107.145 15.1880
107.156 15.4428
107.168 15.7020
107.179 15.9703
107.191 16.2433
107.202 16.5261
107.214 16.8141
107.225 17.1098
107.236 17.4138
107.249 17.7568
107.261 18.1103
107.274 18.4749
107.286 18.8480
107.299 19.2360
107.311 19.6366
107.324 20.0503
107.336 20.4742
107.348 20.8800
107.359 21.2947
107.371 21.7262
107.382 22.1676
107.393 22.6271
107.405 23.0975
107.416 23.5834
107.428 24.0855
107.439 24.6091
107.451 25.1459
107.462 25.7014
107.473 26.2763
107.485 26.8771
107.496 27.4942
107.508 28.1340
107.519 28.7976
107.531 29.4924
107.542 30.2077
107.553 30.9577
107.565 31.7307
107.576 32.5421
107.588 33.3796
107.599 34.2521
107.611 35.1619
107.622 36.1196
107.633 37.1112
107.645 38.1569
107.656 39.2415
107.668 40.3875
107.679 41.5785
107.691 42.8282
107.702 44.1410
107.714 45.5342
107.725 46.9888
107.736 48.5364
107.748 50.1566
107.759 51.8853
107.771 53.7003
107.782 55.6254
107.794 57.6705
107.805 59.8663
107.816 62.1872
107.828 64.6880
107.839 67.3406
107.851 70.2091
107.862 73.2630
107.874 76.5476
107.885 80.0866
107.894 83.0432
107.903 86.1483
107.912 89.4872
107.920 93.0004
107.929 96.7850
107.938 100.774
107.947 105.029
107.956 109.569
107.965 114.475
107.973 119.661
107.982 125.270
107.991 131.204
108.000 137.627
108.009 144.426
108.018 151.704
108.026 159.493
108.032 164.925
108.038 170.505
108.044 176.336
108.049 182.428
108.055 188.793
108.061 195.441
108.066 202.384
108.072 209.633
108.078 217.337
108.084 225.242
108.089 233.490
108.095 242.094
108.101 251.066
108.106 260.418
108.112 270.164
108.118 280.316
108.129 302.085
108.141 325.449
108.152 350.915
108.164 378.137
108.175 407.680
108.187 439.111
108.198 473.052
108.209 508.972
108.221 547.545
108.232 588.126
108.244 631.436
108.255 676.707
108.267 724.696
108.278 774.506
108.290 826.455
108.301 880.425
108.321 978.511
108.340 1080.71
108.360 1186.80
108.380 1294.18
108.403 1418.97
108.426 1540.25
108.449 1655.78
108.471 1761.61
108.483 1809.63
108.494 1854.03
108.506 1894.44
108.517 1930.50
108.531 1967.66
108.544 1997.64
108.558 2020.05
108.572 2034.59
108.590 2041.43
108.595 2040.87
108.610 2032.58
108.625 2014.70
108.640 1987.48
108.655 1951.36
108.669 1908.17
108.684 1858.05
108.698 1801.44
108.713 1739.08
108.728 1669.89
108.743 1596.42
108.773 1440.40
108.832 1117.13
108.853 1010.17
108.873 908.227
108.893 811.922
108.903 765.939
108.913 722.101
108.928 660.632
108.943 603.086
108.958 549.519
108.973 499.923
108.981 476.443
108.988 454.234
108.995 432.682
109.003 412.344
109.010 392.651
109.018 374.106
109.025 356.185
109.033 339.342
109.040 323.097
109.048 307.655
109.055 292.989
109.063 279.252
109.070 266.044
109.077 253.690
109.085 241.827
109.092 230.745
109.100 220.115
109.107 210.193
109.115 200.686
109.122 191.820
109.130 183.329
109.137 175.415
109.145 167.840
109.152 160.782
109.159 154.291
109.166 148.233
109.173 142.498
109.180 137.068
109.188 131.927
109.195 127.058
109.209 118.076
109.223 109.956
109.237 102.706
109.252 96.1743
109.266 90.2786
109.280 84.9096
109.294 80.0766
109.308 75.6829
109.323 71.6778
109.337 68.0170
109.351 64.6616
109.365 61.5775
109.379 58.7351
109.394 55.9839
109.409 53.4441
109.424 51.0928
109.439 48.9104
109.454 46.8796
109.469 44.9854
109.484 43.2148
109.499 41.5562
109.514 39.9995
109.528 38.5359
109.543 37.1572
109.558 35.8567
109.588 33.4654
109.618 31.3195
109.640 29.8912
109.661 28.5635
109.683 27.3266
109.705 26.1771
109.726 25.0970
109.748 24.0852
109.770 23.1357
109.791 22.2475
109.813 21.4075
109.835 20.6158
109.856 19.8688
109.878 19.1661
109.921 17.8658
109.965 16.6996
109.995 15.9616
110.024 15.2751
110.054 14.6330
110.084 14.0317
110.114 13.4677
110.144 12.9379
110.173 12.4396
110.203 11.9703
110.233 11.5277
110.263 11.1099
110.322 10.3414
110.382 9.65199
110.442 9.03107
110.501 8.46983
110.561 7.96079
110.620 7.49766
110.680 7.07507
110.740 6.68841
110.799 6.33372
110.859 6.00755
110.918 5.70690
110.978 5.42870
111.038 5.17156
111.097 4.93299
111.157 4.71123
111.216 4.50473
111.276 4.31214
111.336 4.13224
111.395 3.96396
111.455 3.80608
111.515 3.65824
111.574 3.51939
111.634 3.38882
111.693 3.26589
111.753 3.15002
111.872 2.93741
111.991 2.74715
112.111 2.57655
112.230 2.42288
112.349 2.28400
112.468 2.15812
112.587 2.04369
112.707 1.93942
112.826 1.84421
112.934 1.76468
113.043 1.69116
113.151 1.62303
113.259 1.55975
113.368 1.50091
113.476 1.44612
113.585 1.39507
113.693 1.34750
113.801 1.30304
113.910 1.26148
114.018 1.22260
114.126 1.18622
114.343 1.12010
114.560 1.06188
114.798 1.00566
115.037 0.956573
115.275 0.913647
115.514 0.876097
115.752 0.843261
115.991 0.814625
116.229 0.789724
116.467 0.768223
116.749 0.746827
117.031 0.729104
117.313 0.714738
117.595 0.703529
117.876 0.695253
118.158 0.689728
118.440 0.686817
118.722 0.686422
118.949 0.687895
119.177 0.690947
119.404 0.695575
119.632 0.701789
119.860 0.709607
120.087 0.719064
120.315 0.730211
120.542 0.743107
120.770 0.757831
120.998 0.774477
121.225 0.793156
121.453 0.813999
121.680 0.837160
121.908 0.862789
122.136 0.890998
122.363 0.922064
122.602 0.958203
122.840 0.998272
123.079 1.04268
123.317 1.09188
123.555 1.14649
123.794 1.20716
124.032 1.27471
124.271 1.35010
124.509 1.43451
124.748 1.52924
124.867 1.58103
124.986 1.63601
125.105 1.69449
125.224 1.75675
125.344 1.82316
125.463 1.89399
125.582 1.96967
125.701 2.05065
125.821 2.13743
125.940 2.23054
126.059 2.33057
126.178 2.43818
126.308 2.56518
126.438 2.70327
126.568 2.85413
126.698 3.01915
126.828 3.20037
126.958 3.39960
127.089 3.61958
127.219 3.86290
127.286 4.00023
127.354 4.14521
127.422 4.29888
127.490 4.46147
127.557 4.63422
127.591 4.72458
127.625 4.81747
127.659 4.91355
127.693 5.01238
127.727 5.11468
127.760 5.21998
127.790 5.31566
127.820 5.41413
127.850 5.51548
127.880 5.61983
127.909 5.72729
127.939 5.83801
127.969 5.95210
127.999 6.06971
128.020 6.15519
128.041 6.24214
128.062 6.33102
128.083 6.42189
128.104 6.51480
128.125 6.60982
128.146 6.70702
128.167 6.80645
128.194 6.93819
128.213 7.03293
128.232 7.12970
128.251 7.22855
128.270 7.32900
128.296 7.46966
128.321 7.61398
128.347 7.76326
128.373 7.91652
128.399 8.07514
128.424 8.23809
128.450 8.40618
128.476 8.57964
128.500 8.74951
128.525 8.92463
128.549 9.10522
128.573 9.29153
128.598 9.48380
128.622 9.68228
128.647 9.88725
128.671 10.0981
128.686 10.2309
128.701 10.3663
128.716 10.5046
128.731 10.6457
128.745 10.7898
128.760 10.9369
128.775 11.0871
128.790 11.2405
128.805 11.3972
128.820 11.5573
128.835 11.7209
128.850 11.8881
128.865 12.0590
128.880 12.2338
128.894 12.4124
128.909 12.5951
128.924 12.7820
128.939 12.9732
128.954 13.1689
128.969 13.3691
128.984 13.5741
128.999 13.7839
129.014 13.9988
129.029 14.2189
129.058 14.6754
129.088 15.1549
129.118 15.6590
129.148 16.1894
129.178 16.7480
129.207 17.3369
129.237 17.9583
129.267 18.6148
129.297 19.3090
129.327 20.0441
129.356 20.8232
129.386 21.6502
129.416 22.5320
129.446 23.4675
129.476 24.4644
129.505 25.5285
129.535 26.6660
129.565 27.8842
129.580 28.5260
129.595 29.1910
129.610 29.8805
129.625 30.5956
129.640 31.3378
129.654 32.1084
129.669 32.9090
129.684 33.7412
129.699 34.6068
129.714 35.5076
129.729 36.4457
129.744 37.4232
129.759 38.4425
129.774 39.5062
129.789 40.6170
129.803 41.7779
129.818 42.9920
129.833 44.2630
129.848 45.5947
129.863 46.9911
129.878 48.4570
129.893 49.9974
129.908 51.6177
129.923 53.3240
129.938 55.1231
129.952 57.0223
129.967 59.0300
129.982 61.1553
129.997 63.4083
130.012 65.8006
130.027 68.3447
130.042 71.0552
130.057 73.9478
130.072 77.0407
130.087 80.3541
130.101 83.9109
130.114 87.0221
130.126 90.3293
130.138 93.8498
130.150 97.6025
130.162 101.609
130.175 105.891
130.187 110.475
130.199 115.388
130.211 120.661
130.223 126.327
130.236 132.422
130.248 138.987
130.260 146.063
130.272 153.697
130.284 161.941
130.297 170.770
130.304 176.595
130.311 182.623
130.319 189.031
130.326 195.663
130.334 202.714
130.341 210.012
130.349 217.772
130.356 225.802
130.364 234.339
130.371 243.171
130.379 252.557
130.386 262.264
130.393 272.575
130.401 283.233
130.408 294.547
130.416 306.234
130.423 318.631
130.431 331.426
130.438 344.986
130.446 358.968
130.453 373.771
130.460 389.017
130.468 405.139
130.475 421.725
130.490 457.232
130.505 495.670
130.520 537.149
130.535 581.759
130.550 629.896
130.565 680.949
130.580 735.222
130.595 792.670
130.610 853.198
130.624 916.665
130.639 982.874
130.654 1051.57
130.673 1142.30
130.692 1235.29
130.730 1426.21
130.760 1575.64
130.790 1718.99
130.819 1850.87
130.834 1910.81
130.849 1965.87
130.868 2026.24
130.886 2076.93
130.904 2117.41
130.923 2146.95
130.941 2165.34
130.960 2171.26
130.966 2170.45
130.987 2158.25
131.007 2131.68
131.027 2091.35
131.048 2038.15
131.064 1987.90
131.079 1931.43
131.095 1868.75
131.111 1801.43
131.127 1730.83
131.143 1656.92
131.174 1502.88
131.242 1160.26
131.258 1084.68
131.274 1011.33
131.290 940.602
131.305 873.241
131.321 808.628
131.337 747.388
131.352 689.643
131.368 635.790
131.384 585.150
131.399 538.049
131.415 494.414
131.431 454.386
131.446 417.322
131.462 383.336
131.478 352.261
131.493 324.093
131.505 305.112
131.516 287.405
131.527 270.902
131.539 255.533
131.550 241.228
131.562 227.922
131.573 215.548
131.584 204.045
131.596 193.353
131.607 183.415
131.619 174.175
131.630 165.584
131.641 157.592
131.653 150.155
131.664 143.229
131.676 136.776
131.691 128.594
131.707 121.150
131.723 114.365
131.738 108.207
131.754 102.533
131.770 97.3287
131.785 92.5444
131.801 88.1629
131.817 84.0895
131.832 80.3188
131.848 76.8204
131.864 73.5877
131.879 70.5555
131.895 67.7417
131.911 65.0920
131.926 62.6237
131.942 60.2908
131.958 58.0966
131.973 56.0295
131.989 54.0913
132.020 50.5038
132.052 47.2940
132.083 44.3900
132.114 41.7682
132.146 39.3769
132.177 37.2020
132.207 35.2902
132.237 33.5346
132.267 31.9127
132.297 30.4107
132.327 29.0124
132.357 27.7167
132.387 26.5094
132.417 25.3827
132.447 24.3259
132.476 23.3398
132.506 22.4150
132.536 21.5465
132.566 20.7298
132.596 19.9609
132.626 19.2359
132.656 18.5517
132.687 17.8737
132.719 17.2362
132.781 16.0630
132.844 15.0123
132.907 14.0678
132.969 13.2159
133.032 12.4450
133.095 11.7454
133.157 11.1088
133.203 10.6815
133.249 10.2813
133.294 9.90621
133.340 9.55428
133.385 9.22377
133.431 8.91309
133.522 8.34566
133.613 7.84211
133.705 7.39436
133.796 6.99580
133.887 6.64137
133.950 6.42044
134.012 6.21682
134.075 6.02943
134.138 5.85732
134.200 5.69968
134.263 5.55582
134.326 5.42517
134.388 5.30743
134.451 5.20189
134.514 5.10850
134.577 5.02710
134.639 4.95769
134.702 4.90033
134.765 4.85526
134.827 4.82283
134.890 4.80355
134.981 4.80037
135.055 4.82138
135.129 4.86588
135.203 4.93673
135.278 5.03771
135.352 5.17366
135.389 5.25677
135.426 5.35091
135.463 5.45769
135.500 5.57781
135.537 5.71303
135.574 5.86506
135.625 6.10753
135.676 6.39288
135.702 6.55452
135.728 6.72957
135.753 6.92086
135.779 7.12858
135.805 7.35629
135.830 7.60449
135.856 7.87779
135.882 8.17723
135.907 8.50897
135.933 8.87506
135.959 9.28402
135.984 9.73969
136.000 10.0467
136.016 10.3775
136.031 10.7350
136.047 11.1197
136.063 11.5406
136.078 11.9995
136.094 12.5016
136.110 13.0493
136.125 13.6567
136.141 14.3284
136.157 15.0740
136.172 15.8991
136.188 16.8268
136.204 17.8599
136.219 19.0286
136.235 20.3372
136.247 21.4768
136.259 22.7204
136.271 24.0893
136.283 25.5971
136.296 27.2587
136.308 29.0903
136.320 31.1093
136.332 33.3344
136.344 35.8071
136.356 38.5084
136.368 41.4802
136.380 44.7463
136.392 48.3317
136.405 52.2622
136.417 56.5644
136.429 61.2654
136.437 64.5629
136.444 68.0045
136.452 71.6857
136.460 75.5208
136.468 79.6154
136.476 83.8729
136.484 88.3504
136.491 93.0545
136.499 98.0559
136.507 103.234
136.515 108.727
136.523 114.400
136.531 120.404
136.539 126.590
136.546 133.035
136.554 139.742
136.561 145.803
136.568 152.063
136.575 158.524
136.581 165.084
136.588 171.938
136.595 178.987
136.608 193.550
136.622 208.960
136.635 224.948
136.649 241.573
136.662 258.771
136.672 270.912
136.681 283.261
136.700 308.318
136.708 319.990
136.722 339.747
136.737 359.385
136.757 386.774
136.785 424.406
136.801 443.981
136.816 462.318
136.832 479.420
136.848 494.940
136.863 508.669
136.879 520.350
136.893 528.811
136.906 535.571
136.925 541.932
136.943 544.841
136.950 545.040
136.964 544.013
136.984 538.915
137.005 529.670
137.021 519.841
137.037 507.821
137.053 493.785
137.069 477.931
137.082 463.770
137.095 448.667
137.121 416.296
137.136 395.292
137.152 373.726
137.184 329.853
137.216 286.434
137.232 265.370
137.248 245.074
137.264 225.417
137.279 206.638
137.295 188.821
137.311 172.128
137.327 156.389
137.343 141.823
137.351 134.858
137.359 128.249
137.367 121.906
137.375 115.825
137.383 109.932
137.390 104.369
137.398 98.9916
137.406 93.9276
137.414 89.0433
137.422 84.4544
137.430 80.0381
137.438 75.8977
137.446 71.9211
137.454 68.2005
137.462 64.6338
137.470 61.3028
137.478 58.1152
137.486 55.1430
137.494 52.3378
137.502 49.6919
137.514 45.8724
137.526 42.3940
137.539 39.2303
137.551 36.3782
137.563 33.7669
137.575 31.3981
137.588 29.2501
137.600 27.3180
137.612 25.5513
137.624 23.9494
137.637 22.4961
137.649 21.1871
137.661 19.9875
137.673 18.9048
137.686 17.9102
137.698 17.0100
137.714 15.9512
137.730 15.0060
137.746 14.1595
137.761 13.4031
137.777 12.7160
137.793 12.0936
137.809 11.5278
137.825 11.0143
137.841 10.5408
137.857 10.1054
137.873 9.70364
137.888 9.33393
137.904 8.98834
137.920 8.66647
137.936 8.36589
137.952 8.08618
137.977 7.68420
138.001 7.31948
138.026 6.98438
138.050 6.67780
138.075 6.39401
138.099 6.13264
138.124 5.89020
138.148 5.66476
138.173 5.45380
138.197 5.25755
138.222 5.07314
138.246 4.90093
138.271 4.73851
138.296 4.58632
138.345 4.30751
138.376 4.14279
138.408 3.98983
138.440 3.84661
138.472 3.71309
138.503 3.58759
138.535 3.47018
138.599 3.25553
138.662 3.06469
138.726 2.89410
138.789 2.74082
138.853 2.60246
138.910 2.48780
138.968 2.38275
139.026 2.28586
139.084 2.19654
139.141 2.11368
139.199 2.03689
139.257 1.96541
139.314 1.89874
139.372 1.83631
139.430 1.77795
139.545 1.67172
139.661 1.57748
139.776 1.49349
139.857 1.43983
139.938 1.39003
140.019 1.34363
140.100 1.30032
140.180 1.25975
140.261 1.22176
140.423 1.15255
140.585 1.09104
140.746 1.03604
140.908 0.986473
141.069 0.941669
141.197 0.909351
141.324 0.879346
141.451 0.851401
141.578 0.825320
141.832 0.778076
142.086 0.736469
142.340 0.699591
142.594 0.666762
142.848 0.637403
143.102 0.611091
143.344 0.588507
143.587 0.567998
143.829 0.549298
144.072 0.532289
144.314 0.516812
144.557 0.502734
144.799 0.489935
145.041 0.478317
145.284 0.467781
145.526 0.458256
146.011 0.441990
146.496 0.429094
146.981 0.419274
147.351 0.413726
147.720 0.409788
148.090 0.407429
148.459 0.406644
148.944 0.408036
149.429 0.412286
149.914 0.419589
150.157 0.424473
150.399 0.430236
150.641 0.436937
150.884 0.444638
151.126 0.453414
151.369 0.463346
151.611 0.474540
151.854 0.487093
152.096 0.501086
152.339 0.516699
152.593 0.535101
152.847 0.555784
153.101 0.579008
153.355 0.605101
153.609 0.634471
153.863 0.667566
154.117 0.704963
154.371 0.747344
154.602 0.790910
154.833 0.840017
154.948 0.866945
155.064 0.895597
155.179 0.926168
155.295 0.958767
155.410 0.993629
155.526 1.03093
155.641 1.07087
155.757 1.11366
155.872 1.15964
155.987 1.20903
156.103 1.26230
156.218 1.31980
156.345 1.38863
156.472 1.46385
156.599 1.54631
156.726 1.63692
156.854 1.73688
156.981 1.84732
157.108 1.96983
157.235 2.10624
157.362 2.25873
157.425 2.34180
157.489 2.42992
157.552 2.52350
157.616 2.62301
157.679 2.72894
157.743 2.84187
157.806 2.96242
157.870 3.09129
157.933 3.22927
157.997 3.37722
158.060 3.53614
158.124 3.70715
158.187 3.89153
158.251 4.09073
158.314 4.30678
158.378 4.54091
158.441 4.79563
158.505 5.07346
158.568 5.37729
158.632 5.71051
158.695 6.07706
158.759 6.48159
158.808 6.82388
158.857 7.19514
158.906 7.59878
158.955 8.03783
158.980 8.27331
159.004 8.51869
159.029 8.77559
159.053 9.04477
159.078 9.32821
159.102 9.62451
159.127 9.93577
159.151 10.2630
159.169 10.5058
159.186 10.7562
159.203 11.0160
159.220 11.2858
159.238 11.5661
159.255 11.8574
159.272 12.1605
159.290 12.4758
159.304 12.7501
159.319 13.0321
159.333 13.3260
159.347 13.6284
159.362 13.9439
159.376 14.2688
159.391 14.6059
159.405 14.9557
159.417 15.2473
159.428 15.5479
159.440 15.8554
159.451 16.1755
159.463 16.5031
159.475 16.8444
159.486 17.1940
159.498 17.5586
159.509 17.9325
159.522 18.3707
159.535 18.8265
159.548 19.3009
159.561 19.7910
159.574 20.3058
159.587 20.8427
159.600 21.4033
159.613 21.9845
159.621 22.3581
159.629 22.7375
159.637 23.1327
159.645 23.5343
159.653 23.9529
159.661 24.3787
159.669 24.8229
159.677 25.2751
159.684 25.7234
159.692 26.1853
159.699 26.6614
159.707 27.1459
159.714 27.6522
159.722 28.1750
159.730 28.7148
159.737 29.2652
159.745 29.8416
159.752 30.4378
159.760 31.0549
159.767 31.6854
159.775 32.3471
159.783 33.0332
159.790 33.7448
159.798 34.4735
159.806 35.2813
159.814 36.1118
159.822 36.9878
159.830 37.8896
159.838 38.8422
159.845 39.8240
159.853 40.8493
159.861 41.9205
159.869 43.0550
159.877 44.2275
159.885 45.4708
159.893 46.7573
159.901 48.1232
159.909 49.5382
159.917 51.0231
159.925 52.5820
159.933 54.2408
159.941 55.9628
159.949 57.7969
159.957 59.7027
159.965 61.7342
159.972 63.8467
159.980 66.0712
159.988 68.4144
159.996 70.9153
160.004 73.5187
160.012 76.2985
160.020 79.1932
160.028 82.2848
160.036 85.5047
160.044 88.8997
160.052 92.4793
160.060 96.3022
160.068 100.283
160.076 104.534
160.084 108.959
160.092 113.682
160.099 118.596
160.107 123.838
160.115 129.288
160.123 135.098
160.131 141.135
160.139 147.563
160.147 154.237
160.155 161.336
160.163 168.698
160.171 176.421
160.179 184.518
160.187 193.111
160.195 201.998
160.203 211.417
160.211 221.144
160.219 231.437
160.227 242.050
160.234 253.118
160.242 264.651
160.250 276.814
160.258 289.310
160.266 302.296
160.274 315.777
160.282 329.938
160.290 344.430
160.306 374.936
160.316 395.706
160.326 417.102
160.336 439.312
160.346 462.322
160.356 486.113
160.366 510.661
160.387 561.900
160.403 604.073
160.418 647.661
160.434 692.436
160.450 737.844
160.482 830.489
160.514 922.872
160.545 1012.16
160.561 1054.48
160.577 1094.69
160.593 1132.36
160.609 1166.87
160.625 1198.29
160.641 1225.85
160.656 1248.50
160.671 1267.29
160.686 1282.03
160.701 1292.48
160.715 1298.55
160.730 1300.50
160.735 1300.23
160.751 1296.14
160.767 1287.27
160.783 1273.62
160.798 1255.52
160.822 1220.73
160.845 1177.54
160.868 1128.73
160.890 1074.08
160.907 1031.15
160.923 986.214
160.956 892.479
161.002 759.785
161.024 694.377
161.047 631.094
161.070 570.121
161.092 512.585
161.115 458.656
161.126 433.143
161.138 408.634
161.156 370.523
161.175 335.394
161.184 318.779
161.193 302.857
161.203 287.619
161.212 273.209
161.221 259.302
161.230 246.043
161.240 233.419
161.249 221.539
161.258 210.126
161.267 199.409
161.277 189.135
161.286 179.507
161.297 168.284
161.309 157.898
161.320 148.210
161.331 139.182
161.343 130.707
161.354 122.897
161.365 115.638
161.376 108.897
161.388 102.587
161.399 96.7851
161.410 91.4041
161.422 86.4142
161.433 81.7481
161.444 77.4609
161.456 73.4849
161.467 69.7967
161.479 66.0544
161.492 62.6048
161.504 59.4227
161.517 56.5077
161.529 53.7909
161.541 51.2970
161.554 48.9674
161.566 46.8236
161.578 44.8158
161.591 42.9628
161.603 41.2223
161.615 39.6111
161.628 38.0930
161.640 36.6833
161.652 35.3507
161.665 34.1094
161.687 32.0067
161.710 30.1181
161.733 28.4132
161.755 26.8734
161.778 25.4642
161.801 24.1805
161.823 22.9965
161.846 21.9102
161.869 20.9016
161.891 19.9708
161.914 19.1018
161.937 18.2957
161.959 17.5397
161.982 16.8354
162.005 16.1724
162.027 15.5525
162.050 14.9669
162.073 14.4178
162.095 13.8975
162.118 13.4082
162.163 12.5053
162.208 11.6940
162.254 10.9619
162.299 10.2988
162.344 9.69608
162.390 9.14640
162.427 8.73139
162.464 8.34486
162.501 7.98420
162.538 7.64799
162.575 7.33236
162.612 7.03642
162.649 6.75853
162.686 6.49791
162.723 6.25184
162.760 6.01985
162.798 5.80087
162.835 5.59448
162.909 5.21375
162.983 4.87157
163.028 4.67874
163.073 4.49784
163.119 4.32753
163.164 4.16698
163.209 4.01548
163.255 3.87233
163.345 3.60875
163.436 3.37199
163.526 3.15852
163.617 2.96535
163.708 2.78999
163.765 2.68660
163.823 2.58908
163.881 2.49699
163.938 2.41009
164.054 2.24983
164.169 2.10577
164.284 1.97567
164.400 1.85791
164.515 1.75087
164.630 1.65327
164.721 1.58242
164.812 1.51636
164.902 1.45461
164.993 1.39681
165.083 1.34262
165.174 1.29176
165.265 1.24395
165.355 1.19896
165.446 1.15656
165.536 1.11657
165.718 1.04310
165.899 0.977298
166.080 0.918143
166.278 0.860169
166.475 0.808140
166.673 0.761276
166.871 0.718920
167.068 0.680530
167.266 0.645659
167.464 0.613897
167.662 0.584833
167.843 0.560275
168.024 0.537550
168.205 0.516487
168.386 0.496937
168.568 0.478753
168.749 0.461832
168.930 0.446056
169.111 0.431328
169.293 0.417553
169.474 0.404670
169.836 0.381283
170.199 0.360677
170.561 0.342461
170.808 0.331239
171.055 0.320895
171.302 0.311348
171.550 0.302529
171.797 0.294376
172.044 0.286846
172.538 0.273529
173.032 0.262090
173.527 0.252314
174.021 0.244030
174.515 0.237073
174.910 0.232372
175.306 0.228380
175.701 0.225048
176.097 0.222344
176.492 0.220238
176.887 0.218708
177.283 0.217735
177.678 0.217313
178.370 0.217893
179.062 0.220171
179.408 0.221970
179.754 0.224228
180.100 0.226967
180.446 0.230207
180.792 0.233980
181.138 0.238323
181.484 0.243272
181.830 0.248876
182.176 0.255198
182.522 0.262288
182.868 0.270192
183.214 0.279003
183.576 0.289423
183.938 0.301144
184.301 0.314330
184.663 0.329174
185.026 0.345923
185.388 0.364858
185.751 0.386334
185.932 0.398156
186.113 0.410780
186.410 0.433361
186.706 0.458621
187.003 0.486999
187.299 0.518981
187.448 0.536517
187.596 0.555187
187.744 0.575079
187.892 0.596281
188.041 0.618958
188.189 0.643257
188.337 0.669346
188.485 0.697373
188.667 0.734592
188.848 0.775389
189.029 0.820257
189.210 0.869751
189.392 0.924558
189.573 0.985395
189.754 1.05322
189.935 1.12913
190.100 1.20633
190.265 1.29250
190.347 1.33943
190.430 1.38919
190.512 1.44200
190.594 1.49806
190.677 1.55777
190.759 1.62138
190.841 1.68922
190.924 1.76160
191.006 1.83913
191.088 1.92211
191.171 2.01130
191.253 2.10712
191.344 2.22138
191.434 2.34561
191.525 2.48118
191.616 2.62951
191.706 2.79224
191.797 2.97132
191.887 3.16902
191.978 3.38806
192.069 3.63191
192.114 3.76409
192.159 3.90391
192.205 4.05197
192.250 4.20893
192.295 4.37555
192.341 4.55262
192.386 4.74106
192.431 4.94188
192.476 5.15621
192.522 5.38530
192.567 5.63057
192.612 5.89363
192.658 6.17626
192.703 6.48053
192.736 6.71712
192.769 6.96665
192.802 7.23173
192.835 7.51199
192.868 7.81049
192.901 8.12692
192.934 8.46489
192.950 8.64218
192.967 8.82422
192.988 9.07447
193.010 9.33478
193.032 9.60828
193.053 9.89321
193.075 10.1931
193.096 10.5060
193.118 10.8343
193.140 11.1790
193.152 11.3848
193.164 11.5950
193.177 11.8131
193.189 12.0360
193.200 12.2486
193.212 12.4652
193.223 12.6881
193.234 12.9173
193.246 13.1553
193.257 13.3983
193.268 13.6485
193.280 13.9062
193.291 14.1743
193.302 14.4483
193.314 14.7310
193.325 15.0227
193.336 15.3266
193.348 15.6378
193.359 15.9595
193.370 16.2921
193.382 16.6393
193.393 16.9956
193.404 17.3646
193.416 17.7471
193.427 18.1474
193.438 18.5592
193.450 18.9869
193.461 19.4313
193.472 19.8978
193.484 20.3791
193.495 20.8805
193.506 21.4033
193.518 21.9538
193.529 22.5238
193.540 23.1199
193.551 23.7436
193.563 24.4029
193.574 25.0885
193.585 25.8082
193.597 26.5645
193.608 27.3676
193.619 28.2062
193.631 29.0905
193.642 30.0241
193.653 31.0199
193.665 32.0646
193.676 33.1815
193.687 34.3559
193.699 35.6141
193.710 36.9402
193.721 38.3510
193.733 39.8537
193.743 41.2370
193.752 42.7001
193.762 44.2488
193.772 45.8718
193.782 47.6087
193.791 49.4502
193.801 51.4035
193.811 53.4543
193.821 55.6529
193.831 57.9874
193.840 60.4667
193.850 63.0726
193.860 65.8687
193.870 68.8394
193.879 71.9956
193.889 75.3134
193.901 79.4750
193.912 83.8979
193.923 88.6807
193.935 93.7601
193.946 99.2477
193.957 105.069
193.969 111.294
193.980 117.945
193.991 125.109
194.003 132.686
194.014 140.759
194.025 149.352
194.037 158.572
194.048 168.279
194.059 178.574
194.070 189.479
194.082 201.117
194.093 213.305
194.104 226.157
194.116 239.689
194.127 254.043
194.138 268.977
194.150 284.620
194.161 300.978
194.172 318.206
194.184 335.997
194.195 354.494
194.206 373.684
194.218 393.731
194.229 414.263
194.252 457.193
194.274 502.586
194.297 549.694
194.320 598.496
194.342 648.045
194.381 734.483
194.421 818.264
194.443 864.268
194.466 907.187
194.488 946.475
194.511 981.409
194.535 1012.64
194.558 1037.60
194.574 1050.31
194.589 1060.06
194.605 1066.75
194.620 1070.30
194.630 1070.94
194.635 1070.73
194.652 1067.57
194.669 1060.64
194.686 1050.02
194.703 1035.93
194.717 1021.27
194.731 1004.43
194.745 985.425
194.760 964.413
194.788 917.007
194.816 863.602
194.845 805.688
194.873 744.783
194.927 625.535
194.955 566.755
194.982 509.845
195.010 453.058
195.024 425.979
195.038 399.870
195.053 374.785
195.067 350.767
195.081 327.844
195.095 306.038
195.112 281.691
195.129 258.917
195.146 237.696
195.162 218.110
195.179 199.880
195.196 183.072
195.213 167.625
195.229 153.551
195.244 142.535
195.258 132.345
195.272 122.935
195.286 114.258
195.300 106.268
195.315 98.9198
195.329 92.1691
195.343 85.9726
195.357 80.2891
195.371 75.0789
195.386 70.3045
195.400 65.9303
195.414 61.9229
195.428 58.2509
195.442 54.8852
195.457 51.7987
195.471 48.9663
195.485 46.3649
195.499 43.9733
195.513 41.7722
195.528 39.7438
195.542 37.8719
195.556 36.1420
195.570 34.5406
195.584 33.0559
195.599 31.6769
195.613 30.3938
195.627 29.1980
195.641 28.0813
195.655 27.0367
195.670 26.0579
195.684 25.1390
195.708 23.6741
195.733 22.3557
195.757 21.1587
195.782 20.0669
195.807 19.0633
195.831 18.1447
195.856 17.2976
195.880 16.5139
195.905 15.7839
195.929 15.1078
195.954 14.4774
195.978 13.8884
196.003 13.3347
196.027 12.8175
196.052 12.3315
196.076 11.8742
196.105 11.3768
196.133 10.9115
196.161 10.4755
196.190 10.0663
196.218 9.68156
196.247 9.31941
196.275 8.97801
196.303 8.65576
196.360 8.06306
196.417 7.53130
196.474 7.05222
196.531 6.61967
196.567 6.36471
196.603 6.12535
196.639 5.89910
196.675 5.68616
196.747 5.29408
196.820 4.94298
196.892 4.62640
196.964 4.34028
197.037 4.08078
197.109 3.84496
197.166 3.67402
197.222 3.51463
197.279 3.36578
197.336 3.22654
197.393 3.09612
197.450 2.97377
197.506 2.85885
197.563 2.75077
197.620 2.64899
197.677 2.55303
197.734 2.46246
197.790 2.37688
197.904 2.21927
198.017 2.07782
198.131 1.95018
198.245 1.83469
198.358 1.72989
198.472 1.63448
198.585 1.54741
198.699 1.46774
198.813 1.39467
198.926 1.32750
199.061 1.25487
199.195 1.18877
199.329 1.12838
199.463 1.07308
199.597 1.02228
199.732 0.975610
199.866 0.932607
200.000 0.892921
200.131 0.857065
200.262 0.823863
200.393 0.793055
200.524 0.764419
200.655 0.737724
200.786 0.712831
200.917 0.689573
201.048 0.667828
201.179 0.647472
201.310 0.628433
201.572 0.593892
201.834 0.563515
202.096 0.536778
202.257 0.522019
202.417 0.508365
202.737 0.484034
203.057 0.463231
203.377 0.445534
203.698 0.430585
204.018 0.418115
204.338 0.407897
204.658 0.399766
204.950 0.394073
205.241 0.389931
205.532 0.387294
205.823 0.386142
206.143 0.386596
206.464 0.388891
206.784 0.393103
207.104 0.399351
207.424 0.407806
207.745 0.418690
208.065 0.432311
208.385 0.449053
208.633 0.464451
208.880 0.482314
209.128 0.503005
209.375 0.526954
209.622 0.554706
209.746 0.570219
209.870 0.586951
209.994 0.605058
210.117 0.624652
210.241 0.645899
210.365 0.668969
210.525 0.701875
210.685 0.738640
210.845 0.779889
211.005 0.826355
211.166 0.878967
211.246 0.907904
211.326 0.938763
211.406 0.971803
211.486 1.00714
211.566 1.04509
211.646 1.08580
211.755 1.14644
211.864 1.21369
211.973 1.28856
212.083 1.37219
212.192 1.46623
212.246 1.51767
212.301 1.57241
212.356 1.63073
212.410 1.69297
212.465 1.75949
212.519 1.83055
212.599 1.94443
212.679 2.07107
212.760 2.21247
212.800 2.28935
212.840 2.37086
212.880 2.45763
212.920 2.54964
212.960 2.64758
213.000 2.75200
213.040 2.86377
213.080 2.98302
213.120 3.11078
213.160 3.24790
213.218 3.46656
213.276 3.71030
213.305 3.84350
213.335 3.98431
213.364 4.13387
213.393 4.29297
213.422 4.46308
213.451 4.64405
213.480 4.83754
213.509 5.04484
213.538 5.26741
213.567 5.50693
213.597 5.76536
213.626 6.04497
213.666 6.47006
213.686 6.70169
213.706 6.94807
213.726 7.21068
213.746 7.49125
213.766 7.79175
213.786 8.11446
213.806 8.46387
213.826 8.83960
213.846 9.24696
213.866 9.69020
213.886 10.1743
213.906 10.7051
213.926 11.2895
213.936 11.6042
213.946 11.9355
213.961 12.4697
213.976 13.0451
213.991 13.6701
213.998 14.0031
214.006 14.3506
214.013 14.7136
214.021 15.0929
214.028 15.4894
214.036 15.9042
214.043 16.3382
214.051 16.7925
214.058 17.2684
214.066 17.7668
214.074 18.2964
214.081 18.8445
214.089 19.4192
214.096 20.0221
214.104 20.6547
214.111 21.3186
214.119 22.0155
214.126 22.7471
214.134 23.5154
214.141 24.3222
214.149 25.1695
214.156 26.0595
214.164 26.9942
214.171 27.9761
214.179 29.0074
214.186 30.0905
214.196 31.6355
214.206 33.2686
214.216 35.0112
214.226 36.8700
214.236 38.8519
214.246 40.9644
214.256 43.2148
214.266 45.6108
214.273 47.2244
214.279 48.9029
214.285 50.6487
214.292 52.4348
214.298 54.3202
214.304 56.2792
214.311 58.3142
214.317 60.3936
214.326 63.5352
214.335 66.8456
214.344 70.3311
214.354 73.9983
214.363 77.8532
214.372 81.9021
214.381 86.1510
214.390 90.5556
214.400 95.7449
214.410 101.146
214.420 106.817
214.430 112.762
214.440 118.987
214.450 125.497
214.460 132.296
214.470 139.387
214.480 146.847
214.490 154.531
214.500 162.509
214.510 170.782
214.522 180.919
214.534 191.456
214.545 202.385
214.557 213.694
214.577 233.789
214.597 254.745
214.617 276.544
214.637 299.043
214.668 334.904
214.699 371.190
214.739 417.572
214.759 440.045
214.779 461.494
214.799 481.764
214.819 500.496
214.839 517.707
214.859 532.885
214.879 545.904
214.899 556.571
214.923 565.888
214.946 571.546
214.970 573.426
214.978 573.184
215.004 569.401
215.030 561.122
215.043 555.016
215.057 547.761
215.084 530.081
215.112 507.917
215.139 482.373
215.167 454.155
215.195 423.874
215.235 377.419
215.275 330.296
215.303 298.351
215.331 267.438
215.358 237.983
215.372 223.859
215.386 210.317
215.400 197.188
215.414 184.681
215.427 172.716
215.441 161.304
215.455 150.375
215.469 140.087
215.483 130.357
215.497 121.180
215.509 113.276
215.522 105.816
215.534 98.7883
215.547 92.1818
215.560 85.9826
215.572 80.1760
215.585 74.7464
215.597 69.7167
215.610 64.9899
215.622 60.5908
215.635 56.5025
215.648 52.7371
215.660 49.2176
215.673 45.9588
215.685 42.9446
215.698 40.1805
215.712 37.3531
215.726 34.7840
215.739 32.4173
215.753 30.2695
215.767 28.2929
215.781 26.5003
215.795 24.8624
215.809 23.3657
215.822 21.9882
215.836 20.7380
215.850 19.5861
215.864 18.5392
215.878 17.5730
215.892 16.6931
215.905 15.8848
215.919 15.1411
215.939 14.1563
215.960 13.2839
215.980 12.5041
216.000 11.8042
216.020 11.1705
216.040 10.6002
216.060 10.0820
216.080 9.60938
216.100 9.17450
216.121 8.77683
216.141 8.41001
216.161 8.07052
216.181 7.75382
216.201 7.46046
216.221 7.18658
216.241 6.93027
216.269 6.60279
216.297 6.30180
216.324 6.02421
216.352 5.76742
216.380 5.52920
216.407 5.30766
216.435 5.10117
216.463 4.90898
216.490 4.72848
216.518 4.55929
216.546 4.40044
216.573 4.25161
216.629 3.97833
216.684 3.73525
216.722 3.58397
216.760 3.44379
216.797 3.31298
216.835 3.19135
216.873 3.07747
216.911 2.97126
216.948 2.87180
216.986 2.77852
217.062 2.60840
217.137 2.45779
217.213 2.32389
217.288 2.20458
217.343 2.12500
217.399 2.05165
217.454 1.98373
217.509 1.92099
217.565 1.86275
217.620 1.80885
217.675 1.75874
217.731 1.71229
217.841 1.62895
217.952 1.55694
218.063 1.49472
218.174 1.44104
218.249 1.40879
218.325 1.37974
218.400 1.35367
218.476 1.33035
218.627 1.29119
218.777 1.26099
218.928 1.23870
219.079 1.22362
219.230 1.21517
219.381 1.21298
219.492 1.21519
219.603 1.22054
219.713 1.22899
219.824 1.24055
219.935 1.25522
220.046 1.27305
220.156 1.29413
220.267 1.31855
220.378 1.34646
220.488 1.37803
220.599 1.41345
220.710 1.45297
220.820 1.49687
220.931 1.54546
221.042 1.59913
221.153 1.65831
221.273 1.72979
221.394 1.80927
221.515 1.89769
221.636 1.99608
221.756 2.10589
221.877 2.22843
221.998 2.36572
222.119 2.51967
222.229 2.67797
222.340 2.85483
222.451 3.05328
222.506 3.16176
222.562 3.27679
222.617 3.39936
222.672 3.52963
222.728 3.66875
222.783 3.81697
222.838 3.97568
222.894 4.14525
222.949 4.32735
223.004 4.52251
223.075 4.79287
223.145 5.08994
223.216 5.41836
223.286 5.78169
223.357 6.18631
223.392 6.40556
223.427 6.63750
223.462 6.88385
223.498 7.14434
223.533 7.42090
223.568 7.71490
223.596 7.95953
223.623 8.21673
223.651 8.48742
223.679 8.77151
223.706 9.07217
223.734 9.38956
223.762 9.72502
223.776 9.89933
223.789 10.0787
223.806 10.2986
223.822 10.5264
223.839 10.7623
223.855 11.0052
223.871 11.2586
223.888 11.5198
223.904 11.7927
223.920 12.0742
223.930 12.2524
223.944 12.5071
223.958 12.7686
223.972 13.0410
223.986 13.3209
224.000 13.6128
224.013 13.9130
224.027 14.2241
224.041 14.5468
224.055 14.8840
224.069 15.2318
224.083 15.5958
224.096 15.9716
224.110 16.3655
224.124 16.7728
224.138 17.2004
224.152 17.6434
224.166 18.1093
224.179 18.5927
224.193 19.1021
224.207 19.6318
224.221 20.1912
224.235 20.7741
224.249 21.3866
224.262 22.0308
224.276 22.7145
224.290 23.4304
224.304 24.1864
224.318 24.9859
224.332 25.8388
224.345 26.7370
224.359 27.6909
224.373 28.7053
224.380 29.2447
224.387 29.7938
224.394 30.3609
224.401 30.9467
224.408 31.5611
224.415 32.1873
224.422 32.8350
224.428 33.5051
224.435 34.2087
224.442 34.9270
224.449 35.6708
224.456 36.4412
224.463 37.2514
224.470 38.0794
224.477 38.9379
224.484 39.8282
224.491 40.7655
224.498 41.7244
224.505 42.7197
224.512 43.7529
224.518 44.8258
224.525 45.9401
224.532 47.0976
224.539 48.3002
224.546 49.5684
224.553 50.8679
224.560 52.2187
224.567 53.6229
224.574 55.0828
224.581 56.6008
224.588 58.1792
224.594 59.8207
224.601 61.5529
224.608 63.3290
224.615 65.1762
224.622 67.0972
224.629 69.1244
224.636 71.2029
224.643 73.3642
224.650 75.6115
224.657 77.9823
224.664 80.4124
224.671 82.9383
224.678 85.5634
224.684 88.2911
224.691 91.1250
224.705 97.1259
224.719 103.644
224.733 110.616
224.747 118.173
224.761 126.238
224.774 134.958
224.788 144.240
224.802 154.173
224.816 164.785
224.830 176.190
224.844 188.249
224.857 201.160
224.871 214.759
224.885 229.261
224.899 244.471
224.913 260.501
224.927 277.356
224.940 295.167
224.954 313.674
224.968 333.131
224.982 353.243
224.996 374.274
225.010 395.891
225.023 418.202
225.037 441.160
225.064 486.854
225.090 534.076
225.117 582.426
225.143 631.243
225.198 731.625
225.226 779.041
225.254 823.046
225.281 862.961
225.309 897.671
225.338 927.777
225.353 940.052
225.368 950.250
225.383 958.915
225.399 965.093
225.414 968.793
225.430 969.986
225.436 969.787
225.455 966.780
225.473 960.195
225.492 950.113
225.511 936.736
225.537 911.915
225.564 881.219
225.590 846.712
225.615 808.226
225.634 777.960
225.653 746.396
225.690 679.950
225.741 585.458
225.792 492.673
225.818 448.147
225.844 405.766
225.869 365.697
225.895 328.190
225.918 296.420
225.930 281.342
225.942 266.977
225.953 253.078
225.965 239.880
225.977 227.152
225.988 215.104
226.000 203.520
226.011 192.588
226.023 182.108
226.035 172.244
226.046 162.812
226.058 153.959
226.070 145.513
226.081 137.604
226.094 129.328
226.107 121.635
226.120 114.435
226.133 107.702
226.145 101.412
226.158 95.5414
226.171 90.0667
226.184 84.9645
226.197 80.1765
226.210 75.7549
226.222 71.6403
226.235 67.8125
226.248 64.2522
226.261 60.9410
226.274 57.8615
226.286 54.9970
226.302 51.8534
226.317 48.9849
226.332 46.3310
226.347 43.9060
226.362 41.6587
226.377 39.6011
226.392 37.6899
226.408 35.9357
226.423 34.3020
226.438 32.7981
226.453 31.3932
226.468 30.0958
226.483 28.8797
226.498 27.7528
226.514 26.6998
226.529 25.7139
226.554 24.1742
226.580 22.7925
226.606 21.5370
226.631 20.4000
226.657 19.3579
226.683 18.4064
226.708 17.5311
226.734 16.7232
226.759 15.9723
226.785 15.2780
226.811 14.6316
226.836 14.0286
226.862 13.4627
226.888 12.9346
226.913 12.4389
226.939 11.9729
226.964 11.5323
226.990 11.1186
227.041 10.3583
227.093 9.67552
227.144 9.06201
227.195 8.50629
227.246 8.00298
227.298 7.54378
227.349 7.12513
227.393 6.79133
227.437 6.48122
227.482 6.19256
227.526 5.92394
227.570 5.67241
227.614 5.43704
227.659 5.21644
227.703 5.00983
227.747 4.81518
227.792 4.63197
227.836 4.45930
227.880 4.29673
227.924 4.14280
227.969 3.99754
228.057 3.72935
228.108 3.58640
228.160 3.45176
228.211 3.32477
228.262 3.20509
228.365 2.98467
228.467 2.78687
228.570 2.60867
228.672 2.44754
228.775 2.30135
228.877 2.16830
228.947 2.08430
229.017 2.00527
229.087 1.93082
229.157 1.86061
229.227 1.79431
229.297 1.73164
229.436 1.61615
229.576 1.51227
229.716 1.41846
229.856 1.33343
229.995 1.25617
230.098 1.20382
230.201 1.15487
230.303 1.10899
230.406 1.06593
230.508 1.02542
230.611 0.987341
230.713 0.951460
230.816 0.917611
231.021 0.855389
231.226 0.799678
231.431 0.749570
231.636 0.704331
231.757 0.679622
231.878 0.656304
232.120 0.613373
232.363 0.574839
232.605 0.540128
232.847 0.508772
233.090 0.480345
233.332 0.454439
233.574 0.430744
233.779 0.412245
233.984 0.395051
234.189 0.379026
234.394 0.364081
234.599 0.350107
234.804 0.337032
235.009 0.324776
235.214 0.313269
235.420 0.302448
235.625 0.292267
236.035 0.273620
236.445 0.256979
236.855 0.242071
237.116 0.233374
237.377 0.225233
237.638 0.217598
237.898 0.210431
238.420 0.197350
238.942 0.185742
239.464 0.175441
239.986 0.166166
240.508 0.157815
241.030 0.150285
241.440 0.144877
241.850 0.139868
242.260 0.135223
242.670 0.130912
243.080 0.126900
243.490 0.123165
244.310 0.116433
245.130 0.110557
245.950 0.105412
246.771 0.100896
247.591 0.0969231
248.224 0.0941821
248.858 0.0916982
249.492 0.0894476
250.126 0.0874107
251.393 0.0839454
252.660 0.0810969
253.928 0.0788263
255.195 0.0770649
256.463 0.0757598
257.730 0.0748711
258.923 0.0743886
260.116 0.0742316
261.756 0.0745377
262.576 0.0748983
263.396 0.0754186
265.037 0.0768962
265.857 0.0778700
266.677 0.0790118
267.497 0.0803071
268.317 0.0817837
269.137 0.0834602
269.957 0.0853196
270.777 0.0873890
271.598 0.0897065
272.418 0.0922577
273.238 0.0950652
274.207 0.0987845
275.176 0.102968
276.146 0.107599
277.115 0.112867
278.084 0.118805
279.053 0.125513
280.022 0.133114
280.507 0.137296
280.992 0.141761
281.812 0.150034
282.632 0.159328
283.452 0.169817
283.862 0.175574
284.272 0.181711
284.682 0.188264
285.092 0.195269
285.502 0.202774
285.912 0.210821
286.322 0.219470
286.732 0.228780
287.142 0.238817
287.552 0.249617
287.963 0.261322
288.373 0.274077
288.783 0.287972
289.193 0.303138
289.603 0.319748
290.013 0.337989
290.423 0.358096
290.833 0.380332
291.243 0.405030
291.653 0.432565
292.063 0.463421
292.268 0.480261
292.473 0.498153
292.678 0.517198
292.883 0.537481
293.088 0.559124
293.293 0.582257
293.498 0.607034
293.703 0.633592
293.908 0.662115
294.113 0.692790
294.337 0.728981
294.561 0.768372
294.784 0.811415
295.008 0.858574
295.232 0.910424
295.455 0.967549
295.679 1.03076
295.903 1.10090
296.108 1.17229
296.313 1.25141
296.518 1.33953
296.620 1.38736
296.723 1.43799
296.825 1.49169
296.928 1.54861
297.030 1.60908
297.133 1.67338
297.235 1.74186
297.338 1.81489
297.440 1.89289
297.543 1.97635
297.622 2.04499
297.701 2.11740
297.781 2.19397
297.860 2.27502
297.939 2.36091
298.018 2.45206
298.097 2.54889
298.137 2.59960
298.177 2.65191
298.226 2.71898
298.275 2.78861
298.324 2.86124
298.372 2.93675
298.421 3.01560
298.470 3.09766
298.519 3.18328
298.568 3.27269
298.598 3.33008
298.629 3.38907
298.659 3.44971
298.689 3.51208
298.717 3.57108
298.755 3.65243
298.787 3.72593
298.820 3.80177
298.852 3.88006
298.885 3.96091
298.932 4.08113
298.978 4.20717
299.025 4.33940
299.048 4.40797
299.071 4.47825
299.095 4.55030
299.118 4.62417
299.141 4.69994
299.165 4.77766
299.188 4.85742
299.211 4.93927
299.234 5.02330
299.258 5.10958
299.293 5.24361
299.328 5.38281
299.363 5.52830
299.398 5.67959
299.433 5.83790
299.450 5.91966
299.467 6.00275
299.485 6.08816
299.502 6.17549
299.520 6.26479
299.537 6.35560
299.563 6.49354
299.589 6.63565
299.614 6.78327
299.640 6.93549
299.666 7.09375
299.691 7.25708
299.717 7.42638
299.742 7.60193
299.770 7.80150
299.798 8.00863
299.826 8.22531
299.854 8.45048
299.882 8.68634
299.910 8.93178
299.938 9.18923
299.966 9.45754
299.992 9.71576
300.017 9.98417
300.043 10.2644
300.069 10.5573
300.094 10.8648
300.120 11.1854
300.145 11.5212
300.171 11.8733
300.197 12.2442
300.222 12.6324
300.248 13.0405
300.274 13.4700
300.299 13.9244
300.325 14.4020
300.350 14.9065
300.376 15.4400
300.402 16.0075
300.427 16.6072
300.453 17.2469
300.479 17.9253
300.504 18.6516
300.530 19.4246
300.556 20.2523
300.581 21.1404
300.607 22.0995
300.632 23.1298
300.658 24.2438
300.684 25.4515
300.697 26.0991
300.709 26.7698
300.722 27.4702
300.735 28.2021
300.748 28.9676
300.761 29.7687
300.773 30.6079
300.786 31.4875
300.799 32.4176
300.812 33.3866
300.825 34.4046
300.837 35.4749
300.850 36.6009
300.863 37.7864
300.876 39.0353
300.889 40.3518
300.902 41.7517
300.914 43.2180
300.927 44.7663
300.940 46.4022
300.953 48.1313
300.966 49.9598
300.978 51.8939
300.991 53.9406
301.004 56.1243
301.017 58.4187
301.030 60.8481
301.042 63.4207
301.055 66.1452
301.068 69.0304
301.081 72.0856
301.094 75.3206
301.107 78.7727
301.119 82.3988
301.132 86.2353
301.145 90.2933
301.158 94.5835
301.171 99.1173
301.183 103.906
301.196 108.961
301.209 114.336
301.222 119.960
301.235 125.885
301.247 132.121
301.260 138.680
301.273 145.573
301.286 152.808
301.299 160.397
301.312 168.412
301.324 176.736
301.337 185.438
301.350 194.525
301.363 204.001
301.376 213.872
301.388 224.141
301.401 234.808
301.418 249.059
301.434 263.868
301.450 279.314
301.466 295.381
301.483 312.052
301.499 329.303
301.532 365.419
301.557 395.236
301.583 425.909
301.634 489.206
301.685 553.289
301.737 615.186
301.762 644.540
301.788 672.123
301.814 697.674
301.839 720.826
301.865 741.310
301.891 758.719
301.916 772.780
301.942 783.268
301.971 790.622
302.000 793.028
302.008 792.797
302.035 789.241
302.062 781.450
302.089 769.565
302.116 753.798
302.137 739.476
302.157 723.320
302.177 705.418
302.198 685.938
302.237 644.191
302.277 598.650
302.334 528.089
302.392 456.465
302.431 408.367
302.471 362.338
302.490 340.282
302.510 319.108
302.530 298.763
302.549 279.292
302.569 260.635
302.589 243.004
302.609 226.232
302.628 210.489
302.648 195.611
302.668 181.732
302.688 168.755
302.707 156.654
302.724 147.338
302.740 138.627
302.756 130.392
302.772 122.714
302.788 115.476
302.804 108.743
302.820 102.411
302.837 96.5335
302.853 91.0154
302.869 85.9023
302.885 81.1086
302.901 76.6721
302.917 72.5167
302.933 68.6737
302.950 65.0975
302.966 61.7698
302.985 57.9926
303.005 54.5514
303.025 51.3830
303.045 48.4933
303.064 45.8290
303.084 43.3947
303.104 41.1565
303.124 39.0957
303.143 37.1866
303.163 35.4330
303.183 33.8034
303.203 32.3016
303.222 30.9012
303.242 29.6062
303.262 28.4001
303.281 27.2749
303.303 26.1256
303.325 25.0608
303.346 24.0633
303.368 23.1354
303.389 22.2626
303.411 21.4478
303.432 20.6819
303.454 19.9609
303.497 18.6361
303.540 17.4513
303.583 16.3861
303.626 15.4258
303.666 14.6221
303.705 13.8844
303.745 13.2053
303.784 12.5799
303.823 11.9996
303.863 11.4612
303.902 10.9607
303.942 10.4957
303.981 10.0605
304.021 9.65360
304.060 9.27258
304.100 8.91609
304.139 8.58035
304.179 8.26456
304.218 7.96713
304.258 7.68733
304.337 7.17212
304.416 6.71139
304.495 6.29666
304.573 5.92290
304.652 5.58406
304.731 5.27668
304.810 4.99665
304.889 4.74086
304.961 4.52685
305.033 4.32891
305.105 4.14547
305.176 3.97541
305.248 3.81705
305.320 3.66956
305.392 3.53201
305.463 3.40372
305.535 3.28359
305.607 3.17114
305.679 3.06575
305.750 2.96703
305.894 2.78698
306.038 2.62784
306.196 2.47331
306.353 2.33757
306.511 2.21799
306.669 2.11249
306.827 2.01933
306.985 1.93706
307.143 1.86449
307.301 1.80061
307.516 1.72597
307.731 1.66408
307.947 1.61342
308.162 1.57280
308.377 1.54139
308.593 1.51853
308.808 1.50374
309.023 1.49667
309.167 1.49613
309.310 1.49890
309.454 1.50497
309.597 1.51435
309.741 1.52709
309.885 1.54325
310.028 1.56295
310.172 1.58627
310.315 1.61339
310.459 1.64447
310.602 1.67974
310.746 1.71940
310.889 1.76378
311.033 1.81318
311.176 1.86803
311.320 1.92883
311.478 2.00331
311.636 2.08645
311.794 2.17921
311.952 2.28272
312.110 2.39829
312.267 2.52745
312.425 2.67205
312.583 2.83428
312.687 2.95211
312.791 3.07959
312.896 3.21772
313.000 3.36747
313.052 3.44731
313.104 3.53044
313.156 3.61737
313.208 3.70798
313.260 3.80284
313.312 3.90181
313.364 4.00533
313.416 4.11368
313.455 4.19939
313.495 4.28819
313.534 4.38023
313.574 4.47542
313.613 4.57440
313.653 4.67712
313.692 4.78375
313.732 4.89422
313.762 4.98268
313.793 5.07382
313.823 5.16775
313.854 5.26458
313.884 5.36444
313.915 5.46745
313.945 5.57374
313.976 5.68345
313.990 5.73611
314.015 5.83087
314.040 5.92781
314.065 6.02739
314.090 6.12972
314.116 6.23533
314.141 6.34347
314.166 6.45467
314.191 6.56906
314.211 6.66162
314.230 6.75581
314.250 6.85266
314.270 6.95125
314.290 7.05266
314.309 7.15594
314.329 7.26166
314.349 7.36990
314.369 7.48133
314.388 7.59488
314.408 7.71182
314.428 7.83104
314.448 7.95387
314.467 8.07914
314.487 8.20760
314.507 8.33934
314.521 8.43778
314.536 8.53808
314.564 8.74373
314.593 8.95737
314.622 9.17942
314.650 9.41034
314.679 9.65061
314.708 9.90076
314.736 10.1613
314.756 10.3475
314.776 10.5382
314.796 10.7354
314.815 10.9376
314.835 11.1469
314.855 11.3615
314.875 11.5828
314.894 11.8109
314.914 12.0475
314.934 12.2903
314.954 12.5424
314.973 12.8013
314.993 13.0702
315.013 13.3468
315.033 13.6327
315.052 13.9285
315.072 14.2362
315.092 14.5531
315.112 14.8832
315.131 15.2234
315.151 15.5781
315.171 15.9442
315.190 16.3242
315.210 16.7189
315.230 17.1311
315.250 17.5576
315.269 18.0036
315.289 18.4657
315.309 18.9496
315.329 19.4516
315.348 19.9753
315.368 20.5222
315.388 21.0966
315.408 21.6945
315.427 22.3235
315.447 22.9793
315.467 23.6707
315.487 24.3930
315.506 25.1520
315.526 25.9505
315.546 26.7959
315.565 27.6830
315.585 28.6244
315.605 29.6146
315.625 30.6682
315.644 31.7793
315.664 32.9585
315.684 34.2117
315.704 35.5524
315.723 36.9741
315.743 38.4994
315.763 40.1215
315.783 41.8666
315.802 43.7275
315.822 45.7244
315.842 47.8697
315.862 50.1894
315.881 52.6752
315.901 55.3687
315.921 58.2605
315.941 61.3993
315.960 64.7740
315.980 68.4221
316.000 72.3671
316.019 76.6566
316.039 81.2740
316.059 86.2945
316.079 91.6969
316.098 97.5666
316.118 103.876
316.138 110.686
316.158 118.030
316.177 125.981
316.197 134.493
316.217 143.637
316.236 153.443
316.256 163.996
316.276 175.216
316.296 187.180
316.315 199.909
316.335 213.490
316.355 227.797
316.375 242.982
316.394 258.891
316.414 275.678
316.434 293.159
316.454 311.487
316.473 330.443
316.493 350.179
316.513 370.442
316.552 412.587
316.592 456.471
316.631 501.096
316.678 553.821
316.724 604.607
316.764 644.846
316.803 681.202
316.832 704.290
316.860 724.504
316.888 741.508
316.916 754.970
316.937 762.620
316.958 768.125
316.979 771.428
317.000 772.499
317.011 772.193
317.045 767.324
317.079 756.689
317.113 740.556
317.147 719.337
317.181 694.046
317.214 665.035
317.247 632.780
317.281 598.158
317.315 560.555
317.350 521.941
317.419 444.151
317.453 406.098
317.487 369.476
317.522 334.476
317.556 301.607
317.580 280.433
317.603 260.352
317.627 241.394
317.650 223.570
317.674 206.878
317.697 191.306
317.721 176.827
317.744 163.463
317.762 154.236
317.779 145.591
317.796 137.456
317.813 129.808
317.830 122.588
317.848 115.856
317.865 109.549
317.882 103.643
317.899 98.0864
317.917 92.9219
317.934 88.0951
317.951 83.5858
317.968 79.3741
317.985 75.4409
318.003 71.7680
318.020 68.3379
318.037 65.1161
318.054 62.1239
318.071 59.3273
318.089 56.7122
318.106 54.2518
318.123 51.9622
318.140 49.8172
318.158 47.8062
318.175 45.9085
318.192 44.1369
318.209 42.4715
318.226 40.9044
318.244 39.4200
318.261 38.0287
318.295 35.4747
318.328 33.2843
318.361 31.3074
318.394 29.5163
318.427 27.8923
318.460 26.4055
318.493 25.0440
318.526 23.7934
318.558 22.6444
318.591 21.5794
318.624 20.5928
318.657 19.6766
318.690 18.8263
318.723 18.0308
318.756 17.2873
318.789 16.5912
318.821 15.9402
318.856 15.2979
318.890 14.6971
318.925 14.1308
318.959 13.5995
318.994 13.0973
319.028 12.6248
319.097 11.7548
319.166 10.9745
319.235 10.2719
319.304 9.63657
319.372 9.06093
319.423 8.67453
319.473 8.31303
319.523 7.97429
319.573 7.65642
319.623 7.35769
319.673 7.07657
319.723 6.81168
319.773 6.56176
319.823 6.32569
319.873 6.10244
319.974 5.69077
320.074 5.32029
320.174 4.98560
320.243 4.77386
320.312 4.57563
320.381 4.38977
320.450 4.21527
320.519 4.05121
320.587 3.89678
320.656 3.75122
320.725 3.61407
320.794 3.48430
320.863 3.36157
321.001 3.13542
321.138 2.93176
321.276 2.74793
321.414 2.58118
321.552 2.42956
321.690 2.29127
321.827 2.16489
321.965 2.04892
322.103 1.94239
322.241 1.84418
322.378 1.75355
322.516 1.66960
322.654 1.59170
322.792 1.51928
322.929 1.45187
323.067 1.38893
323.205 1.33012
323.343 1.27510
323.480 1.22358
323.618 1.17520
323.756 1.12974
323.894 1.08697
324.032 1.04670
324.169 1.00870
324.307 0.972828
324.583 0.906802
324.858 0.847521
325.134 0.794123
325.409 0.745829
325.685 0.702001
325.960 0.662085
326.236 0.625649
326.511 0.592283
326.787 0.561647
327.012 0.538402
327.238 0.516671
327.463 0.496318
327.689 0.477236
327.914 0.459277
328.139 0.442354
328.365 0.426387
328.590 0.411314
329.041 0.383600
329.492 0.358758
329.943 0.336400
330.394 0.316205
330.669 0.304802
330.945 0.294052
331.496 0.274305
332.047 0.256621
332.598 0.240722
333.149 0.226368
333.700 0.213364
334.251 0.201545
334.802 0.190771
335.203 0.183519
335.604 0.176715
336.005 0.170321
336.405 0.164307
336.806 0.158645
337.207 0.153329
338.009 0.143541
338.810 0.134742
339.612 0.126835
340.413 0.119701
341.215 0.113244
341.766 0.109156
342.317 0.105325
342.868 0.101729
343.419 0.0983541
344.521 0.0921905
345.623 0.0867209
346.726 0.0818455
347.828 0.0774894
348.930 0.0735853
350.032 0.0700778
350.884 0.0676103
351.735 0.0653342
352.587 0.0632327
353.439 0.0612923
354.290 0.0595191
355.142 0.0578751
355.994 0.0563366
356.845 0.0549261
358.548 0.0524193
360.252 0.0503016
361.955 0.0485313
363.658 0.0470757
365.662 0.0457367
366.664 0.0452019
367.666 0.0447682
368.668 0.0444071
369.670 0.0441441
371.674 0.0438659
373.477 0.0439191
375.281 0.0442659
377.084 0.0449209
377.986 0.0453606
378.888 0.0459075
379.790 0.0465242
380.691 0.0472593
381.593 0.0480822
382.495 0.0490225
383.397 0.0500596
384.298 0.0512456
385.200 0.0525725
386.102 0.0540519
387.204 0.0560896
388.306 0.0584080
389.408 0.0610455
390.510 0.0640468
391.613 0.0674649
392.715 0.0713660
393.266 0.0735215
393.817 0.0758293
394.368 0.0783016
394.919 0.0809517
395.771 0.0854383
396.622 0.0904585
397.474 0.0960932
398.326 0.102439
398.752 0.105914
399.177 0.109612
399.603 0.113533
400.029 0.117707
400.455 0.122186
400.881 0.126983
401.306 0.132121
401.732 0.137631
402.283 0.145375
402.834 0.153892
403.386 0.163287
403.937 0.173681
404.488 0.185221
405.039 0.198077
405.590 0.212459
405.865 0.220296
406.141 0.228610
406.617 0.244218
407.093 0.261601
407.331 0.271047
407.569 0.281042
407.807 0.291639
408.044 0.302877
408.282 0.314818
408.520 0.327517
408.758 0.341034
408.996 0.355425
409.234 0.370776
409.472 0.387173
409.710 0.404751
409.948 0.423619
410.224 0.447258
410.499 0.473004
410.775 0.501119
411.050 0.531903
411.326 0.565718
411.601 0.602946
411.877 0.644079
412.152 0.689684
412.428 0.740455
412.566 0.768018
412.703 0.797161
412.841 0.828053
412.979 0.860814
413.117 0.895599
413.255 0.932549
413.392 0.971907
413.530 1.01386
413.668 1.05863
413.806 1.10645
413.943 1.15766
414.081 1.21252
414.219 1.27147
414.357 1.33481
414.507 1.40958
414.657 1.49091
414.808 1.57962
414.958 1.67665
415.108 1.78306
415.258 1.90011
415.409 2.02924
415.484 2.09882
415.559 2.17210
415.634 2.24944
415.709 2.33093
415.784 2.41712
415.860 2.50813
415.935 2.60459
416.010 2.70666
416.047 2.76008
416.085 2.81511
416.123 2.87183
416.160 2.93015
416.202 2.99812
416.245 3.06853
416.287 3.14149
416.329 3.21694
416.372 3.29538
416.414 3.37676
416.456 3.46125
416.498 3.54880
416.548 3.65696
416.589 3.74877
416.630 3.84414
416.670 3.94326
416.711 4.04633
416.746 4.13696
416.780 4.23045
416.815 4.32749
416.849 4.42768
416.883 4.53176
416.918 4.63932
416.952 4.75115
416.987 4.86682
417.021 4.98721
417.056 5.11186
417.090 5.24172
417.125 5.37630
417.159 5.51667
417.193 5.66232
417.228 5.81394
417.262 5.97189
417.280 6.05383
417.297 6.13703
417.331 6.30877
417.366 6.48856
417.400 6.67581
417.435 6.87209
417.469 7.07682
417.503 7.29174
417.538 7.51626
417.572 7.75236
417.607 7.99940
417.641 8.25965
417.676 8.53246
417.710 8.82040
417.745 9.12286
417.779 9.44182
417.813 9.77855
417.848 10.1355
417.882 10.5123
417.917 10.9127
417.951 11.3365
417.986 11.7883
418.020 12.2678
418.055 12.7807
418.089 13.3271
418.123 13.9137
418.141 14.2218
418.158 14.5411
418.175 14.8722
418.192 15.2156
418.209 15.5721
418.227 15.9424
418.244 16.3295
418.261 16.7299
418.278 17.1465
418.296 17.5805
418.313 18.0328
418.330 18.5045
418.347 18.9970
418.364 19.5113
418.382 20.0523
418.399 20.6152
418.416 21.2046
418.433 21.8223
418.451 22.4741
418.468 23.1546
418.485 23.8695
418.502 24.6214
418.519 25.4175
418.537 26.2514
418.554 27.1306
418.571 28.0583
418.588 29.0438
418.606 30.0794
418.623 31.1746
418.640 32.3337
418.657 33.5687
418.674 34.8700
418.692 36.2498
418.709 37.7136
418.726 39.2766
418.743 40.9269
418.761 42.6799
418.778 44.5424
418.795 46.5336
418.812 48.6382
418.829 50.8754
418.847 53.2535
418.864 55.7811
418.881 58.4674
418.898 61.3216
418.915 64.3534
418.932 67.4377
418.948 70.6829
418.965 74.1375
418.981 77.7686
418.998 81.6295
419.014 85.6825
419.031 89.9858
419.047 94.4961
419.064 99.2771
419.080 104.279
419.096 109.571
419.113 115.096
419.129 120.929
419.146 127.005
419.162 133.364
419.179 140.011
419.196 147.338
419.213 154.949
419.230 162.885
419.247 171.146
419.265 179.732
419.282 188.639
419.299 197.862
419.316 207.394
419.351 227.404
419.385 248.453
419.420 270.523
419.454 293.310
419.523 340.395
419.592 387.561
419.626 410.408
419.661 432.213
419.695 452.689
419.730 471.485
419.765 488.627
419.800 503.286
419.835 515.223
419.870 524.194
419.910 530.567
419.930 532.161
419.950 532.676
419.962 532.482
419.999 529.414
420.036 522.685
420.073 512.454
420.110 498.999
420.138 487.015
420.166 473.589
420.193 458.785
420.221 442.882
420.248 426.510
420.274 409.389
420.328 373.575
420.406 319.963
420.445 293.476
420.484 267.710
420.511 250.523
420.538 233.972
420.565 218.061
420.591 202.845
420.618 188.366
420.645 174.653
420.672 161.722
420.699 149.580
420.725 138.183
420.752 127.605
420.779 117.782
420.806 108.690
420.833 100.300
420.859 92.5784
420.886 85.4895
420.913 78.9956
420.935 74.0823
420.957 69.5425
420.979 65.3133
421.001 61.4124
421.023 57.7836
421.045 54.4402
421.067 51.3461
421.089 48.4832
421.111 45.8226
421.132 43.3721
421.154 41.0938
421.176 38.9939
421.198 37.0396
421.220 35.2361
421.242 33.5624
421.264 32.0079
421.291 30.2469
421.318 28.6397
421.345 27.1643
421.371 25.8076
421.398 24.5574
421.425 23.4031
421.452 22.3351
421.479 21.3449
421.505 20.4217
421.532 19.5656
421.559 18.7670
421.586 18.0207
421.613 17.3220
421.639 16.6665
421.666 16.0507
421.693 15.4710
421.722 14.8753
421.752 14.3177
421.781 13.7913
421.810 13.2970
421.839 12.8289
421.869 12.3880
421.927 11.5742
421.986 10.8418
422.044 10.1799
422.103 9.57918
422.161 9.03209
422.215 8.57153
422.268 8.14720
422.322 7.75455
422.376 7.39039
422.429 7.05135
422.483 6.73624
422.536 6.44228
422.590 6.16755
422.644 5.90993
422.697 5.66886
422.751 5.44252
422.805 5.22971
422.858 5.02936
422.912 4.84049
422.965 4.66223
423.019 4.49379
423.126 4.18328
423.233 3.90455
423.341 3.65290
423.448 3.42531
423.555 3.21840
423.662 3.03007
423.770 2.85799
423.877 2.70033
423.965 2.58084
424.052 2.46931
424.140 2.36482
424.228 2.26701
424.316 2.17509
424.403 2.08878
424.491 2.00746
424.579 1.93091
424.667 1.85859
424.754 1.79036
424.930 1.66469
425.105 1.55188
425.281 1.45028
425.388 1.39300
425.495 1.33912
425.603 1.28829
425.710 1.24036
425.817 1.19504
425.924 1.15221
426.139 1.07320
426.353 1.00211
426.568 0.937900
426.782 0.879718
426.997 0.826828
427.231 0.774434
427.465 0.726908
427.699 0.683666
427.933 0.644227
428.167 0.608138
428.401 0.575054
428.635 0.544642
428.869 0.516614
429.083 0.492772
429.298 0.470546
429.512 0.449799
429.727 0.430409
429.941 0.412262
430.156 0.395254
430.370 0.379292
430.585 0.364291
430.799 0.350176
431.014 0.336879
431.228 0.324337
431.443 0.312494
431.872 0.290706
432.300 0.271163
432.729 0.253559
433.158 0.237648
433.587 0.223220
434.016 0.210098
434.445 0.198125
434.874 0.187174
435.303 0.177129
435.732 0.167894
436.083 0.160880
436.434 0.154313
436.785 0.148165
437.136 0.142401
437.487 0.136970
437.838 0.131843
438.189 0.127006
438.540 0.122441
439.242 0.114045
439.944 0.106519
440.646 0.0997449
441.348 0.0936268
441.777 0.0901743
442.206 0.0869192
442.635 0.0838467
443.064 0.0809440
443.922 0.0755969
444.780 0.0707936
445.638 0.0664614
446.496 0.0625413
447.354 0.0589816
448.211 0.0557399
448.796 0.0536925
449.381 0.0517652
449.966 0.0499488
450.551 0.0482352
451.721 0.0450854
452.891 0.0422793
454.061 0.0397394
455.231 0.0374434
456.401 0.0353634
457.571 0.0334730
458.429 0.0321958
459.287 0.0309987
460.145 0.0298745
461.003 0.0288225
461.861 0.0278332
462.718 0.0269002
464.434 0.0251960
466.150 0.0236740
467.866 0.0223125
469.582 0.0210888
471.298 0.0199839
472.468 0.0192921
473.638 0.0186451
475.978 0.0174706
478.318 0.0164353
480.657 0.0155256
482.997 0.0147093
485.337 0.0139821
487.677 0.0133329
490.017 0.0127523
492.513 0.0121992
495.008 0.0117067
497.504 0.0112679
500.000 0.0108780
503.483 0.0104057
506.965 0.0100078
510.447 0.00967693
513.930 0.00940726
517.412 0.00919448
520.895 0.00903576
524.377 0.00892958
527.859 0.00887572
531.124 0.00887394
534.389 0.00892157
537.654 0.00902182
540.918 0.00917929
544.183 0.00939438
547.448 0.00968580
550.713 0.0100608
553.977 0.0105350
556.263 0.0109376
558.548 0.0114069
560.833 0.0119531
563.119 0.0125937
565.404 0.0133438
567.689 0.0142222
569.975 0.0152629
571.117 0.0158518
572.260 0.0164909
573.457 0.0172312
574.654 0.0180467
575.851 0.0189472
577.048 0.0199446
578.245 0.0210526
579.443 0.0222878
580.640 0.0236699
581.837 0.0252224
582.925 0.0268062
584.013 0.0285809
585.101 0.0305783
586.190 0.0328369
587.278 0.0354046
588.366 0.0383398
588.910 0.0399671
589.454 0.0417097
589.999 0.0435792
590.543 0.0456022
591.141 0.0480202
591.740 0.0506590
592.338 0.0535472
592.937 0.0567160
593.535 0.0602044
594.134 0.0640559
594.732 0.0683235
595.331 0.0730696
595.930 0.0783700
596.528 0.0843128
596.827 0.0875592
597.127 0.0910090
597.426 0.0946799
597.725 0.0985897
598.024 0.102763
598.324 0.107222
598.623 0.111993
598.922 0.117106
599.222 0.122595
599.521 0.128494
599.820 0.134844
600.119 0.141690
600.419 0.149097
600.718 0.157134
601.017 0.165874
601.316 0.175394
601.616 0.185793
601.915 0.197179
602.214 0.209682
602.513 0.223448
602.813 0.238664
603.112 0.255538
603.411 0.274320
603.561 0.284515
603.711 0.295303
603.860 0.306741
604.010 0.318865
604.159 0.331739
604.309 0.345427
604.459 0.360010
604.608 0.375546
604.758 0.392130
604.908 0.409857
605.098 0.434257
605.288 0.460926
605.479 0.490191
605.669 0.522375
605.860 0.557929
606.050 0.597308
606.241 0.641131
606.336 0.664900
606.431 0.690044
606.581 0.732625
606.730 0.779322
606.880 0.830758
607.030 0.887525
607.179 0.950482
607.329 1.02048
607.404 1.05847
607.479 1.09867
607.553 1.14126
607.628 1.18642
607.696 1.22996
607.764 1.27592
607.832 1.32456
607.900 1.37610
607.968 1.43078
608.036 1.48886
608.104 1.55064
608.172 1.61644
608.240 1.68674
608.308 1.76174
608.376 1.84201
608.444 1.92805
608.512 2.02046
608.580 2.11991
608.648 2.22716
608.716 2.34307
608.785 2.46884
608.853 2.60526
608.921 2.75386
608.989 2.91620
609.057 3.09416
609.091 3.18968
609.125 3.28996
609.159 3.39535
609.193 3.50625
609.227 3.62307
609.261 3.74628
609.298 3.89023
609.335 4.04297
609.373 4.20577
609.410 4.37966
609.448 4.56579
609.485 4.76552
609.504 4.87096
609.522 4.98041
609.541 5.09409
609.560 5.21227
609.577 5.32384
609.594 5.43957
609.611 5.55970
609.628 5.68449
609.645 5.81421
609.662 5.94917
609.679 6.08968
609.696 6.23610
609.703 6.29730
609.728 6.53286
609.754 6.78434
609.767 6.91707
609.779 7.05333
609.792 7.19551
609.805 7.34162
609.820 7.52469
609.835 7.71589
609.851 7.91573
609.866 8.12475
609.881 8.34354
609.897 8.57270
609.912 8.81290
609.927 9.06483
609.942 9.32925
609.958 9.60694
609.973 9.89877
609.988 10.2056
610.004 10.5285
610.019 10.8684
610.034 11.2263
610.050 11.6035
610.062 11.9136
610.073 12.2341
610.085 12.5682
610.097 12.9166
610.109 13.2800
610.121 13.6589
610.133 14.0543
610.145 14.4668
610.157 14.8973
610.169 15.3465
610.181 15.8154
610.192 16.3048
610.204 16.8157
610.216 17.3490
610.228 17.9057
610.240 18.4868
610.259 19.4518
610.277 20.4839
610.296 21.5876
610.315 22.7674
610.334 24.0281
610.352 25.3747
610.371 26.8122
610.390 28.3459
610.408 29.9812
610.427 31.7234
610.446 33.5782
610.464 35.5510
610.483 37.6475
610.502 39.8733
610.521 42.2339
610.539 44.7346
610.558 47.3955
610.577 50.1932
610.595 53.1465
610.614 56.2599
610.633 59.5376
610.652 62.9836
610.670 66.6011
610.689 70.3931
610.708 74.3619
610.726 78.5091
610.745 82.8357
610.764 87.3418
610.782 92.0268
610.801 96.8892
610.820 101.927
610.839 107.135
610.857 112.511
610.876 118.048
610.913 129.579
610.951 141.661
610.988 154.209
611.026 167.151
611.063 180.298
611.138 206.734
611.185 223.178
611.233 238.901
611.270 250.506
611.308 261.256
611.345 270.979
611.383 279.513
611.422 287.108
611.462 293.049
611.487 295.886
611.512 297.989
611.537 299.355
611.562 299.971
611.570 300.009
611.578 299.962
611.605 299.231
611.632 297.620
611.659 295.145
611.686 291.830
611.714 287.622
611.741 282.615
611.769 276.857
611.796 270.403
611.825 263.042
611.853 255.068
611.882 246.556
611.910 237.584
611.967 218.581
612.024 198.694
612.102 171.248
612.141 157.745
612.180 144.630
612.208 135.294
612.237 126.255
612.265 117.548
612.294 109.202
612.322 101.238
612.351 93.6724
612.379 86.5164
612.408 79.7755
612.436 73.4292
612.465 67.5185
612.493 62.0136
612.522 56.9044
612.550 52.1779
612.579 47.8192
612.607 43.8115
612.636 40.1366
612.661 37.2063
612.685 34.5096
612.710 32.0215
612.734 29.7294
612.759 27.6207
612.784 25.6830
612.808 23.9045
612.833 22.2735
612.857 20.7789
612.882 19.4102
612.907 18.1571
612.931 17.0103
612.956 15.9607
612.980 15.0001
613.005 14.1206
613.030 13.3150
613.058 12.4624
613.087 11.6937
613.115 10.9971
613.144 10.3648
613.172 9.78989
613.201 9.26613
613.229 8.78795
613.258 8.35040
613.286 7.94909
613.315 7.58011
613.343 7.24002
613.372 6.92578
613.400 6.63471
613.429 6.36443
613.457 6.11286
613.486 5.87815
613.519 5.62018
613.553 5.38118
613.587 5.15913
613.620 4.95287
613.654 4.75966
613.688 4.57881
613.722 4.40915
613.755 4.25013
613.789 4.09993
613.823 3.95823
613.890 3.69802
613.957 3.46402
614.025 3.25315
614.082 3.09006
614.139 2.93954
614.196 2.80026
614.253 2.67107
614.310 2.55096
614.367 2.43908
614.424 2.33466
614.481 2.23702
614.538 2.14557
614.595 2.05979
614.652 1.97919
614.709 1.90337
614.766 1.83194
614.823 1.76455
614.880 1.70092
614.937 1.64074
615.051 1.52972
615.165 1.42991
615.279 1.33977
615.393 1.25806
615.507 1.18376
615.621 1.11598
615.735 1.05398
615.849 0.997108
615.952 0.949358
616.056 0.905065
616.160 0.863821
616.263 0.825420
616.367 0.789534
616.471 0.756010
616.574 0.724612
616.678 0.695163
616.781 0.667479
616.885 0.641469
616.989 0.616980
617.092 0.593893
617.196 0.572085
617.300 0.551500
617.507 0.513600
617.621 0.494429
617.735 0.476337
617.849 0.459246
617.963 0.443081
618.191 0.413276
618.419 0.386461
618.647 0.362248
618.875 0.340312
619.103 0.320375
619.331 0.302204
619.476 0.291465
619.621 0.281314
619.911 0.262609
620.201 0.245802
620.492 0.230650
620.782 0.216941
621.072 0.204490
621.362 0.193144
621.652 0.182783
621.880 0.175258
622.108 0.168230
622.336 0.161656
622.564 0.155499
622.792 0.149725
623.020 0.144305
623.248 0.139211
623.476 0.134418
623.932 0.125649
624.388 0.117843
624.844 0.110871
625.300 0.104626
625.756 0.0990178
626.212 0.0939707
626.668 0.0894202
627.124 0.0853115
627.580 0.0815978
628.036 0.0782393
628.492 0.0752048
628.948 0.0724683
629.363 0.0702106
629.777 0.0681483
630.192 0.0662693
630.606 0.0645651
631.021 0.0630246
631.436 0.0616389
632.265 0.0592988
633.094 0.0574927
633.923 0.0561856
634.752 0.0553576
635.581 0.0550030
636.244 0.0550660
636.908 0.0554496
637.571 0.0561730
638.234 0.0572617
638.897 0.0587436
639.561 0.0606777
640.224 0.0631392
640.887 0.0662030
641.343 0.0687142
641.799 0.0716040
642.255 0.0749259
642.711 0.0787444
643.167 0.0831381
643.623 0.0882032
644.079 0.0940590
644.535 0.100854
644.846 0.106120
645.157 0.111977
645.468 0.118507
645.779 0.125810
646.090 0.134011
646.401 0.143264
646.712 0.153751
647.023 0.165687
647.251 0.175514
647.479 0.186392
647.707 0.198473
647.935 0.211938
648.163 0.227004
648.391 0.243932
648.505 0.253191
648.619 0.263040
648.733 0.273530
648.846 0.284708
649.023 0.303517
649.199 0.324412
649.375 0.347710
649.463 0.360378
649.551 0.373797
649.639 0.388029
649.727 0.403142
649.816 0.419211
649.904 0.436320
649.992 0.454563
650.080 0.474043
650.168 0.494877
650.256 0.517196
650.370 0.548519
650.484 0.582938
650.598 0.620884
650.712 0.662862
650.826 0.709479
650.940 0.761459
650.997 0.789728
651.054 0.819681
651.111 0.851459
651.168 0.885158
651.222 0.919446
651.277 0.955804
651.331 0.994482
651.386 1.03569
651.440 1.07966
651.494 1.12667
651.549 1.17701
651.603 1.23103
651.658 1.28923
651.712 1.35186
651.767 1.41954
651.821 1.49290
651.875 1.57266
651.930 1.65971
651.984 1.75511
652.039 1.86016
652.096 1.98237
652.153 2.11933
652.181 2.19425
652.210 2.27408
652.238 2.35933
652.267 2.45061
652.295 2.54861
652.324 2.65413
652.352 2.76808
652.381 2.89153
652.409 3.02567
652.438 3.17191
652.466 3.33185
652.494 3.50667
652.523 3.70042
652.552 3.91356
652.580 4.14949
652.609 4.41131
652.637 4.70256
652.666 5.02725
652.694 5.38988
652.708 5.58770
652.723 5.79551
652.737 6.01699
652.751 6.24979
652.765 6.49801
652.780 6.75901
652.794 7.03737
652.808 7.33013
652.822 7.64240
652.837 7.97084
652.851 8.32116
652.865 8.68957
652.879 9.08244
652.894 9.49548
652.908 9.93580
652.922 10.3986
652.936 10.8916
652.951 11.4095
652.970 12.1692
652.989 12.9843
652.999 13.4197
653.009 13.8671
653.028 14.8127
653.048 15.8352
653.067 16.9283
653.087 18.1016
653.106 19.3594
653.126 20.7136
653.145 22.1548
653.164 23.6942
653.184 25.3363
653.203 27.0949
653.223 28.9563
653.242 30.9333
653.261 33.0300
653.278 34.9568
653.295 36.9673
653.312 39.0874
653.329 41.2940
653.346 43.6149
653.363 46.0240
653.379 48.5358
653.396 51.1510
653.417 54.5329
653.438 58.0565
653.466 63.1641
653.495 68.5635
653.523 74.2454
653.552 80.1755
653.580 86.3782
653.609 92.8114
653.637 99.4488
653.666 106.260
653.702 115.131
653.738 124.120
653.795 138.363
653.852 152.304
653.909 165.513
653.938 171.723
653.966 177.587
653.995 183.071
654.023 188.083
654.052 192.596
654.080 196.550
654.109 199.935
654.137 202.701
654.169 205.057
654.202 206.544
654.240 207.156
654.251 207.101
654.287 206.215
654.322 204.269
654.354 201.631
654.386 198.204
654.418 193.981
654.450 189.045
654.483 183.478
654.515 177.334
654.544 171.285
654.573 164.898
654.632 151.267
654.696 135.483
654.760 119.455
654.836 100.945
654.874 92.0892
654.912 83.6016
654.944 76.7415
654.977 70.2359
655.009 64.0652
655.041 58.2820
655.073 52.8585
655.105 47.8310
655.121 45.4513
655.137 43.1656
655.153 40.9729
655.169 38.8847
655.186 36.8734
655.202 34.9508
655.218 33.1150
655.234 31.3747
655.250 29.7060
655.266 28.1180
655.282 26.6081
655.298 25.1828
655.314 23.8217
655.330 22.5314
655.346 21.3094
655.362 20.1602
655.378 19.0667
655.395 18.0337
655.411 17.0587
655.427 16.1447
655.441 15.3932
655.454 14.6795
655.468 14.0021
655.482 13.3594
655.496 12.7499
655.510 12.1721
655.524 11.6247
655.538 11.1097
655.552 10.6185
655.566 10.1535
655.579 9.71338
655.593 9.29989
655.607 8.90581
655.621 8.53309
655.635 8.18060
655.649 7.84961
655.663 7.53432
655.677 7.23619
655.690 6.95431
655.704 6.68776
655.718 6.43570
655.732 6.19730
655.746 5.97179
655.760 5.75993
655.788 5.36673
655.815 5.01538
655.843 4.69870
655.871 4.41482
655.887 4.26287
655.903 4.11970
655.935 3.85725
655.967 3.62309
656.000 3.41401
656.032 3.22545
656.064 3.05578
656.096 2.90152
656.128 2.76159
656.160 2.63335
656.192 2.51610
656.225 2.40781
656.257 2.30807
656.289 2.21531
656.321 2.12930
656.353 2.04883
656.385 1.97378
656.426 1.88465
656.467 1.80243
656.508 1.72612
656.549 1.65508
656.590 1.58863
656.631 1.52662
656.672 1.46847
656.713 1.41384
656.754 1.36230
656.795 1.31384
656.876 1.22481
656.958 1.14501
657.040 1.07314
657.104 1.02150
657.169 0.973669
657.233 0.929256
657.297 0.887933
657.362 0.849411
657.426 0.813435
657.490 0.779778
657.554 0.748240
657.619 0.718643
657.683 0.690826
657.747 0.664647
657.812 0.639977
657.876 0.616700
657.940 0.594710
658.069 0.554225
658.198 0.517834
658.326 0.485045
658.455 0.455368
658.583 0.428419
658.712 0.403868
658.841 0.381438
658.969 0.360888
659.098 0.342011
659.221 0.325382
659.343 0.309979
659.466 0.295680
659.589 0.282392
659.712 0.270001
659.834 0.258445
659.957 0.247632
660.080 0.237517
660.203 0.228025
660.325 0.219121
660.571 0.202863
660.816 0.188424
661.062 0.175540
661.319 0.163470
661.576 0.152668
661.834 0.142957
662.091 0.134194
662.348 0.126258
662.605 0.119049
662.862 0.112479
663.120 0.106475
663.517 0.0981662
663.915 0.0908690
664.312 0.0844222
664.710 0.0786899
665.107 0.0735680
665.505 0.0689752
665.902 0.0648418
666.299 0.0611094
666.814 0.0567897
667.328 0.0529664
667.843 0.0495651
668.357 0.0465253
668.872 0.0437965
669.386 0.0413385
669.900 0.0391157
670.415 0.0370989
671.210 0.0343306
672.005 0.0319240
672.800 0.0298211
673.595 0.0279611
674.390 0.0263127
675.185 0.0248464
675.980 0.0235369
676.775 0.0223627
677.804 0.0210159
678.833 0.0198355
679.861 0.0187964
680.890 0.0178782
681.919 0.0170642
682.948 0.0163409
683.977 0.0156970
685.005 0.0151232
686.970 0.0142003
688.934 0.0134540
690.898 0.0128623
692.862 0.0123999
694.826 0.0120519
696.790 0.0118080
698.754 0.0116589
700.718 0.0116009
702.683 0.0116345
704.647 0.0117599
706.611 0.0119815
708.575 0.0123095
710.539 0.0127546
712.503 0.0133321
714.467 0.0140675
716.431 0.0149820
717.460 0.0155520
718.489 0.0161921
719.518 0.0169106
720.547 0.0177181
721.576 0.0186268
722.604 0.0196514
723.633 0.0208094
724.662 0.0221223
725.551 0.0234006
726.439 0.0248337
727.328 0.0264457
728.216 0.0282660
729.105 0.0303301
729.993 0.0326798
730.882 0.0353599
731.770 0.0384516
732.285 0.0404628
732.799 0.0426579
733.314 0.0450598
733.828 0.0476948
734.342 0.0505943
734.857 0.0537933
735.371 0.0573347
735.886 0.0612686
736.400 0.0656558
736.915 0.0705663
737.429 0.0760873
737.943 0.0823240
738.458 0.0894054
738.972 0.0974898
739.229 0.101967
739.487 0.106770
739.744 0.111931
740.001 0.117488
740.258 0.123487
740.515 0.129976
740.773 0.137011
741.030 0.144656
741.287 0.152981
741.544 0.162067
741.801 0.172011
742.059 0.182924
742.316 0.194937
742.573 0.208203
742.830 0.222903
743.087 0.239252
743.345 0.257510
743.473 0.267449
743.602 0.277985
743.730 0.289169
743.859 0.301055
743.988 0.313702
744.116 0.327166
744.303 0.348402
744.490 0.371809
744.677 0.397697
744.864 0.426416
744.958 0.441994
745.052 0.458439
745.145 0.475837
745.239 0.494265
745.332 0.513829
745.426 0.534580
745.519 0.556640
745.613 0.580126
745.741 0.615018
745.870 0.653197
745.999 0.695129
746.127 0.741331
746.256 0.792412
746.384 0.849099
746.513 0.912263
746.577 0.946593
746.642 0.982954
746.706 1.02157
746.770 1.06252
746.835 1.10605
746.899 1.15241
746.963 1.20184
747.027 1.25464
747.092 1.31113
747.156 1.37168
747.220 1.43670
747.285 1.50668
747.349 1.58216
747.413 1.66377
747.478 1.75224
747.542 1.84843
747.606 1.95334
747.670 2.06820
747.735 2.19444
747.799 2.33386
747.863 2.48865
747.928 2.66157
747.960 2.75604
747.992 2.85613
748.024 2.96306
748.056 3.07685
748.088 3.19899
748.121 3.32960
748.153 3.47053
748.185 3.62207
748.211 3.75537
748.237 3.89781
748.264 4.05032
748.290 4.21393
748.316 4.38982
748.343 4.57930
748.369 4.78381
748.395 5.00498
748.422 5.24462
748.448 5.50475
748.461 5.64371
748.474 5.78758
748.487 5.93886
748.500 6.09559
748.514 6.26052
748.527 6.43150
748.540 6.61155
748.553 6.79832
748.566 6.99511
748.579 7.19935
748.593 7.41465
748.606 7.63821
748.620 7.88677
748.633 8.14761
748.647 8.42139
748.661 8.70879
748.675 9.01052
748.689 9.32732
748.703 9.65995
748.717 10.0067
748.731 10.3733
748.745 10.7582
748.758 11.1624
748.772 11.5867
748.786 12.0320
748.800 12.4995
748.814 12.9901
748.828 13.5011
748.838 13.8986
748.848 14.3063
748.859 14.7327
748.869 15.1699
748.881 15.7268
748.894 16.3029
748.906 16.9034
748.919 17.5292
748.931 18.1811
748.943 18.8602
748.956 19.5672
748.968 20.3031
748.980 21.0247
748.992 21.7737
749.003 22.5507
749.015 23.3566
749.027 24.1922
749.038 25.0581
749.050 25.9553
749.062 26.8845
749.073 27.8464
749.085 28.8419
749.109 30.9362
749.132 33.1734
749.155 35.5484
749.171 37.2781
749.187 39.0821
749.204 40.9618
749.220 42.9061
749.236 44.9407
749.252 47.0412
749.268 49.2348
749.284 51.4950
749.300 53.8506
749.316 56.2879
749.332 58.8072
749.348 61.3918
749.380 66.8366
749.412 72.5825
749.445 78.6546
749.477 85.0003
749.509 91.6386
749.541 98.5031
749.573 105.606
749.605 112.867
749.670 127.783
749.798 157.667
749.845 167.980
749.892 177.684
749.924 183.903
749.956 189.662
749.988 194.920
750.020 199.624
750.052 203.733
750.085 207.189
750.127 210.644
750.168 212.861
750.194 213.591
750.220 213.831
750.235 213.745
750.283 212.358
750.331 209.312
750.365 206.184
750.399 202.297
750.432 197.785
750.465 192.657
750.517 183.623
750.568 173.463
750.602 166.392
750.635 159.050
750.702 143.750
750.835 112.653
750.899 98.4398
750.931 91.6454
750.963 85.0925
750.994 78.7864
751.026 72.7862
751.058 67.0865
751.090 61.6976
751.123 56.3786
751.157 51.4257
751.190 46.8072
751.223 42.5450
751.240 40.5336
751.257 38.6047
751.273 36.7567
751.290 34.9983
751.307 33.3065
751.323 31.6998
751.340 30.1568
751.357 28.6940
751.378 26.9171
751.399 25.2562
751.420 23.6982
751.441 22.2383
751.463 20.8659
751.484 19.5890
751.505 18.3964
751.526 17.2837
751.548 16.2416
751.569 15.2756
751.590 14.3764
751.611 13.5399
751.632 12.7622
751.654 12.0395
751.675 11.3681
751.696 10.7446
751.713 10.2850
751.729 9.85155
751.746 9.44275
751.763 9.05944
751.779 8.69567
751.796 8.35252
751.813 8.02878
751.829 7.72507
751.846 7.43664
751.863 7.16431
751.880 6.90711
751.896 6.66552
751.930 6.21846
751.963 5.81938
751.996 5.46020
752.030 5.13805
752.063 4.84656
752.096 4.58363
752.130 4.34429
752.163 4.12703
752.196 3.92856
752.230 3.74665
752.263 3.57890
752.296 3.42466
752.330 3.28152
752.363 3.14911
752.396 3.02553
752.430 2.91057
752.463 2.80271
752.496 2.70189
752.530 2.60687
752.563 2.51766
752.630 2.35371
752.696 2.20680
752.763 2.07456
752.824 1.96490
752.884 1.86445
752.945 1.77197
753.006 1.68658
753.066 1.60739
753.127 1.53403
753.187 1.46579
753.248 1.40218
753.309 1.34268
753.369 1.28711
753.430 1.23503
753.491 1.18614
753.551 1.14018
753.612 1.09692
753.672 1.05614
753.733 1.01765
753.800 0.977723
753.866 0.940156
753.933 0.904762
754.000 0.871372
754.066 0.839834
754.133 0.810013
754.266 0.755069
754.400 0.705592
754.533 0.660903
754.667 0.620395
754.800 0.583583
754.885 0.561846
754.970 0.541320
755.139 0.503574
755.309 0.469680
755.479 0.439159
755.649 0.411543
755.818 0.386496
755.988 0.363678
756.158 0.342853
756.291 0.327723
756.425 0.313582
756.558 0.300346
756.691 0.287946
756.825 0.276298
756.958 0.265351
757.092 0.255048
757.225 0.245347
757.492 0.227540
757.758 0.211630
758.025 0.197349
758.292 0.184483
758.559 0.172846
758.825 0.162293
759.092 0.152685
759.359 0.143921
759.626 0.135897
759.892 0.128538
760.159 0.121772
760.426 0.115537
760.668 0.110284
760.911 0.105389
761.396 0.0965399
761.881 0.0887697
762.366 0.0819148
762.851 0.0758373
763.336 0.0704252
763.821 0.0655846
764.306 0.0612385
764.839 0.0569496
765.373 0.0531072
765.906 0.0496513
766.440 0.0465316
766.973 0.0437058
767.507 0.0411379
768.040 0.0387974
768.573 0.0366586
769.398 0.0336970
770.222 0.0310977
771.047 0.0288053
771.871 0.0267621
772.696 0.0249371
773.520 0.0233019
774.345 0.0218308
775.169 0.0205025
776.236 0.0189662
777.303 0.0176068
778.370 0.0163978
779.437 0.0153178
780.504 0.0143488
781.571 0.0134758
783.705 0.0119706
785.160 0.0110964
786.615 0.0103232
788.070 0.00963581
789.525 0.00902536
792.434 0.00797748
795.344 0.00712038
797.672 0.00658116
797.818 0.00665874
797.963 0.00700985
798.036 0.00743839
798.109 0.00820109
798.145 0.00877426
798.181 0.00952429
798.218 0.0104998
798.254 0.0117574
798.291 0.0133782
798.327 0.0154507
798.363 0.0180862
798.400 0.0214093
798.436 0.0256002
798.472 0.0308445
798.509 0.0373723
798.545 0.0454303
798.582 0.0553798
798.618 0.0675703
798.654 0.0824282
798.691 0.100389
798.727 0.122105
798.763 0.148084
798.800 0.179170
798.836 0.215970
798.872 0.259550
798.909 0.310759
798.945 0.370619
798.982 0.440022
799.018 0.520516
799.054 0.613148
799.091 0.719196
799.127 0.839618
799.163 0.976404
799.182 1.05123
799.200 1.13057
799.218 1.21458
799.236 1.30343
799.254 1.39726
799.273 1.49567
799.291 1.59989
799.309 1.70953
799.327 1.82473
799.345 1.94561
799.364 2.07227
799.382 2.20484
799.400 2.34339
799.418 2.48721
799.436 2.63794
799.454 2.79487
799.473 2.95805
799.491 3.12749
799.527 3.48520
799.564 3.86682
799.600 4.27407
799.636 4.70528
799.673 5.15946
799.709 5.63403
799.745 6.13006
799.782 6.64444
799.855 7.71811
799.927 8.83706
800.000 9.97927
800.000 19.9530
1000.00 16.2420
1500.00 12.0810
2000.00 9.76190
3000.00 7.21550
4000.00 5.82980
5000.00 4.95340
6000.00 4.34980
7000.00 3.90690
8000.00 3.56880
9000.00 3.30250
10000.0 3.08760
20000.0 2.10640
30000.0 1.78640
31000.0 1.75440
40000.0 1.60480
50000.0 1.49490
60000.0 1.41530
70000.0 1.35420
80000.0 1.30470
90000.0 1.26420
91952.3 1.24577
91952.3 1.24577
100000 1.16980
200000 0.722460
232080 0.685113
269610 0.641420
300000 0.606040
301313 0.605629
400000 0.574740
500000 0.576243
557000 0.577100
600000 0.582500
618180 0.585660
618181 0.585660
700000 0.599880
800000 0.623400
865604 0.623354
900000 0.623330
952173 0.614941
1.00000E+06 0.607250
1.03090E+06 0.605422
1.03091E+06 0.605422
1.06481E+06 0.603416
1.06481E+06 0.603416
1.20000E+06 0.595418
1.20487E+06 0.595130
1.25367E+06 0.592243
1.32269E+06 0.588160
1.36696E+06 0.585541
1.36696E+06 0.585541
1.39533E+06 0.583862
1.39533E+06 0.583862
1.40000E+06 0.583586
1.42532E+06 0.582088
1.44282E+06 0.581053
1.44282E+06 0.581053
1.47894E+06 0.578916
1.47895E+06 0.578916
1.49303E+06 0.578082
1.49303E+06 0.578082
1.50000E+06 0.577670
1.50923E+06 0.569524
1.50923E+06 0.569524
1.60000E+06 0.489418
1.80000E+06 0.312914
2.00000E+06 0.136410
2.50000E+06 0.0862750
3.00000E+06 0.0361400
4.00000E+06 0.0182700
4.65795E+06 0.0131512
5.00000E+06 0.0104900
6.00000E+06 0.00649000
6.82043E+06 0.00472608
6.89620E+06 0.00456317
7.00000E+06 0.00434000
8.00000E+06 0.00318000
8.90080E+06 0.00260349
8.90080E+06 0.00260349
8.97044E+06 0.00255892
9.00000E+06 0.00254000
1.00000E+07 0.00214000
1.10000E+07 0.00188000
1.20000E+07 0.00172000
1.30000E+07 0.00165000
1.40000E+07 0.00163000
1.50000E+07 0.00162000
1.58446E+07 0.00162000
1.58446E+07 0.00162000
1.59472E+07 0.00162000
1.60000E+07 0.00162000
1.70000E+07 0.00162000
1.80000E+07 0.00162000
1.90000E+07 0.00163000
2.00000E+07 0.00164000
