Hf-177(n,g) ENDFB-8.0
Energy(eV) XS(b)
1.00000E-05 1070.96
1.03125E-05 1054.61
1.06250E-05 1038.99
1.09375E-05 1024.04
1.12500E-05 1009.71
1.15625E-05 995.974
1.18750E-05 982.782
1.21875E-05 970.101
1.25000E-05 957.898
1.28125E-05 946.144
1.31250E-05 934.812
1.34375E-05 923.879
1.37500E-05 913.320
1.43750E-05 893.244
1.50000E-05 874.437
1.56250E-05 856.770
1.62500E-05 840.132
1.68750E-05 824.428
1.75000E-05 809.572
1.81250E-05 795.491
1.87500E-05 782.121
1.93750E-05 769.403
2.00000E-05 757.286
2.09375E-05 740.137
2.18750E-05 724.104
2.28125E-05 709.069
2.37500E-05 694.933
2.46875E-05 681.611
2.56250E-05 669.026
2.65625E-05 657.114
2.75000E-05 645.816
2.84375E-05 635.082
2.93750E-05 624.865
3.03125E-05 615.127
3.12500E-05 605.830
3.21875E-05 596.942
3.31250E-05 588.434
3.40625E-05 580.280
3.50000E-05 572.455
3.59375E-05 564.939
3.68750E-05 557.712
3.78125E-05 550.755
3.87500E-05 544.052
3.96875E-05 537.587
4.06250E-05 531.348
4.25000E-05 519.495
4.43750E-05 508.402
4.62500E-05 497.990
4.81250E-05 488.193
5.00000E-05 478.952
5.15625E-05 471.639
5.31250E-05 464.652
5.46875E-05 457.966
5.62500E-05 451.560
5.78125E-05 445.417
5.93750E-05 439.517
6.09375E-05 433.846
6.25000E-05 428.388
6.40625E-05 423.132
6.56250E-05 418.064
6.71875E-05 413.175
6.87500E-05 408.453
7.18750E-05 399.475
7.50000E-05 391.064
7.81250E-05 383.163
8.12500E-05 375.723
8.43750E-05 368.699
8.75000E-05 362.056
9.06250E-05 355.759
9.37500E-05 349.779
9.68750E-05 344.092
0.000100000 338.673
0.000103125 333.502
0.000106250 328.561
0.000109375 323.834
0.000112500 319.304
0.000115625 314.960
0.000118750 310.788
0.000121875 306.778
0.000125000 302.919
0.000128125 299.203
0.000131250 295.619
0.000134375 292.162
0.000137500 288.823
0.000143750 282.475
0.000150000 276.527
0.000156250 270.941
0.000162500 265.679
0.000168750 260.713
0.000175000 256.016
0.000181250 251.563
0.000187500 247.335
0.000193750 243.313
0.000200000 239.482
0.000209375 234.059
0.000218750 228.989
0.000228125 224.235
0.000237500 219.765
0.000246875 215.552
0.000256250 211.572
0.000265625 207.806
0.000275000 204.233
0.000284375 200.839
0.000293750 197.608
0.000303125 194.529
0.000312500 191.589
0.000321875 188.778
0.000331250 186.088
0.000340625 183.509
0.000350000 181.035
0.000359375 178.659
0.000368750 176.373
0.000378125 174.173
0.000387500 172.054
0.000396875 170.010
0.000406250 168.037
0.000425000 164.289
0.000443750 160.781
0.000462500 157.489
0.000481250 154.391
0.000500000 151.469
0.000515625 149.156
0.000531250 146.947
0.000546875 144.833
0.000562500 142.808
0.000578125 140.865
0.000593750 138.999
0.000609375 137.206
0.000625000 135.480
0.000640625 133.818
0.000656250 132.216
0.000671875 130.670
0.000687500 129.177
0.000718750 126.338
0.000750000 123.679
0.000781250 121.181
0.000812500 118.828
0.000843750 116.607
0.000875000 114.507
0.000906250 112.516
0.000937500 110.625
0.000968750 108.827
0.00100000 107.114
0.00103125 105.479
0.00106250 103.917
0.00109375 102.422
0.00112500 100.990
0.00115625 99.6163
0.00118750 98.2973
0.00121875 97.0295
0.00125000 95.8094
0.00128125 94.6343
0.00131250 93.5014
0.00134375 92.4083
0.00137500 91.3527
0.00143750 89.3457
0.00150000 87.4654
0.00156250 85.6992
0.00162500 84.0358
0.00168750 82.4658
0.00175000 80.9806
0.00181250 79.5730
0.00187500 78.2363
0.00193750 76.9649
0.00200000 75.7535
0.00209375 74.0392
0.00218750 72.4364
0.00228125 70.9334
0.00237500 69.5203
0.00246875 68.1885
0.00256250 66.9305
0.00265625 65.7397
0.00275000 64.6103
0.00284375 63.5373
0.00293750 62.5161
0.00303125 61.5427
0.00312500 60.6134
0.00321875 59.7251
0.00331250 58.8747
0.00340625 58.0597
0.00350000 57.2777
0.00359375 56.5266
0.00368750 55.8042
0.00378125 55.1089
0.00387500 54.4390
0.00396875 53.7930
0.00406250 53.1695
0.00425000 51.9850
0.00443750 50.8765
0.00462500 49.8360
0.00481250 48.8570
0.00500000 47.9336
0.00515625 47.2030
0.00531250 46.5048
0.00546875 45.8368
0.00562500 45.1969
0.00578125 44.5831
0.00593750 43.9937
0.00609375 43.4271
0.00625000 42.8820
0.00640625 42.3569
0.00656250 41.8507
0.00671875 41.3623
0.00687500 40.8907
0.00718750 39.9940
0.00750000 39.1539
0.00781250 38.3648
0.00812500 37.6217
0.00843750 36.9203
0.00875000 36.2568
0.00906250 35.6279
0.00937500 35.0308
0.00968750 34.4628
0.0100000 33.9217
0.0103125 33.4055
0.0106250 32.9122
0.0109375 32.4402
0.0112500 31.9881
0.0115625 31.5545
0.0118750 31.1382
0.0121875 30.7380
0.0125000 30.3529
0.0128125 29.9821
0.0131250 29.6246
0.0134375 29.2797
0.0137500 28.9466
0.0143750 28.3134
0.0150000 27.7202
0.0156250 27.1629
0.0162500 26.6382
0.0168750 26.1428
0.0175000 25.6743
0.0181250 25.2303
0.0187500 24.8087
0.0193750 24.4077
0.0200000 24.0256
0.0206625 23.6398
0.0213250 23.2722
0.0219875 22.9213
0.0226500 22.5861
0.0233125 22.2652
0.0239750 21.9578
0.0246375 21.6629
0.0253000 21.3797
0.0264578 20.9106
0.0276156 20.4714
0.0287734 20.0592
0.0299313 19.6712
0.0310891 19.3053
0.0322469 18.9593
0.0334047 18.6316
0.0345625 18.3205
0.0355274 18.0730
0.0364922 17.8353
0.0374570 17.6069
0.0384219 17.3872
0.0393867 17.1756
0.0403516 16.9716
0.0413164 16.7749
0.0422813 16.5850
0.0442109 16.2241
0.0461406 15.8861
0.0480703 15.5689
0.0500000 15.2703
0.0515625 15.0410
0.0531250 14.8219
0.0546875 14.6124
0.0562500 14.4117
0.0578125 14.2193
0.0593750 14.0346
0.0609375 13.8572
0.0625000 13.6865
0.0640625 13.5222
0.0656250 13.3639
0.0687500 13.0636
0.0718750 12.7832
0.0750000 12.5205
0.0781250 12.2738
0.0812500 12.0417
0.0843750 11.8227
0.0875000 11.6156
0.0906250 11.4195
0.0937500 11.2333
0.0968750 11.0564
0.100000 10.8879
0.103125 10.7273
0.106250 10.5738
0.109375 10.4271
0.112500 10.2867
0.115625 10.1520
0.118750 10.0228
0.121875 9.89868
0.125000 9.77938
0.128125 9.66460
0.131250 9.55405
0.137500 9.34450
0.143750 9.14880
0.150000 8.96560
0.156250 8.79372
0.162500 8.63206
0.168750 8.47967
0.175000 8.33570
0.181250 8.19944
0.187500 8.07024
0.193750 7.94757
0.200000 7.83094
0.209375 7.66612
0.218750 7.51216
0.228125 7.36806
0.237500 7.23286
0.246875 7.10572
0.256250 6.98588
0.265625 6.87270
0.275000 6.76560
0.284375 6.66407
0.293750 6.56766
0.303125 6.47598
0.312500 6.38866
0.321875 6.30538
0.331250 6.22586
0.340625 6.14983
0.350000 6.07705
0.359375 6.00732
0.368750 5.94045
0.378125 5.87631
0.387500 5.81479
0.406250 5.69852
0.425000 5.59038
0.443750 5.48972
0.462500 5.39579
0.500000 5.22587
0.531250 5.09971
0.562500 4.98514
0.625000 4.78575
0.687500 4.61840
0.750000 4.47633
0.812500 4.35465
0.875000 4.25005
0.937500 4.15940
1.00000 4.08027
1.06250 4.01133
1.12500 3.95124
1.25000 3.85348
1.37500 3.78044
1.50000 3.72761
1.62500 3.69183
1.75000 3.67107
1.87500 3.66345
2.00000 3.66748
2.18750 3.69435
2.37500 3.74487
2.56250 3.81834
2.75000 3.91536
2.93750 4.03661
3.12500 4.18344
3.31250 4.35872
3.50000 4.56518
3.59375 4.68134
3.68750 4.80776
3.78125 4.94462
3.87500 5.09278
3.96875 5.25318
4.06250 5.42691
4.15625 5.61522
4.25000 5.81948
4.34375 6.04128
4.43750 6.28245
4.53125 6.54505
4.62500 6.83146
4.71875 7.14442
4.81250 7.48707
4.90625 7.86310
5.00000 8.27659
5.10031 8.76637
5.20061 9.31235
5.30091 9.92306
5.40122 10.6089
5.45137 10.9837
5.50152 11.3825
5.55168 11.8068
5.60183 12.2577
5.65198 12.7372
5.70213 13.2518
5.75228 13.8039
5.80244 14.3960
5.86373 15.1796
5.92503 16.0370
5.98633 16.9777
6.04762 18.0128
6.10892 19.1555
6.17022 20.4214
6.23152 21.8287
6.29281 23.3997
6.32764 24.3749
6.36247 25.4166
6.39730 26.5303
6.43212 27.7228
6.46695 29.0034
6.48437 29.6797
6.50178 30.3817
6.51919 31.1105
6.53661 31.8674
6.55402 32.6539
6.57144 33.4715
6.58188 33.9779
6.59233 34.4964
6.60278 35.0276
6.61323 35.5718
6.62368 36.1294
6.63413 36.7010
6.63935 36.9921
6.64457 37.2869
6.64980 37.5854
6.65502 37.8877
6.66060 38.2144
6.66617 38.5455
6.67174 38.8812
6.67731 39.2215
6.68289 39.5665
6.68846 39.9163
6.69403 40.2710
6.69960 40.6305
6.70727 41.1334
6.71493 41.6460
6.72259 42.1687
6.73025 42.7017
6.73652 43.1457
6.74279 43.5970
6.74906 44.0557
6.75533 44.5220
6.76299 45.1025
6.77065 45.6949
6.77448 45.9957
6.77831 46.2996
6.78214 46.6066
6.78598 46.9168
6.78981 47.2303
6.79364 47.5470
6.79747 47.8671
6.80130 48.1905
6.80513 48.5174
6.80896 48.8477
6.81279 49.1816
6.81662 49.5190
6.82046 49.8602
6.82429 50.2049
6.82812 50.5534
6.83195 50.9056
6.83578 51.2617
6.83961 51.6217
6.84344 51.9856
6.84727 52.3535
6.85389 52.9988
6.86051 53.6564
6.86382 53.9900
6.86713 54.3269
6.87374 55.0104
6.88036 55.7074
6.88698 56.4182
6.89359 57.1432
6.90021 57.8827
6.90787 58.7578
6.91554 59.6536
6.92320 60.5707
6.93086 61.5100
6.93852 62.4720
6.94618 63.4575
6.95385 64.4674
6.96151 65.5024
6.96917 66.5635
6.97683 67.6514
6.98449 68.7670
6.99216 69.9115
6.99982 71.0858
7.00748 72.2909
7.01514 73.5278
7.02281 74.7977
7.02942 75.9222
7.03604 77.0728
7.04266 78.2505
7.04927 79.4563
7.05589 80.6912
7.06251 81.9557
7.06913 83.2510
7.07574 84.5782
7.08236 85.9385
7.08898 87.3326
7.09560 88.7618
7.10221 90.2274
7.10883 91.7308
7.11545 93.2729
7.12206 94.8553
7.12868 96.4794
7.13634 98.4144
7.14401 100.409
7.15167 102.467
7.15933 104.591
7.16699 106.783
7.17465 109.047
7.18232 111.385
7.18998 113.801
7.19764 116.299
7.20530 118.882
7.21297 121.554
7.22063 124.319
7.22829 127.183
7.23595 130.148
7.24361 133.222
7.25128 136.408
7.25894 139.713
7.26660 143.142
7.27426 146.702
7.28192 150.400
7.28959 154.243
7.29725 158.238
7.30491 162.394
7.31257 166.721
7.32024 171.227
7.32790 175.921
7.33556 180.816
7.34322 185.923
7.35088 191.254
7.35855 196.824
7.36621 202.645
7.37387 208.735
7.38084 214.518
7.38780 220.550
7.39477 226.846
7.40173 233.421
7.40870 240.293
7.41566 247.478
7.42263 254.999
7.42959 262.875
7.43656 271.131
7.44353 279.790
7.45049 288.882
7.45746 298.432
7.46442 308.477
7.47139 319.049
7.47835 330.190
7.48532 341.937
7.49298 355.620
7.50064 370.162
7.50831 385.638
7.51597 402.134
7.52363 419.741
7.53129 438.565
7.53895 458.722
7.54662 480.344
7.55428 503.584
7.56194 528.604
7.56960 555.599
7.57727 584.791
7.58493 616.429
7.59259 650.806
7.60025 688.259
7.60791 729.178
7.61175 751.084
7.61558 774.030
7.61941 798.092
7.62324 823.345
7.62707 849.874
7.63090 877.770
7.63473 907.133
7.63856 938.072
7.64239 970.707
7.64622 1005.17
7.65006 1041.61
7.65389 1080.18
7.65772 1121.07
7.66155 1164.47
7.66538 1210.59
7.66921 1259.68
7.67304 1312.03
7.67687 1367.90
7.68070 1427.63
7.68454 1491.61
7.68837 1560.22
7.69220 1633.94
7.69603 1713.26
7.69986 1798.74
7.70369 1891.01
7.70752 1990.73
7.71135 2098.68
7.71518 2215.65
7.71901 2342.57
7.72285 2480.41
7.72668 2630.23
7.73051 2793.17
7.73434 2970.45
7.73817 3163.39
7.74200 3373.35
7.74583 3601.76
7.74966 3850.12
7.75349 4119.92
7.75732 4412.71
7.76116 4729.99
7.76499 5073.34
7.76882 5443.97
7.77265 5843.24
7.77648 6272.29
7.78031 6732.02
7.78414 7223.11
7.78797 7745.91
7.79180 8300.43
7.79564 8886.42
7.79947 9502.70
7.80330 10148.1
7.80713 10820.6
7.81096 11517.9
7.81479 12236.7
7.82245 13724.1
7.83778 16758.3
7.84544 18208.5
7.85310 19541.0
7.85676 20119.4
7.86041 20652.2
7.86407 21134.2
7.86773 21560.0
7.87138 21925.4
7.87504 22225.8
7.87869 22458.2
7.88235 22619.9
7.88573 22704.8
7.88910 22727.0
7.89135 22706.9
7.89501 22614.9
7.89866 22450.5
7.90232 22215.7
7.90598 21913.1
7.90963 21546.1
7.91329 21118.9
7.91694 20636.2
7.92060 20103.1
7.92629 19187.2
7.93197 18185.2
7.93765 17119.7
7.94334 16013.5
7.95448 13808.2
7.96005 12723.1
7.96563 11669.9
7.97171 10570.9
7.97778 9535.83
7.98082 9044.82
7.98386 8572.74
7.98690 8119.91
7.98994 7686.68
7.99273 7306.72
7.99551 6943.50
7.99830 6596.78
8.00109 6266.37
8.00387 5951.90
8.00666 5653.26
8.00945 5369.94
8.01223 5101.50
8.01502 4847.36
8.01780 4607.21
8.02059 4380.39
8.02338 4166.35
8.02616 3964.52
8.02895 3774.33
8.03173 3595.21
8.03452 3426.58
8.03731 3267.83
8.04009 3118.52
8.04288 2978.06
8.04567 2845.93
8.04845 2721.63
8.05124 2604.69
8.05402 2494.64
8.05681 2391.05
8.05960 2293.48
8.06238 2201.59
8.06517 2114.99
8.06795 2033.32
8.07074 1956.26
8.07353 1883.50
8.07631 1814.76
8.07910 1749.77
8.08315 1661.39
8.08720 1579.73
8.09126 1504.12
8.09531 1434.01
8.09936 1368.87
8.10341 1308.26
8.10747 1251.75
8.11152 1199.00
8.11557 1149.64
8.11962 1103.42
8.12368 1060.04
8.12773 1019.29
8.13178 980.931
8.13583 944.794
8.13989 910.687
8.14394 878.471
8.14951 836.979
8.15508 798.463
8.16066 762.627
8.16623 729.221
8.17180 698.017
8.17737 668.830
8.18294 641.479
8.18852 615.810
8.19409 591.680
8.19966 568.972
8.20523 547.572
8.21081 527.377
8.21638 508.295
8.22195 490.249
8.23309 456.964
8.24424 426.996
8.25538 399.917
8.26653 375.359
8.27767 353.018
8.28882 332.628
8.29996 313.970
8.31111 296.848
8.32225 281.099
8.33289 267.211
8.34353 254.332
8.35416 242.364
8.36480 231.222
8.37544 220.832
8.38608 211.127
8.39672 202.046
8.40735 193.539
8.41799 185.556
8.42863 178.056
8.43927 171.001
8.44991 164.355
8.46054 158.089
8.47118 152.173
8.48182 146.582
8.49246 141.294
8.50360 136.053
8.51475 131.097
8.53703 121.962
8.55932 113.746
8.58161 106.329
8.60390 99.6104
8.62619 93.5059
8.64848 87.9426
8.67077 82.8585
8.68495 79.8478
8.69914 76.9974
8.72750 71.7336
8.75587 66.9898
8.78424 62.7003
8.81261 58.8079
8.84098 55.2638
8.86934 52.0264
8.89771 49.0615
8.92000 46.9038
8.94229 44.8838
8.96458 42.9902
8.98687 41.2128
9.00916 39.5423
9.03144 37.9704
9.05373 36.4896
9.07602 35.0928
9.09831 33.7739
9.12060 32.5273
9.16518 30.2306
9.20976 28.1665
9.25433 26.3048
9.29891 24.6200
9.34349 23.0905
9.38807 21.6978
9.43265 20.4263
9.47722 19.2623
9.52180 18.1941
9.56638 17.2116
9.61096 16.3065
9.65959 15.3987
9.70822 14.5648
9.75685 13.7954
9.80548 13.0838
9.85411 12.4251
9.90274 11.8145
9.95137 11.2471
10.0000 10.7191
10.0488 10.2259
10.0977 9.76704
10.1465 9.33821
10.1953 8.93618
10.2442 8.55916
10.2930 8.20538
10.3418 7.87303
10.3906 7.56049
10.4395 7.26612
10.4883 6.98861
10.5371 6.72670
10.5859 6.47931
10.6836 6.02378
10.7813 5.61485
10.8350 5.40750
10.8887 5.21153
10.9961 4.85048
11.1035 4.52604
11.2109 4.23346
11.3184 3.96873
11.4258 3.72849
11.5332 3.50984
11.6406 3.31030
11.7481 3.12770
11.8555 2.96024
11.9629 2.80629
12.0703 2.66448
12.1777 2.53400
12.2852 2.41358
12.3926 2.30124
12.5000 2.19690
12.6074 2.09996
12.7149 2.00963
12.8223 1.92533
12.9297 1.84664
13.0371 1.77301
13.1445 1.70399
13.2520 1.63930
13.3594 1.57855
13.4668 1.52138
13.5742 1.46760
13.6817 1.41693
13.7891 1.36910
14.0039 1.28127
14.2188 1.20262
14.4141 1.13810
14.6094 1.07941
14.8047 1.02588
15.0000 0.976930
15.1563 0.940746
15.3125 0.906958
15.4688 0.875366
15.6250 0.845790
15.7813 0.818070
15.9375 0.792182
16.2500 0.744878
16.5625 0.702843
16.8750 0.665471
17.1875 0.632136
17.5000 0.602315
17.8125 0.575568
18.1250 0.551523
18.4375 0.529865
18.7500 0.510324
19.0625 0.492671
19.3750 0.476705
19.6875 0.462255
20.0000 0.449196
20.3027 0.437823
20.6054 0.427392
20.9080 0.417838
21.2107 0.409315
21.8160 0.394532
22.4214 0.382676
23.0267 0.373175
23.6321 0.365935
24.2374 0.360665
24.8428 0.357147
25.2830 0.355682
25.7233 0.355075
26.3286 0.355626
26.9339 0.357669
27.5393 0.361239
28.1446 0.366398
28.7500 0.373087
29.3553 0.381486
29.9607 0.391652
30.5660 0.403675
31.1714 0.417858
31.7767 0.434285
32.3820 0.453290
32.9874 0.475280
33.5927 0.500490
34.1981 0.529640
34.5007 0.545789
34.8034 0.563274
35.1061 0.581994
35.4088 0.602076
35.8215 0.632125
36.2342 0.665491
36.6470 0.702634
37.0597 0.744069
37.2661 0.766292
37.4724 0.790096
37.8852 0.842167
38.0915 0.870641
38.2979 0.900918
38.5043 0.933149
38.7106 0.967501
39.0133 1.02212
39.3160 1.08238
39.6187 1.14907
39.9213 1.22314
40.2240 1.30570
40.5267 1.39809
40.6780 1.44847
40.8293 1.50194
40.9807 1.55876
41.1320 1.61921
41.3177 1.69884
41.5035 1.78508
41.6892 1.87868
41.8749 1.98043
42.0607 2.09092
42.1535 2.15002
42.2464 2.21199
42.3393 2.27690
42.4321 2.34487
42.5250 2.41615
42.5714 2.45310
42.6179 2.49097
42.6695 2.53417
42.7210 2.57858
42.7726 2.62423
42.8242 2.67118
42.8758 2.71948
42.9016 2.74415
42.9274 2.76917
42.9532 2.79457
42.9790 2.82033
43.0048 2.84647
43.0306 2.87300
43.0684 2.91263
43.1063 2.95312
43.1441 2.99451
43.1819 3.03682
43.2198 3.08009
43.2576 3.12433
43.2954 3.16958
43.3333 3.21587
43.3711 3.26324
43.3900 3.28734
43.4089 3.31172
43.4279 3.33638
43.4468 3.36134
43.4657 3.38659
43.4846 3.41212
43.5018 3.43562
43.5190 3.45935
43.5310 3.47612
43.5431 3.49303
43.5671 3.52721
43.5895 3.55944
43.6119 3.59214
43.6342 3.62531
43.6566 3.65894
43.6789 3.69308
43.7013 3.72771
43.7236 3.76286
43.7460 3.79852
43.7649 3.82912
43.7838 3.86011
43.8028 3.89149
43.8217 3.92325
43.8406 3.95544
43.8595 3.98804
43.8784 4.02107
43.8973 4.05450
43.9163 4.08839
43.9352 4.12272
43.9541 4.15750
43.9730 4.19272
43.9919 4.22843
44.0108 4.26460
44.0298 4.30127
44.0487 4.33842
44.0676 4.37608
44.0865 4.41426
44.1054 4.45296
44.1243 4.49217
44.1433 4.53194
44.1622 4.57226
44.1811 4.61314
44.2000 4.65457
44.2189 4.69660
44.2378 4.73923
44.2568 4.78246
44.2757 4.82628
44.2946 4.87075
44.3135 4.91586
44.3324 4.96163
44.3513 5.00803
44.3892 5.10293
44.4270 5.20062
44.4648 5.30124
44.5027 5.40491
44.5405 5.51178
44.5783 5.62193
44.6162 5.73552
44.6540 5.85270
44.6918 5.97365
44.7297 6.09847
44.7675 6.22740
44.8053 6.36056
44.8432 6.49819
44.8810 6.64044
44.9189 6.78758
44.9567 6.93976
44.9945 7.09731
45.0324 7.26039
45.0702 7.42935
45.1080 7.60440
45.1459 7.78591
45.1837 7.97413
45.2215 8.16942
45.2594 8.37217
45.2972 8.58280
45.3350 8.80161
45.3729 9.02917
45.4107 9.26581
45.4485 9.51216
45.4864 9.76863
45.5242 10.0358
45.5620 10.3144
45.5999 10.6051
45.6377 10.9084
45.6755 11.2253
45.7134 11.5564
45.7512 11.9028
45.7890 12.2652
45.8269 12.6447
45.8647 13.0425
45.9025 13.4599
45.9404 13.8978
45.9782 14.3580
46.0160 14.8418
46.0539 15.3510
46.0917 15.8872
46.1295 16.4527
46.1674 17.0492
46.2052 17.6796
46.2430 18.3460
46.2809 19.0516
46.3187 19.7993
46.3566 20.5927
46.3944 21.4354
46.4322 22.3318
46.4700 23.2865
46.5079 24.3050
46.5457 25.3926
46.5836 26.5564
46.6214 27.8030
46.6592 29.1413
46.6971 30.5796
46.7349 32.1289
46.7727 33.8008
46.8106 35.6093
46.8484 37.5688
46.8862 39.6977
46.9241 42.0153
46.9430 43.2525
46.9619 44.5460
46.9808 45.8993
46.9997 47.3155
47.0186 48.8002
47.0376 50.3561
47.0565 51.9898
47.0754 53.7047
47.0943 55.5084
47.1132 57.4059
47.1321 59.4042
47.1511 61.5094
47.1700 63.7317
47.1889 66.0788
47.2078 68.5604
47.2267 71.1856
47.2456 73.9690
47.2646 76.9221
47.2835 80.0592
47.3024 83.3945
47.3213 86.9492
47.3402 90.7413
47.3592 94.7930
47.3781 99.1268
47.3987 104.214
47.4193 109.715
47.4400 115.676
47.4606 122.149
47.4813 129.202
47.5019 136.903
47.5225 145.343
47.5432 154.617
47.5621 163.958
47.5810 174.213
47.5999 185.508
47.6094 191.594
47.6188 197.992
47.6283 204.742
47.6377 211.862
47.6472 219.383
47.6567 227.328
47.6661 235.749
47.6756 244.678
47.6850 254.159
47.6945 264.230
47.7039 274.967
47.7134 286.421
47.7229 298.661
47.7323 311.761
47.7418 325.808
47.7512 340.898
47.7607 357.136
47.7702 374.624
47.7796 393.532
47.7891 413.992
47.7985 436.169
47.8080 460.249
47.8175 486.436
47.8269 514.957
47.8364 546.062
47.8458 579.986
47.8514 601.516
47.8570 624.212
47.8626 648.145
47.8682 673.385
47.8738 700.008
47.8794 728.092
47.8850 757.718
47.8905 788.970
47.8961 821.933
47.9017 856.696
47.9073 893.349
47.9129 931.986
47.9185 972.699
47.9241 1015.58
47.9297 1060.73
47.9353 1108.15
47.9447 1194.19
47.9542 1287.69
47.9636 1389.09
47.9731 1498.64
47.9825 1616.93
47.9920 1744.11
48.0015 1880.39
48.0109 2025.70
48.0204 2180.37
48.0298 2344.10
48.0393 2516.64
48.0488 2697.56
48.0582 2886.28
48.0677 3082.04
48.0866 3490.53
48.1382 4641.89
48.1571 5036.19
48.1666 5219.24
48.1760 5389.97
48.1919 5643.73
48.1998 5752.98
48.2077 5849.23
48.2156 5931.72
48.2235 5999.50
48.2315 6052.07
48.2394 6088.95
48.2467 6108.76
48.2540 6114.75
48.2619 6105.59
48.2699 6080.24
48.2778 6038.95
48.2857 5982.10
48.2936 5910.12
48.3015 5823.84
48.3095 5723.97
48.3174 5611.38
48.3257 5479.99
48.3341 5336.97
48.3508 5020.74
48.3675 4673.77
48.3841 4307.56
48.4200 3504.51
48.4379 3116.93
48.4469 2930.60
48.4558 2750.39
48.4648 2576.97
48.4737 2410.88
48.4827 2252.51
48.4916 2102.32
48.5006 1960.13
48.5096 1826.16
48.5185 1700.38
48.5275 1582.79
48.5373 1463.28
48.5470 1352.94
48.5568 1251.15
48.5666 1157.69
48.5764 1071.89
48.5861 993.433
48.5959 921.734
48.6057 856.290
48.6146 801.352
48.6236 750.896
48.6325 704.568
48.6415 662.033
48.6505 622.972
48.6594 587.088
48.6684 554.102
48.6773 523.788
48.6863 495.841
48.6953 470.077
48.7042 446.297
48.7132 424.318
48.7221 403.975
48.7311 385.116
48.7401 367.607
48.7490 351.342
48.7580 336.174
48.7669 322.023
48.7759 308.799
48.7848 296.423
48.7938 284.820
48.8028 273.927
48.8117 263.684
48.8207 254.039
48.8296 244.945
48.8386 236.357
48.8565 220.553
48.8744 206.359
48.8924 193.561
48.9062 184.498
48.9201 176.082
48.9339 168.252
48.9477 160.956
48.9616 154.136
48.9754 147.759
48.9893 141.777
49.0031 136.165
49.0170 130.886
49.0308 125.919
49.0447 121.233
49.0585 116.813
49.0862 108.680
49.1139 101.383
49.1318 97.0527
49.1497 92.9984
49.1676 89.1970
49.1856 85.6276
49.2035 82.2712
49.2214 79.1112
49.2393 76.1322
49.2572 73.3221
49.2752 70.6653
49.2931 68.1521
49.3289 63.5175
49.3647 59.3439
49.4006 55.5738
49.4364 52.1544
49.4722 49.0452
49.5081 46.2078
49.5439 43.6130
49.5798 41.2324
49.6156 39.0441
49.6514 37.0269
49.6873 35.1642
49.7264 33.2890
49.7654 31.5615
49.8045 29.9657
49.8436 28.4892
49.8827 27.1195
49.9218 25.8474
49.9609 24.6636
50.0000 23.5602
50.0350 22.6356
50.0699 21.7654
50.1049 20.9451
50.1398 20.1711
50.1748 19.4397
50.2097 18.7484
50.2796 17.4739
50.3495 16.3277
50.4194 15.2936
50.4893 14.3575
50.5592 13.5077
50.6292 12.7340
50.6991 12.0282
50.7690 11.3827
50.8389 10.7912
50.9088 10.2483
50.9787 9.74946
51.0486 9.29054
51.1185 8.86791
51.1789 8.52945
51.2392 8.21368
51.2996 7.91897
51.3600 7.64404
51.4203 7.38782
51.4807 7.14938
51.5411 6.92795
51.6014 6.72287
51.6618 6.53360
51.7222 6.35985
51.7826 6.20140
51.8429 6.05829
51.9033 5.93086
51.9637 5.81982
52.0240 5.72632
52.0844 5.65193
52.1607 5.58868
52.2369 5.56562
52.2878 5.57708
52.3386 5.61456
52.3895 5.68350
52.4403 5.79149
52.4657 5.86331
52.4911 5.94924
52.5166 6.05137
52.5420 6.17230
52.5674 6.31522
52.5928 6.48417
52.6182 6.68431
52.6436 6.92236
52.6691 7.20771
52.6818 7.37193
52.6945 7.55317
52.7072 7.75397
52.7199 7.97739
52.7326 8.22722
52.7453 8.50812
52.7580 8.82586
52.7707 9.18761
52.7835 9.60227
52.7962 10.0809
52.8025 10.3486
52.8089 10.6371
52.8152 10.9498
52.8216 11.2879
52.8279 11.6553
52.8343 12.0539
52.8406 12.4874
52.8470 12.9595
52.8553 13.6457
52.8637 14.4146
52.8720 15.2782
52.8804 16.2490
52.8887 17.3408
52.8929 17.9368
52.8970 18.5690
52.9012 19.2394
52.9054 19.9503
52.9096 20.7040
52.9137 21.5031
52.9179 22.3520
52.9221 23.2494
52.9262 24.2000
52.9304 25.2065
52.9346 26.2718
52.9388 27.3990
52.9429 28.5911
52.9471 29.8511
52.9513 31.1823
52.9554 32.5879
52.9596 34.0713
52.9638 35.6357
52.9679 37.2845
52.9721 39.0212
52.9763 40.8490
52.9805 42.7715
52.9848 44.8914
52.9892 47.1228
52.9936 49.4695
52.9979 51.9351
53.0023 54.5232
53.0067 57.2374
53.0110 60.0809
53.0154 63.0499
53.0198 66.1609
53.0241 69.4100
53.0329 76.3319
53.0416 83.8311
53.0504 91.9081
53.0591 100.585
53.0678 109.849
53.0766 119.686
53.0853 130.077
53.0941 140.988
53.1028 152.379
53.1115 164.197
53.1203 176.365
53.1290 188.837
53.1377 201.514
53.1465 214.304
53.1552 227.090
53.1727 252.275
53.1902 276.101
53.2037 292.983
53.2172 308.022
53.2299 320.135
53.2370 325.957
53.2442 331.003
53.2529 336.053
53.2626 340.138
53.2749 342.994
53.2820 343.393
53.2900 342.762
53.2979 340.996
53.3075 337.392
53.3171 332.225
53.3264 325.781
53.3357 318.027
53.3450 309.070
53.3543 299.033
53.3696 280.619
53.3848 260.306
53.4034 233.820
53.4220 206.599
53.4440 174.898
53.4550 159.676
53.4660 145.064
53.4754 133.248
53.4847 122.019
53.4940 111.406
53.5033 101.437
53.5126 92.1286
53.5219 83.4866
53.5266 79.4103
53.5312 75.5071
53.5359 71.7584
53.5405 68.1781
53.5456 64.4466
53.5507 60.8991
53.5558 57.5314
53.5609 54.3387
53.5659 51.3158
53.5710 48.4573
53.5761 45.7577
53.5812 43.2161
53.5862 40.8164
53.5913 38.5578
53.5964 36.4343
53.6015 34.4435
53.6066 32.5717
53.6116 30.8167
53.6167 29.1727
53.6218 27.6368
53.6264 26.3127
53.6311 25.0705
53.6358 23.9009
53.6404 22.8048
53.6451 21.7735
53.6497 20.8078
53.6544 19.8998
53.6590 19.0500
53.6637 18.2513
53.6683 17.5039
53.6730 16.8017
53.6776 16.1446
53.6823 15.5272
53.6870 14.9494
53.6916 14.4062
53.6963 13.8977
53.7009 13.4194
53.7056 12.9713
53.7102 12.5495
53.7149 12.1540
53.7242 11.4314
53.7335 10.7910
53.7428 10.2216
53.7521 9.71378
53.7614 9.25924
53.7707 8.85082
53.7775 8.57887
53.7843 8.32637
53.7978 7.87135
53.8114 7.47281
53.8249 7.12079
53.8385 6.80717
53.8520 6.52609
53.8655 6.27228
53.8791 6.04169
53.8926 5.83092
53.9062 5.63761
53.9197 5.45943
53.9333 5.29455
53.9468 5.14136
53.9603 4.99881
53.9874 4.74108
54.0094 4.55460
54.0314 4.38555
54.0535 4.23158
54.0755 4.09079
54.0975 3.96142
54.1195 3.84222
54.1415 3.73194
54.1635 3.62968
54.2075 3.44572
54.2515 3.28482
54.2955 3.14274
54.3395 3.01621
54.3835 2.90265
54.4275 2.80010
54.4716 2.70690
54.5156 2.62174
54.5596 2.54353
54.6036 2.47142
54.6916 2.34257
54.7796 2.23048
54.8677 2.13173
54.9557 2.04365
55.0437 1.96432
55.1250 1.89762
55.2062 1.83632
55.2875 1.77970
55.3687 1.72717
55.5312 1.63252
55.6937 1.54933
55.8562 1.47545
56.0187 1.40936
56.1813 1.34996
56.3438 1.29599
56.4927 1.25063
56.6417 1.20888
56.7907 1.17037
56.9396 1.13480
57.0886 1.10188
57.2375 1.07141
57.5355 1.01702
57.8334 0.970390
58.1313 0.930575
58.4293 0.896877
58.7272 0.868780
58.9168 0.853643
59.1064 0.840555
59.2960 0.829472
59.4855 0.820364
59.6751 0.813222
59.8647 0.808059
60.0543 0.804902
60.2439 0.803802
60.5283 0.806177
60.8127 0.813704
61.0971 0.826886
61.2393 0.835804
61.3815 0.846410
61.5237 0.858827
61.6658 0.873196
61.8080 0.889680
61.9502 0.908468
62.0924 0.929774
62.2346 0.953811
62.3768 0.980781
62.5190 1.01108
62.6680 1.04701
62.8169 1.08769
62.9659 1.13369
63.1149 1.18574
63.2638 1.24475
63.4128 1.31177
63.5617 1.38812
63.6362 1.43027
63.7107 1.47537
63.8326 1.55623
63.9545 1.64698
64.0763 1.74919
64.1982 1.86471
64.2592 1.92814
64.3201 1.99575
64.3810 2.06790
64.4420 2.14500
64.5029 2.22753
64.5639 2.31604
64.6248 2.41113
64.6857 2.51345
64.7602 2.64939
64.8347 2.79868
64.9092 2.96310
64.9837 3.14473
65.0582 3.34604
65.1326 3.56989
65.2071 3.81980
65.2444 3.95580
65.2816 4.09995
65.3493 4.38515
65.4170 4.70406
65.4509 4.87788
65.4847 5.06223
65.5186 5.25811
65.5525 5.46637
65.5863 5.68819
65.6202 5.92464
65.6540 6.17719
65.6879 6.44720
65.7217 6.73651
65.7556 7.04685
65.7894 7.38056
65.8233 7.73985
65.8605 8.16821
65.8978 8.63508
65.9350 9.14540
65.9723 9.70479
66.0095 10.3198
66.0467 10.9983
66.0840 11.7492
66.1212 12.5837
66.1458 13.1857
66.1703 13.8338
66.1949 14.5335
66.2071 14.9042
66.2194 15.2900
66.2317 15.6920
66.2440 16.1104
66.2562 16.5467
66.2685 17.0018
66.2808 17.4773
66.2930 17.9736
66.3053 18.4925
66.3176 19.0354
66.3265 19.4446
66.3354 19.8679
66.3443 20.3059
66.3531 20.7589
66.3620 21.2285
66.3709 21.7153
66.3798 22.2200
66.3887 22.7430
66.3980 23.3127
66.4073 23.9054
66.4166 24.5225
66.4259 25.1655
66.4310 25.5279
66.4361 25.8986
66.4412 26.2782
66.4462 26.6659
66.4509 27.0305
66.4556 27.4032
66.4602 27.7843
66.4649 28.1732
66.4695 28.5718
66.4742 28.9788
66.4788 29.3962
66.4835 29.8226
66.4881 30.2601
66.4928 30.7073
66.4975 31.1664
66.5021 31.6358
66.5068 32.1181
66.5114 32.6116
66.5161 33.1177
66.5207 33.6370
66.5254 34.1712
66.5300 34.7197
66.5347 35.2831
66.5393 35.8607
66.5440 36.4558
66.5487 37.0664
66.5533 37.6959
66.5580 38.3424
66.5626 39.0094
66.5673 39.6951
66.5719 40.4033
66.5766 41.1319
66.5812 41.8852
66.5859 42.6610
66.5906 43.4639
66.5952 44.2917
66.5994 45.0708
66.6037 45.8724
66.6079 46.6993
66.6121 47.5528
66.6164 48.4364
66.6206 49.3472
66.6248 50.2888
66.6291 51.2627
66.6333 52.2729
66.6375 53.3165
66.6418 54.3977
66.6460 55.5184
66.6502 56.6808
66.6545 57.8870
66.6587 59.1394
66.6629 60.4405
66.6676 61.9334
66.6722 63.4890
66.6769 65.1180
66.6815 66.8176
66.6862 68.5998
66.6908 70.4617
66.6955 72.4164
66.7002 74.4611
66.7048 76.6104
66.7095 78.8613
66.7141 81.2299
66.7188 83.7131
66.7234 86.3290
66.7281 89.0741
66.7327 91.9621
66.7374 95.0017
66.7420 98.2092
66.7467 101.588
66.7514 105.148
66.7560 108.893
66.7607 112.848
66.7653 117.011
66.7700 121.410
66.7746 126.039
66.7793 130.934
66.7839 136.086
66.7886 141.532
66.7933 147.265
66.7979 153.326
66.8026 159.705
66.8072 166.446
66.8119 173.539
66.8165 181.033
66.8212 188.913
66.8258 197.235
66.8305 205.981
66.8352 215.210
66.8398 224.903
66.8445 235.123
66.8491 245.847
66.8538 257.145
66.8584 268.988
66.8631 281.451
66.8677 294.502
66.8724 308.219
66.8770 322.566
66.8817 337.626
66.8864 353.357
66.8910 369.847
66.8957 387.046
66.9003 405.049
66.9050 423.798
66.9096 443.392
66.9143 463.765
66.9189 485.020
66.9236 507.082
66.9283 530.059
66.9329 553.864
66.9376 578.612
66.9422 604.203
66.9515 658.159
66.9608 715.757
66.9672 757.128
66.9735 800.172
66.9799 844.865
66.9862 891.169
66.9926 939.037
66.9989 988.410
67.0116 1091.29
67.0209 1169.99
67.0302 1251.04
67.0489 1418.46
67.0861 1759.92
67.1047 1923.82
67.1233 2075.70
67.1377 2181.37
67.1521 2274.04
67.1614 2325.99
67.1707 2370.94
67.1842 2422.92
67.1978 2458.08
67.2079 2472.91
67.2180 2477.62
67.2205 2477.20
67.2288 2471.47
67.2370 2459.10
67.2452 2440.16
67.2534 2414.86
67.2650 2369.06
67.2765 2311.98
67.2875 2247.76
67.2985 2175.09
67.3085 2102.52
67.3185 2024.59
67.3285 1942.18
67.3384 1856.16
67.3604 1658.42
67.3824 1456.55
67.4044 1258.42
67.4154 1162.96
67.4264 1070.80
67.4374 982.502
67.4484 898.502
67.4594 819.138
67.4703 744.641
67.4813 675.146
67.4923 610.701
67.4978 580.339
67.5033 551.276
67.5088 523.392
67.5143 496.772
67.5198 471.297
67.5253 446.992
67.5308 423.832
67.5363 401.827
67.5418 380.866
67.5473 360.994
67.5528 342.103
67.5583 324.230
67.5638 307.273
67.5693 291.230
67.5748 276.064
67.5803 261.766
67.5858 248.245
67.5913 235.516
67.5968 223.496
67.6022 212.194
67.6097 197.817
67.6172 184.605
67.6247 172.442
67.6322 161.282
67.6397 151.019
67.6472 141.610
67.6547 132.973
67.6622 125.046
67.6697 117.760
67.6772 111.079
67.6847 104.935
67.6922 99.2944
67.6997 94.0999
67.7072 89.3246
67.7147 84.9240
67.7221 80.8641
67.7331 75.4549
67.7441 70.6305
67.7551 66.3095
67.7661 62.4260
67.7771 58.9230
67.7881 55.7515
67.7991 52.8693
67.8101 50.2404
67.8211 47.8338
67.8321 45.6228
67.8430 43.5847
67.8540 41.7000
67.8650 39.9518
67.8760 38.3257
67.8870 36.8092
67.8980 35.3913
67.9090 34.0615
67.9200 32.8140
67.9310 31.6403
67.9420 30.5340
67.9640 28.5012
67.9859 26.6795
68.0079 25.0370
68.0299 23.5507
68.0519 22.1996
68.0739 20.9670
68.0949 19.8875
68.1158 18.8932
68.1368 17.9746
68.1578 17.1238
68.1788 16.3338
68.1998 15.5994
68.2207 14.9151
68.2417 14.2762
68.2627 13.6785
68.2837 13.1190
68.3047 12.5940
68.3257 12.1009
68.3466 11.6367
68.3676 11.1997
68.3886 10.7875
68.4096 10.3983
68.4316 10.0132
68.4536 9.64977
68.4975 8.98138
68.5415 8.38173
68.5854 7.84183
68.6294 7.35371
68.6734 6.91109
68.7173 6.50827
68.7613 6.14074
68.7953 5.87822
68.8293 5.63277
68.8632 5.40287
68.8972 5.18721
68.9312 4.98457
68.9651 4.79400
68.9991 4.61449
69.0331 4.44519
69.0671 4.28528
69.1010 4.13415
69.1690 3.85565
69.2369 3.60524
69.3049 3.37929
69.3488 3.24462
69.3928 3.11819
69.4368 2.99929
69.4807 2.88738
69.5247 2.78186
69.5686 2.68231
69.6566 2.49927
69.7445 2.33520
69.8324 2.18755
69.9204 2.05418
70.0083 1.93330
70.1122 1.80447
70.2161 1.68886
70.3200 1.58470
70.4240 1.49057
70.5279 1.40523
70.6318 1.32759
70.7357 1.25667
70.8396 1.19167
70.9275 1.14082
71.0155 1.09342
71.1034 1.04918
71.1913 1.00781
71.2793 0.969084
71.3672 0.932765
71.4551 0.898657
71.5431 0.866582
71.6310 0.836379
71.7189 0.807903
71.8948 0.755616
72.0706 0.708809
72.2465 0.666732
72.3504 0.643828
72.4543 0.622241
72.6622 0.582623
72.8700 0.547175
73.0778 0.515319
73.2856 0.486612
73.4935 0.460684
73.7013 0.437037
73.9091 0.415419
74.0850 0.398569
74.2609 0.382904
74.4367 0.368314
74.6126 0.354698
74.7884 0.341969
74.9643 0.330046
75.1402 0.318862
75.3160 0.308353
75.6677 0.289144
76.0194 0.272039
76.3712 0.256727
76.7229 0.242955
76.9627 0.234339
77.2025 0.226284
77.4423 0.218739
77.6821 0.211661
78.1617 0.198748
78.6413 0.187347
79.1209 0.177094
79.6005 0.167879
80.0801 0.159570
80.5597 0.152045
80.9115 0.146976
81.2632 0.142231
81.6149 0.137781
81.9666 0.133622
82.6700 0.126033
83.3735 0.119312
84.0769 0.113315
84.7803 0.107953
85.4838 0.103139
86.1872 0.0987961
86.8587 0.0950791
87.5301 0.0916756
88.2016 0.0885896
88.8730 0.0857235
89.5445 0.0831504
90.2159 0.0808064
90.8874 0.0786322
91.5588 0.0766883
92.9018 0.0732857
94.2447 0.0705419
94.9161 0.0693609
95.5876 0.0683464
96.9305 0.0666707
97.6979 0.0659600
98.4653 0.0654136
99.2326 0.0650190
100.000 0.0647898
101.033 0.0647814
102.066 0.0651105
103.098 0.0658151
104.131 0.0669503
105.164 0.0685544
105.680 0.0695763
106.197 0.0707401
106.713 0.0720713
107.230 0.0736088
107.746 0.0753437
108.262 0.0772998
108.826 0.0797535
109.389 0.0825187
109.953 0.0857296
110.516 0.0894154
111.079 0.0936583
111.643 0.0985545
111.924 0.101286
112.206 0.104230
112.488 0.107406
112.769 0.110836
113.168 0.116186
113.567 0.122186
113.966 0.128942
114.365 0.136576
114.765 0.145238
114.964 0.149990
115.164 0.155061
115.363 0.160512
115.563 0.166368
115.762 0.172658
115.962 0.179426
116.220 0.188971
116.478 0.199517
116.736 0.211207
116.994 0.224210
117.253 0.238729
117.511 0.255006
117.640 0.263894
117.769 0.273336
117.898 0.283380
118.027 0.294069
118.227 0.312030
118.426 0.331927
118.626 0.354060
118.825 0.378769
118.925 0.392215
119.025 0.406455
119.125 0.421555
119.224 0.437581
119.324 0.454656
119.424 0.472844
119.524 0.492278
119.623 0.513026
119.752 0.542070
119.881 0.573856
120.011 0.608738
120.140 0.647134
120.269 0.689533
120.398 0.736514
120.527 0.788763
120.592 0.817136
120.656 0.847102
120.773 0.906269
120.891 0.972180
120.950 1.00799
121.008 1.04590
121.067 1.08609
121.126 1.12865
121.184 1.17393
121.243 1.22210
121.302 1.27339
121.360 1.32799
121.419 1.38640
121.478 1.44888
121.536 1.51582
121.595 1.58756
121.660 1.67292
121.724 1.76561
121.789 1.86649
121.853 1.97638
121.918 2.09678
121.982 2.22866
122.047 2.37399
122.111 2.53418
122.176 2.71192
122.241 2.90928
122.273 3.01653
122.305 3.12999
122.337 3.25014
122.370 3.37715
122.402 3.51238
122.434 3.65612
122.467 3.80913
122.499 3.97170
122.531 4.14577
122.563 4.33127
122.596 4.53053
122.628 4.74360
122.672 5.06151
122.716 5.41279
122.760 5.80333
122.782 6.01526
122.804 6.23947
122.826 6.47808
122.848 6.73007
122.870 6.99771
122.892 7.28241
122.914 7.58572
122.936 7.90938
122.958 8.25537
122.980 8.62595
122.995 8.90134
123.011 9.19101
123.026 9.49603
123.042 9.81763
123.057 10.1571
123.072 10.5161
123.088 10.8961
123.103 11.2991
123.111 11.5211
123.119 11.7503
123.127 11.9873
123.135 12.2292
123.144 12.4826
123.152 12.7450
123.160 13.0168
123.168 13.2951
123.177 13.6132
123.185 13.9446
123.194 14.2902
123.203 14.6509
123.210 14.9321
123.216 15.2229
123.223 15.5238
123.229 15.8355
123.236 16.1584
123.243 16.4933
123.249 16.8409
123.256 17.2019
123.264 17.6645
123.272 18.1501
123.280 18.6605
123.288 19.1908
123.292 19.4734
123.296 19.7565
123.300 20.0472
123.304 20.3458
123.308 20.6603
123.312 20.9759
123.316 21.3003
123.320 21.6340
123.324 21.9860
123.328 22.3396
123.332 22.7128
123.336 23.0879
123.341 23.4841
123.345 23.8826
123.349 24.2934
123.353 24.7169
123.357 25.1649
123.361 25.6159
123.365 26.0815
123.369 26.5620
123.373 27.0709
123.377 27.5839
123.381 28.1140
123.385 28.6618
123.389 29.2424
123.393 29.8285
123.397 30.4500
123.401 31.0775
123.405 31.7434
123.409 32.4160
123.413 33.1123
123.417 33.8332
123.421 34.5988
123.425 35.3728
123.429 36.1950
123.433 37.0265
123.437 37.9100
123.441 38.8038
123.445 39.7303
123.449 40.6907
123.453 41.7117
123.457 42.7451
123.462 43.8439
123.466 44.9561
123.470 46.1389
123.474 47.3362
123.478 48.5780
123.482 49.8660
123.486 51.2360
123.490 52.6229
123.494 54.0981
123.498 55.5914
123.502 57.1796
123.506 58.7874
123.514 62.1836
123.522 65.8825
123.530 69.8615
123.538 74.1401
123.546 78.6795
123.554 83.6138
123.562 88.8423
123.570 94.5177
123.578 100.522
123.587 107.029
123.595 113.989
123.603 121.427
123.611 129.265
123.619 137.723
123.627 146.732
123.635 156.314
123.643 166.363
123.651 177.153
123.659 188.584
123.667 200.677
123.675 213.288
123.683 226.751
123.691 240.747
123.700 255.642
123.708 271.077
123.716 287.447
123.724 304.569
123.732 322.447
123.740 340.843
123.748 360.213
123.756 380.323
123.764 401.160
123.772 422.437
123.788 467.551
123.804 514.879
123.821 564.384
123.837 615.681
123.853 668.636
123.869 722.057
123.901 829.116
123.917 881.366
123.934 931.358
123.950 978.669
123.966 1022.56
123.982 1062.53
123.998 1097.42
124.014 1126.89
124.030 1150.39
124.047 1167.78
124.063 1178.16
124.079 1181.49
124.082 1181.36
124.091 1179.51
124.100 1175.56
124.118 1161.40
124.135 1139.79
124.152 1111.15
124.170 1074.86
124.188 1032.44
124.206 984.760
124.223 933.091
124.248 857.047
124.272 777.751
124.307 659.673
124.325 601.855
124.343 546.129
124.361 492.449
124.379 441.611
124.387 417.372
124.396 393.969
124.405 371.427
124.414 349.768
124.423 329.919
124.431 310.895
124.440 292.699
124.448 275.329
124.457 258.781
124.465 243.044
124.474 228.106
124.482 214.115
124.491 200.718
124.499 188.068
124.508 176.142
124.516 165.045
124.524 154.487
124.533 144.578
124.541 135.292
124.550 126.700
124.559 118.201
124.568 110.293
124.577 102.943
124.585 96.1212
124.594 89.7953
124.603 83.9356
124.612 78.5127
124.621 73.5523
124.630 68.9144
124.639 64.6315
124.648 60.6782
124.657 57.0309
124.665 53.6666
124.674 50.5641
124.683 47.7031
124.692 45.0932
124.703 42.0077
124.715 39.2473
124.726 36.7528
124.737 34.4965
124.749 32.4529
124.760 30.5994
124.771 28.9155
124.783 27.3828
124.794 25.9730
124.805 24.6962
124.817 23.5264
124.828 22.4521
124.839 21.4631
124.850 20.5501
124.862 19.7054
124.873 18.9217
124.891 17.7964
124.909 16.7867
124.926 15.8754
124.944 15.0531
124.962 14.2988
124.980 13.6079
124.998 12.9724
125.015 12.3889
125.033 11.8453
125.051 11.3402
125.069 10.8696
125.086 10.4326
125.104 10.0211
125.122 9.63517
125.140 9.27253
125.157 8.93307
125.175 8.61119
125.193 8.30731
125.229 7.74808
125.264 7.24581
125.300 6.79391
125.335 6.38338
125.371 6.01019
125.407 5.66980
125.442 5.35921
125.476 5.08573
125.510 4.83392
125.544 4.60017
125.578 4.38399
125.612 4.18247
125.646 3.99537
125.680 3.82081
125.714 3.65767
125.748 3.50453
125.781 3.36140
125.815 3.22703
125.849 3.10071
125.883 2.98146
125.917 2.86941
125.951 2.76368
125.985 2.66379
126.021 2.56472
126.056 2.47118
126.127 2.29933
126.198 2.14511
126.269 2.00618
126.341 1.88057
126.412 1.76662
126.483 1.66293
126.554 1.56828
126.602 1.50839
126.651 1.45194
126.699 1.39868
126.748 1.34837
126.845 1.25578
126.942 1.17272
127.039 1.09777
127.136 1.03001
127.233 0.968408
127.330 0.912366
127.401 0.874317
127.472 0.838722
127.543 0.805328
127.614 0.773958
127.685 0.744452
127.756 0.716664
127.827 0.690465
127.898 0.665734
128.041 0.620227
128.183 0.579455
128.325 0.542757
128.467 0.509608
128.623 0.476959
128.778 0.447543
128.933 0.420914
129.088 0.396763
129.243 0.374772
129.398 0.354730
129.553 0.336389
129.709 0.319558
129.851 0.305285
129.993 0.292036
130.135 0.279715
130.277 0.268240
130.420 0.257536
130.562 0.247537
130.704 0.238182
130.846 0.229417
130.989 0.221187
131.131 0.213463
131.273 0.206197
131.415 0.199355
131.700 0.186816
131.984 0.175625
132.294 0.164735
132.605 0.155031
132.915 0.146349
133.225 0.138553
133.535 0.131528
133.846 0.125185
134.156 0.119462
134.466 0.114240
134.751 0.109848
135.035 0.105806
135.320 0.102079
135.604 0.0986396
135.889 0.0954573
136.173 0.0925105
136.457 0.0897779
136.742 0.0872406
137.311 0.0826854
137.880 0.0787346
138.448 0.0752961
139.017 0.0722973
139.483 0.0701281
139.948 0.0681860
140.414 0.0664481
140.879 0.0649196
141.345 0.0635281
141.810 0.0622925
142.275 0.0611796
142.741 0.0602144
143.206 0.0593454
143.672 0.0586048
144.603 0.0574029
145.534 0.0565643
146.464 0.0560566
147.292 0.0558635
148.430 0.0559789
148.998 0.0561879
149.567 0.0565105
150.705 0.0574690
151.274 0.0581151
151.843 0.0588797
152.412 0.0597543
152.981 0.0607570
153.550 0.0619001
154.118 0.0631740
154.687 0.0645971
155.256 0.0661948
155.825 0.0679600
156.394 0.0699084
157.066 0.0724958
157.738 0.0754151
158.411 0.0786566
159.083 0.0823555
159.755 0.0865367
160.428 0.0912737
161.100 0.0966562
161.436 0.0996236
161.772 0.102795
162.341 0.108680
162.910 0.115305
163.479 0.122792
163.763 0.126904
164.048 0.131290
164.332 0.135976
164.617 0.140986
164.901 0.146354
165.186 0.152109
165.470 0.158294
165.754 0.164948
166.039 0.172121
166.323 0.179865
166.634 0.189015
166.944 0.198986
167.254 0.209948
167.564 0.222004
167.875 0.235290
168.185 0.249977
168.495 0.266269
168.806 0.284403
169.090 0.302907
169.374 0.323468
169.659 0.346421
169.801 0.358905
169.943 0.372135
170.086 0.386181
170.228 0.401093
170.370 0.416952
170.512 0.433843
170.655 0.451868
170.797 0.471107
170.939 0.491683
171.081 0.513725
171.262 0.544123
171.443 0.577441
171.624 0.614047
171.805 0.654420
171.986 0.699160
172.167 0.748935
172.258 0.775939
172.348 0.804497
172.439 0.834727
172.529 0.866763
172.671 0.921147
172.814 0.980974
172.956 1.04704
173.098 1.12026
173.240 1.20171
173.311 1.24591
173.382 1.29266
173.454 1.34218
173.525 1.39468
173.596 1.45041
173.667 1.50963
173.783 1.61496
173.900 1.73199
173.958 1.79546
174.016 1.86255
174.074 1.93355
174.132 2.00863
174.191 2.08840
174.249 2.17311
174.307 2.26318
174.365 2.35892
174.423 2.46118
174.481 2.57039
174.540 2.68722
174.569 2.74871
174.598 2.81217
174.633 2.89319
174.669 2.97786
174.705 3.06638
174.740 3.15874
174.776 3.25572
174.811 3.35705
174.847 3.46360
174.882 3.57510
174.918 3.69254
174.953 3.81564
174.989 3.94552
175.024 4.08192
175.042 4.15304
175.060 4.22609
175.084 4.32903
175.109 4.43543
175.126 4.51258
175.143 4.59182
175.160 4.67321
175.176 4.75634
175.193 4.84227
175.210 4.93008
175.227 5.02091
175.244 5.11377
175.262 5.21446
175.280 5.31823
175.298 5.42521
175.315 5.53491
175.333 5.64870
175.351 5.76613
175.369 5.88737
175.386 6.01185
175.404 6.14118
175.422 6.27485
175.440 6.41306
175.458 6.55520
175.475 6.70311
175.493 6.85623
175.511 7.01483
175.529 7.17823
175.546 7.34857
175.564 7.52525
175.582 7.70859
175.600 7.89896
175.618 8.09672
175.635 8.30228
175.653 8.51606
175.671 8.73726
175.689 8.96886
175.707 9.21019
175.724 9.46180
175.742 9.72282
175.760 9.99687
175.778 10.2832
175.795 10.5827
175.813 10.8943
175.831 11.2225
175.849 11.5667
175.867 11.9278
175.884 12.3072
175.902 12.7063
175.920 13.1264
175.938 13.5692
175.955 14.0340
175.973 14.5279
175.991 15.0508
176.009 15.6052
176.027 16.1906
176.044 16.8169
176.062 17.4807
176.080 18.1939
176.098 18.9533
176.115 19.7731
176.133 20.6555
176.151 21.6082
176.160 22.1136
176.169 22.6339
176.178 23.1821
176.186 23.7540
176.195 24.3511
176.204 24.9750
176.213 25.6274
176.222 26.3103
176.231 27.0257
176.240 27.7672
176.249 28.5541
176.258 29.3806
176.266 30.2496
176.275 31.1640
176.284 32.1270
176.293 33.1421
176.302 34.2130
176.311 35.3436
176.320 36.5382
176.329 37.8014
176.338 39.1381
176.347 40.5534
176.355 42.0531
176.364 43.6429
176.373 45.3293
176.382 47.0983
176.391 48.9972
176.400 51.0141
176.409 53.1569
176.418 55.4343
176.427 57.8552
176.435 60.4290
176.444 63.1656
176.453 66.0419
176.462 69.1338
176.471 72.4212
176.480 75.9160
176.489 79.6303
176.498 83.5772
176.507 87.7697
176.515 92.2215
176.524 96.8921
176.533 101.902
176.542 107.214
176.551 112.843
176.560 118.805
176.569 125.114
176.578 131.787
176.587 138.839
176.595 146.198
176.604 154.048
176.613 162.322
176.622 171.034
176.631 180.094
176.640 189.720
176.649 199.826
176.658 210.422
176.666 221.394
176.681 240.705
176.696 261.432
176.710 283.600
176.725 307.057
176.739 332.127
176.754 358.452
176.768 386.364
176.783 415.430
176.801 452.842
176.818 492.002
176.836 532.697
176.854 574.424
176.889 660.641
176.925 747.697
176.961 832.301
176.978 872.379
176.996 910.310
177.016 948.625
177.035 983.021
177.053 1010.96
177.070 1034.87
177.084 1049.98
177.097 1062.40
177.111 1072.20
177.124 1079.15
177.137 1083.23
177.150 1084.54
177.155 1084.35
177.169 1081.50
177.183 1075.33
177.198 1065.89
177.212 1053.27
177.227 1037.13
177.242 1018.07
177.256 996.183
177.271 971.693
177.286 943.691
177.302 913.409
177.317 881.150
177.332 847.225
177.363 775.647
177.394 701.179
177.435 599.261
177.456 549.453
177.477 501.458
177.492 467.417
177.508 434.611
177.523 403.158
177.538 373.153
177.553 344.665
177.569 317.741
177.584 292.406
177.599 268.667
177.615 246.513
177.630 225.918
177.645 206.841
177.661 189.233
177.676 173.033
177.691 158.176
177.699 151.184
177.706 144.589
177.714 138.208
177.722 132.198
177.735 122.408
177.748 113.401
177.761 105.125
177.775 97.5330
177.788 90.5760
177.801 84.2076
177.814 78.3829
177.827 73.0593
177.841 68.1960
177.854 63.7545
177.867 59.6987
177.880 55.9949
177.893 52.6116
177.907 49.5196
177.920 46.6921
177.933 44.1042
177.948 41.3748
177.964 38.9049
177.979 36.6659
177.994 34.6321
178.009 32.7806
178.025 31.0912
178.040 29.5458
178.055 28.1286
178.071 26.8255
178.086 25.6243
178.101 24.5142
178.117 23.4854
178.132 22.5298
178.147 21.6399
178.162 20.8092
178.178 20.0321
178.196 19.1751
178.214 18.3788
178.232 17.6368
178.250 16.9476
178.268 16.2988
178.286 15.6901
178.304 15.1180
178.322 14.5821
178.359 13.5935
178.395 12.7109
178.431 11.9165
178.467 11.1981
178.497 10.6412
178.528 10.1267
178.559 9.65011
178.589 9.20766
178.620 8.79603
178.650 8.41231
178.681 8.05395
178.712 7.71976
178.742 7.40554
178.773 7.11064
178.803 6.83347
178.834 6.57261
178.865 6.32677
178.895 6.09479
178.926 5.87564
178.956 5.66902
179.017 5.28668
179.079 4.94252
179.140 4.63155
179.201 4.35004
179.262 4.09351
179.323 3.85946
179.385 3.64530
179.446 3.44913
179.501 3.28404
179.557 3.13100
179.613 2.98861
179.668 2.85587
179.724 2.73193
179.779 2.61602
179.835 2.50744
179.891 2.40559
179.946 2.30976
180.002 2.21980
180.057 2.13508
180.113 2.05521
180.169 1.97983
180.224 1.90861
180.335 1.77745
180.397 1.71109
180.458 1.64845
180.519 1.58928
180.580 1.53340
180.703 1.43019
180.825 1.33739
180.947 1.25352
181.070 1.17759
181.192 1.10852
181.314 1.04560
181.392 1.00838
181.470 0.973196
181.626 0.908394
181.781 0.850152
181.937 0.797632
182.093 0.750103
182.249 0.706920
182.404 0.667554
182.560 0.631577
182.682 0.605436
182.805 0.581029
182.927 0.558171
183.049 0.536772
183.172 0.516681
183.294 0.497824
183.416 0.480077
183.539 0.463384
183.783 0.432797
184.028 0.405527
184.273 0.381127
184.518 0.359223
184.662 0.347325
184.807 0.336131
185.096 0.315661
185.385 0.297459
185.674 0.281232
185.964 0.266755
186.253 0.253829
186.542 0.242212
186.831 0.231768
187.076 0.223769
187.320 0.216473
187.565 0.209826
187.810 0.203775
188.055 0.198279
188.299 0.193299
188.544 0.188803
188.789 0.184763
189.033 0.181154
189.278 0.177956
189.523 0.175152
189.767 0.172728
190.012 0.170673
190.257 0.168980
190.502 0.167644
190.746 0.166662
191.102 0.165868
191.525 0.165921
191.947 0.167104
192.370 0.169496
192.581 0.171182
192.793 0.173218
193.004 0.175629
193.215 0.178437
193.427 0.181674
193.638 0.185369
193.849 0.189552
194.061 0.194272
194.272 0.199609
194.483 0.205631
194.728 0.213547
194.973 0.222599
195.217 0.232952
195.462 0.244804
195.707 0.258398
195.829 0.265942
195.952 0.274032
196.074 0.282730
196.196 0.292076
196.319 0.302145
196.441 0.312988
196.608 0.329187
196.775 0.347192
196.942 0.367279
197.108 0.389734
197.275 0.414974
197.359 0.428774
197.442 0.443452
197.526 0.459103
197.609 0.475769
197.692 0.493556
197.776 0.512565
197.898 0.542910
198.020 0.576504
198.143 0.613884
198.265 0.655564
198.388 0.702302
198.449 0.727810
198.510 0.754856
198.571 0.783660
198.632 0.814276
198.693 0.846966
198.754 0.881805
198.843 0.936909
198.932 0.997831
199.021 1.06542
199.110 1.14061
199.155 1.18150
199.199 1.22480
199.244 1.27069
199.288 1.31940
199.333 1.37116
199.377 1.42624
199.422 1.48493
199.466 1.54741
199.527 1.64064
199.589 1.74310
199.650 1.85608
199.711 1.98088
199.772 2.11971
199.833 2.27455
199.864 2.35877
199.895 2.44802
199.925 2.54273
199.956 2.64301
200.000 2.80058
200.052 3.00360
200.078 3.11378
200.103 3.23052
200.129 3.35488
200.155 3.48651
200.181 3.62659
200.207 3.77591
200.233 3.93601
200.258 4.10667
200.284 4.28966
200.310 4.48635
200.336 4.69830
200.362 4.92738
200.387 5.17580
200.413 5.44621
200.426 5.59178
200.439 5.74302
200.452 5.90153
200.465 6.06790
200.478 6.24275
200.491 6.42680
200.504 6.62087
200.516 6.82583
200.529 7.04443
200.542 7.27446
200.555 7.51880
200.568 7.77891
200.581 8.05639
200.594 8.35308
200.607 8.67103
200.620 9.01254
200.627 9.21722
200.634 9.42781
200.641 9.64758
200.649 9.87710
200.656 10.1170
200.663 10.3679
200.670 10.6304
200.677 10.9054
200.685 11.1977
200.692 11.5002
200.699 11.8175
200.706 12.1508
200.714 12.5009
200.721 12.8690
200.728 13.2562
200.735 13.6637
200.742 14.0743
200.749 14.4996
200.756 14.9464
200.762 15.4161
200.768 15.8283
200.774 16.2583
200.780 16.7070
200.785 17.1752
200.791 17.6639
200.797 18.1741
200.802 18.7067
200.808 19.2528
200.816 20.1168
200.825 21.0265
200.833 22.0076
200.841 23.0408
200.850 24.1551
200.858 25.3285
200.866 26.5938
200.875 27.9258
200.883 29.3615
200.892 30.8910
200.900 32.5197
200.908 34.2322
200.917 36.0757
200.925 38.0125
200.933 40.0954
200.942 42.2815
200.950 44.6301
200.958 47.0920
200.967 49.7337
200.975 52.4993
200.983 55.4626
200.992 58.5605
201.000 61.8749
201.008 65.3343
201.017 69.0295
201.025 72.8799
201.034 76.9856
201.042 81.2559
201.050 85.8010
201.059 90.5195
201.067 95.5317
201.075 100.725
201.084 106.230
201.092 111.921
201.100 117.942
201.109 124.154
201.117 130.709
201.125 137.457
201.134 144.563
201.142 151.860
201.150 159.525
201.159 167.474
201.167 175.705
201.176 184.116
201.192 201.865
201.209 220.693
201.226 240.555
201.242 261.390
201.259 283.112
201.276 305.621
201.292 328.794
201.309 352.488
201.343 400.779
201.376 449.008
201.409 495.475
201.426 517.610
201.443 538.484
201.460 558.005
201.476 575.955
201.493 592.127
201.510 606.331
201.526 618.395
201.543 628.122
201.560 635.726
201.578 640.647
201.600 642.926
201.603 642.878
201.612 642.207
201.621 640.773
201.639 635.625
201.654 629.494
201.668 621.647
201.682 612.266
201.696 601.414
201.711 587.905
201.726 572.912
201.740 557.738
201.754 541.464
201.782 506.265
201.810 468.266
201.838 428.680
201.878 369.875
201.919 312.552
201.947 275.054
201.961 257.073
201.975 239.850
201.989 223.184
202.003 207.351
202.016 192.256
202.030 177.918
202.044 164.254
202.058 151.464
202.072 139.359
202.086 128.105
202.100 117.525
202.114 107.750
202.128 98.6798
202.142 90.2876
202.155 82.8121
202.169 75.9617
202.182 69.6499
202.195 63.8475
202.208 58.5248
202.222 53.6523
202.235 49.2002
202.242 47.1075
202.248 45.1397
202.255 43.2335
202.262 41.4423
202.268 39.7086
202.275 38.0808
202.282 36.5062
202.288 35.0287
202.295 33.6004
202.302 32.2609
202.308 30.9667
202.315 29.7535
202.328 27.4840
202.341 25.4311
202.355 23.5750
202.362 22.6709
202.369 21.8137
202.383 20.2410
202.397 18.8162
202.411 17.5432
202.425 16.3885
202.438 15.3552
202.452 14.4224
202.466 13.5791
202.480 12.8102
202.494 12.1180
202.508 11.4843
202.522 10.9113
202.536 10.3843
202.550 9.90547
202.564 9.46590
202.578 9.06130
202.598 8.52553
202.618 8.04626
202.639 7.61511
202.659 7.22694
202.679 6.87217
202.699 6.54800
202.720 6.25047
202.740 5.97753
202.760 5.72371
202.781 5.48807
202.801 5.26863
202.821 5.06467
202.841 4.87274
202.862 4.69349
202.882 4.52409
202.902 4.36525
202.930 4.16036
202.958 3.97059
202.986 3.79438
203.014 3.63094
203.041 3.47791
203.069 3.33490
203.097 3.20099
203.125 3.07582
203.153 2.95780
203.181 2.84675
203.209 2.74213
203.237 2.64377
203.292 2.46232
203.348 2.29993
203.379 2.21801
203.409 2.14081
203.470 1.99849
203.531 1.87044
203.591 1.75478
203.652 1.64976
203.713 1.55441
203.774 1.46741
203.835 1.38779
203.890 1.32051
203.946 1.25830
204.002 1.20046
204.058 1.14677
204.113 1.09667
204.169 1.04999
204.225 1.00628
204.281 0.965442
204.336 0.927084
204.392 0.891139
204.448 0.857288
204.504 0.825483
204.559 0.795456
204.615 0.767175
204.727 0.715152
204.838 0.668535
204.950 0.626596
205.061 0.588725
205.173 0.554410
205.284 0.523217
205.396 0.494778
205.507 0.468780
205.619 0.444951
205.715 0.425938
205.811 0.408234
205.908 0.391720
206.004 0.376286
206.100 0.361835
206.196 0.348285
206.293 0.335561
206.389 0.323599
206.485 0.312340
206.582 0.301731
206.774 0.282273
206.967 0.264883
207.159 0.249286
207.382 0.233136
207.605 0.218758
207.828 0.205901
208.051 0.194357
208.274 0.183953
208.497 0.174544
208.720 0.166007
208.943 0.158239
209.136 0.152083
209.329 0.146392
209.521 0.141117
209.714 0.136211
209.906 0.131633
210.099 0.127361
210.292 0.123370
210.484 0.119640
210.869 0.112870
211.254 0.106906
211.640 0.101627
212.025 0.0969378
212.309 0.0938100
212.592 0.0909315
212.876 0.0882774
213.160 0.0858265
213.444 0.0835597
213.728 0.0814622
214.295 0.0777191
214.863 0.0745226
215.431 0.0717396
215.998 0.0693331
216.566 0.0672581
217.296 0.0650111
218.026 0.0631745
218.755 0.0616939
219.485 0.0605271
220.215 0.0596419
220.945 0.0590139
221.675 0.0586256
222.404 0.0584643
223.296 0.0585655
224.188 0.0589889
225.080 0.0597403
225.972 0.0608355
226.864 0.0622983
227.756 0.0641709
228.648 0.0665079
229.094 0.0678738
229.540 0.0693862
230.149 0.0717140
230.757 0.0743881
231.365 0.0774645
231.973 0.0810046
232.581 0.0850839
232.885 0.0873838
233.190 0.0898729
233.494 0.0925711
233.798 0.0955026
234.102 0.0986957
234.406 0.102182
234.771 0.106811
235.136 0.112001
235.501 0.117853
235.865 0.124492
236.048 0.128155
236.230 0.132073
236.413 0.136274
236.595 0.140779
236.778 0.145633
236.960 0.150878
237.143 0.156570
237.325 0.162753
237.548 0.171075
237.771 0.180354
237.994 0.190758
238.217 0.202488
238.329 0.208927
238.440 0.215797
238.552 0.223138
238.663 0.230999
238.775 0.239430
238.886 0.248492
238.998 0.258251
239.109 0.268782
239.241 0.282345
239.373 0.297279
239.505 0.313792
239.636 0.332116
239.768 0.352577
239.900 0.375497
239.966 0.388025
240.032 0.401340
240.097 0.415512
240.163 0.430594
240.275 0.458526
240.386 0.489878
240.442 0.507035
240.498 0.525250
240.554 0.544688
240.609 0.565386
240.665 0.587540
240.721 0.611208
240.777 0.636627
240.832 0.663879
240.888 0.693261
240.944 0.724889
241.000 0.759135
241.055 0.796170
241.116 0.840321
241.177 0.888715
241.238 0.942025
241.299 1.00097
241.359 1.06653
241.420 1.13951
241.451 1.17921
241.481 1.22128
241.511 1.26593
241.542 1.31339
241.570 1.35963
241.598 1.40866
241.626 1.46073
241.653 1.51592
241.681 1.57493
241.709 1.63792
241.737 1.70530
241.765 1.77725
241.793 1.85485
241.821 1.93848
241.849 2.02888
241.876 2.12662
241.904 2.23349
241.932 2.35050
241.960 2.47937
241.988 2.62167
242.006 2.72127
242.023 2.82787
242.041 2.94367
242.059 3.06852
242.077 3.20520
242.094 3.35377
242.112 3.51685
242.130 3.69663
242.148 3.89687
242.165 4.11836
242.183 4.36716
242.201 4.64461
242.210 4.79693
242.219 4.95871
242.227 5.13067
242.236 5.31149
242.245 5.50611
242.254 5.71103
242.263 5.93188
242.272 6.16471
242.285 6.54929
242.298 6.97050
242.305 7.19898
242.312 7.43549
242.318 7.68784
242.325 7.94913
242.332 8.22796
242.338 8.51672
242.345 8.82490
242.352 9.14406
242.358 9.48470
242.365 9.83746
242.372 10.2139
242.378 10.6038
242.385 11.0197
242.391 11.4503
242.398 11.9096
242.405 12.3850
242.411 12.8920
242.418 13.4165
242.425 13.9756
242.431 14.5537
242.438 15.1697
242.445 15.8063
242.451 16.4842
242.458 17.1845
242.465 17.9298
242.471 18.6991
242.478 19.5173
242.485 20.3613
242.492 21.2994
242.499 22.2833
242.506 23.3150
242.512 24.3803
242.519 25.5120
242.526 26.6796
242.533 27.9188
242.540 29.1960
242.547 30.5501
242.554 31.9649
242.561 33.4423
242.568 34.9619
242.575 36.5694
242.582 38.2208
242.589 39.9659
242.596 41.7565
242.606 44.5354
242.616 47.4469
242.626 50.5539
242.637 53.8003
242.639 54.6640
242.649 57.9187
242.658 61.3315
242.668 64.9055
242.677 68.6033
242.691 74.4132
242.705 80.5900
242.719 87.1375
242.733 94.0057
242.747 101.292
242.761 108.887
242.775 116.833
242.789 125.120
242.803 133.795
242.817 142.715
242.830 151.920
242.844 161.382
242.872 181.026
242.900 201.294
242.956 242.265
242.984 262.139
243.012 280.938
243.029 292.235
243.047 302.758
243.075 317.632
243.089 324.151
243.103 330.016
243.117 335.219
243.131 339.648
243.145 343.312
243.159 346.182
243.173 348.251
243.186 349.472
243.200 349.855
243.202 349.841
243.210 349.633
243.217 349.188
243.232 347.588
243.247 344.973
243.262 341.422
243.278 336.757
243.294 331.143
243.309 324.631
243.325 317.280
243.347 306.031
243.368 293.530
243.399 273.335
243.431 251.522
243.462 228.748
243.494 205.646
243.521 185.890
243.548 166.648
243.575 148.199
243.602 130.766
243.618 121.141
243.633 112.001
243.649 103.304
243.665 95.0623
243.681 87.2834
243.696 79.9703
243.712 73.1216
243.728 66.7316
243.738 62.6349
243.749 58.7434
243.760 55.0528
243.770 51.5583
243.781 48.2545
243.792 45.1357
243.803 42.1961
243.813 39.4293
243.824 36.8288
243.835 34.3881
243.845 32.1003
243.856 29.9587
243.867 27.9564
243.877 26.0867
243.888 24.3429
243.899 22.7183
243.907 21.5915
243.915 20.5367
243.922 19.5244
243.930 18.5778
243.938 17.6703
243.946 16.8224
243.954 16.0103
243.962 15.2523
243.970 14.5267
243.977 13.8501
243.985 13.2029
243.993 12.5997
244.001 12.0231
244.009 11.4860
244.017 10.9729
244.024 10.4951
244.032 10.0387
244.040 9.61389
244.048 9.20825
244.056 8.83069
244.064 8.47020
244.072 8.13465
244.079 7.81425
244.087 7.51598
244.095 7.23111
244.103 6.96582
244.111 6.71234
244.119 6.47619
244.127 6.25042
244.134 6.03995
244.150 5.65306
244.166 5.30282
244.181 4.99124
244.197 4.71153
244.213 4.45978
244.229 4.23256
244.244 4.02686
244.260 3.84004
244.276 3.66982
244.291 3.51420
244.307 3.37144
244.323 3.24004
244.338 3.11869
244.354 3.00625
244.370 2.90175
244.386 2.80432
244.401 2.71323
244.431 2.55453
244.461 2.41299
244.491 2.28576
244.521 2.17099
244.551 2.06616
244.581 1.97057
244.611 1.88246
244.641 1.80149
244.671 1.72634
244.701 1.65665
244.731 1.59185
244.761 1.53168
244.791 1.47530
244.821 1.42274
244.851 1.37333
244.881 1.32711
244.912 1.28156
244.943 1.23881
245.006 1.16083
245.069 1.09162
245.132 1.02992
245.195 0.974676
245.257 0.925043
245.320 0.880297
245.383 0.839837
245.443 0.804712
245.503 0.772700
245.563 0.743367
245.623 0.716527
245.683 0.691844
245.743 0.669186
245.803 0.648324
245.863 0.629092
245.923 0.611317
245.982 0.594931
246.102 0.565789
246.222 0.540844
246.342 0.519520
246.422 0.507033
246.502 0.495814
246.582 0.485740
246.662 0.476715
246.821 0.461491
246.981 0.449590
247.141 0.440566
247.301 0.434078
247.461 0.429853
247.621 0.427692
247.746 0.427349
247.872 0.428140
247.997 0.430024
248.123 0.432974
248.249 0.436972
248.374 0.442010
248.500 0.448090
248.625 0.455220
248.751 0.463431
248.876 0.472750
249.002 0.483219
249.128 0.494888
249.253 0.507821
249.379 0.522091
249.504 0.537785
249.630 0.554990
249.801 0.581145
249.972 0.610677
250.144 0.644031
250.315 0.681676
250.486 0.724301
250.572 0.747700
250.657 0.772645
250.743 0.799290
250.829 0.827707
250.914 0.858075
251.000 0.890560
251.126 0.942447
251.251 0.999968
251.377 1.06392
251.502 1.13521
251.628 1.21507
251.691 1.25862
251.753 1.30476
251.816 1.35386
251.879 1.40608
251.942 1.46170
252.004 1.52091
252.079 1.59629
252.153 1.67781
252.227 1.76628
252.301 1.86251
252.339 1.91397
252.376 1.96760
252.413 2.02368
252.450 2.08237
252.487 2.14382
252.524 2.20821
252.561 2.27575
252.598 2.34663
252.630 2.40942
252.661 2.47491
252.692 2.54327
252.724 2.61468
252.755 2.68932
252.787 2.76739
252.818 2.84911
252.849 2.93472
252.878 3.01628
252.907 3.10118
252.935 3.18992
252.964 3.28274
252.986 3.36010
253.021 3.48203
253.046 3.57803
253.072 3.67828
253.098 3.78303
253.123 3.89214
253.139 3.96153
253.155 4.03290
253.170 4.10632
253.186 4.18188
253.202 4.25966
253.218 4.33976
253.233 4.42226
253.249 4.50727
253.265 4.59490
253.280 4.68527
253.296 4.77848
253.312 4.87467
253.327 4.97398
253.343 5.07654
253.359 5.18251
253.374 5.29134
253.388 5.38921
253.402 5.49002
253.415 5.59387
253.429 5.70010
253.442 5.81043
253.456 5.92338
253.469 6.04078
253.483 6.16106
253.497 6.28620
253.510 6.41549
253.524 6.54915
253.537 6.68635
253.551 6.82937
253.564 6.97635
253.578 7.12973
253.591 7.28753
253.607 7.47843
253.623 7.67775
253.639 7.88606
253.654 8.10400
253.670 8.33225
253.686 8.57158
253.701 8.82283
253.717 9.08693
253.730 9.31428
253.743 9.54975
253.756 9.79773
253.768 10.0551
253.781 10.3267
253.794 10.6093
253.807 10.9082
253.820 11.2199
253.833 11.5504
253.846 11.8960
253.858 12.2635
253.871 12.6488
253.884 13.0596
253.897 13.4915
253.910 13.9497
253.923 14.4364
253.932 14.8094
253.941 15.1998
253.950 15.6088
253.960 16.0329
253.969 16.4825
253.978 16.9544
253.988 17.4503
253.997 17.9657
254.006 18.5137
254.015 19.0904
254.025 19.6979
254.034 20.3308
254.043 21.0053
254.052 21.7167
254.062 22.4675
254.071 23.2513
254.079 23.9591
254.087 24.6910
254.095 25.4678
254.102 26.2714
254.110 27.1245
254.118 28.0074
254.126 28.9449
254.134 29.9154
254.142 30.9462
254.149 32.0133
254.157 33.1467
254.165 34.3202
254.173 35.5666
254.181 36.8568
254.189 38.2092
254.196 39.6266
254.204 41.1314
254.212 42.7089
254.220 44.3624
254.228 46.0729
254.236 47.8873
254.244 49.7633
254.252 51.7524
254.259 53.8077
254.267 55.9857
254.275 58.2347
254.283 60.6162
254.291 63.0736
254.299 65.6737
254.306 68.3546
254.314 71.1887
254.322 74.1082
254.330 77.1918
254.338 80.3651
254.346 83.7135
254.354 87.1558
254.361 90.7841
254.369 94.5100
254.385 102.456
254.401 111.022
254.416 120.233
254.432 130.110
254.448 140.604
254.463 151.865
254.479 163.838
254.495 176.530
254.510 189.940
254.526 204.063
254.542 218.885
254.558 234.388
254.573 250.542
254.600 279.960
254.628 310.856
254.655 343.014
254.682 376.035
254.744 453.050
254.776 490.251
254.807 525.268
254.839 557.122
254.870 584.875
254.885 596.722
254.901 607.284
254.916 616.477
254.932 624.231
254.959 634.279
254.986 639.324
255.000 639.925
255.005 639.840
255.020 638.570
255.034 635.810
255.049 631.577
255.064 625.902
255.085 615.181
255.107 601.676
255.128 586.236
255.148 568.713
255.165 552.894
255.182 535.925
255.216 499.126
255.257 450.477
255.298 399.836
255.340 349.119
255.381 300.322
255.401 278.096
255.421 256.717
255.440 236.280
255.460 216.860
255.480 198.512
255.499 181.272
255.519 165.158
255.539 150.172
255.549 142.712
255.559 135.628
255.570 128.777
255.580 122.288
255.591 116.028
255.601 110.111
255.611 104.470
255.621 99.0976
255.632 93.9379
255.642 89.0823
255.652 84.4719
255.663 80.0985
255.673 75.9144
255.683 71.9915
255.694 68.2799
255.704 64.7709
255.717 60.5564
255.730 56.6713
255.744 53.0386
255.757 49.6964
255.770 46.5769
255.783 43.7114
255.796 41.0599
255.809 38.6078
255.822 36.3244
255.835 34.2307
255.849 32.2820
255.862 30.4957
255.875 28.8330
255.888 27.3086
255.901 25.8993
255.914 24.5960
255.925 23.6310
255.935 22.7318
255.945 21.8850
255.956 21.0874
255.966 20.3285
255.976 19.6198
255.997 18.3193
256.018 17.1524
256.038 16.1123
256.059 15.1730
256.079 14.3299
256.100 13.5630
256.121 12.8697
256.141 12.2344
256.162 11.6558
256.183 11.1218
256.203 10.6321
256.224 10.1771
256.245 9.75712
256.265 9.36464
256.286 9.00038
256.307 8.65816
256.327 8.33900
256.348 8.03779
256.369 7.75572
256.410 7.23735
256.451 6.77363
256.492 6.35643
256.534 5.97924
256.575 5.63674
256.613 5.35137
256.650 5.08901
256.688 4.84586
256.725 4.62117
256.763 4.41196
256.800 4.21779
256.838 4.03628
256.875 3.86717
256.913 3.70853
256.951 3.56023
256.988 3.42067
257.026 3.28982
257.063 3.16633
257.101 3.05024
257.138 2.94040
257.176 2.83689
257.217 2.72935
257.258 2.62806
257.300 2.53254
257.341 2.44235
257.424 2.27642
257.506 2.12753
257.589 1.99339
257.671 1.87211
257.754 1.76208
257.837 1.66195
257.897 1.59464
257.957 1.53156
258.017 1.47237
258.077 1.41683
258.137 1.36449
258.197 1.31517
258.257 1.26865
258.317 1.22479
258.437 1.14393
258.558 1.07139
258.678 1.00597
258.798 0.946869
258.881 0.909404
258.963 0.874363
259.046 0.841503
259.128 0.810650
259.211 0.781643
259.294 0.754340
259.459 0.704337
259.624 0.659740
259.789 0.619807
259.954 0.583917
260.120 0.551551
260.225 0.532574
260.330 0.514764
260.540 0.482236
260.750 0.453361
260.961 0.427654
261.171 0.404659
261.381 0.384019
261.591 0.365410
261.802 0.348612
261.967 0.336537
262.132 0.325372
262.297 0.315029
262.463 0.305440
262.628 0.296540
262.793 0.288275
263.123 0.273449
263.454 0.260616
263.784 0.249506
264.115 0.239885
264.445 0.231568
264.670 0.226564
264.896 0.222052
265.346 0.214374
265.797 0.208321
266.247 0.203622
266.698 0.200138
267.148 0.197782
267.599 0.196469
268.050 0.196135
268.380 0.196487
268.710 0.197332
269.041 0.198663
269.371 0.200479
269.702 0.202785
270.032 0.205585
270.363 0.208893
270.693 0.212725
271.023 0.217103
271.354 0.222050
271.684 0.227600
272.015 0.233790
272.345 0.240663
272.675 0.248271
273.006 0.256673
273.336 0.265932
273.697 0.277075
274.057 0.289425
274.418 0.303196
274.778 0.318528
275.139 0.335605
275.499 0.354645
275.860 0.375930
276.220 0.399773
276.550 0.424221
276.881 0.451502
277.211 0.482049
277.376 0.498704
277.542 0.516376
277.707 0.535159
277.872 0.555119
278.037 0.576366
278.203 0.599011
278.368 0.623175
278.533 0.648994
278.698 0.676616
278.863 0.706206
279.029 0.737959
279.194 0.772039
279.359 0.808708
279.524 0.848258
279.689 0.891014
279.772 0.913703
279.855 0.937329
279.937 0.961943
280.020 0.987599
280.102 1.01436
280.185 1.04228
280.264 1.07011
280.343 1.09908
280.422 1.12935
280.500 1.16091
280.579 1.19391
280.658 1.22836
280.737 1.26444
280.776 1.28308
280.816 1.30215
280.867 1.32735
280.917 1.35331
280.968 1.38008
281.019 1.40762
281.067 1.43507
281.099 1.45342
281.131 1.47214
281.188 1.50616
281.244 1.54136
281.300 1.57785
281.357 1.61569
281.402 1.64703
281.447 1.67925
281.492 1.71253
281.537 1.74676
281.582 1.78213
281.627 1.81855
281.672 1.85620
281.717 1.89499
281.758 1.93170
281.800 1.96952
281.841 2.00849
281.882 2.04866
281.923 2.09008
281.965 2.13280
282.006 2.17688
282.047 2.22238
282.089 2.26947
282.130 2.31799
282.171 2.36813
282.213 2.41995
282.254 2.47353
282.295 2.52895
282.337 2.58631
282.378 2.64568
282.419 2.70717
282.460 2.77088
282.502 2.83691
282.543 2.90539
282.584 2.97644
282.626 3.05018
282.667 3.12676
282.708 3.20613
282.750 3.28903
282.791 3.37505
282.832 3.46456
282.873 3.55776
282.915 3.65485
282.956 3.75605
282.997 3.86161
283.039 3.97178
283.080 4.08684
283.121 4.20707
283.163 4.33281
283.204 4.46438
283.245 4.60218
283.286 4.74660
283.328 4.89807
283.369 5.05707
283.410 5.22412
283.452 5.39977
283.493 5.58463
283.534 5.77938
283.576 5.98473
283.617 6.20149
283.658 6.43054
283.699 6.67283
283.741 6.92944
283.782 7.20152
283.823 7.49039
283.865 7.79748
283.906 8.12439
283.947 8.47292
283.989 8.84506
284.030 9.24306
284.071 9.66944
284.112 10.1271
284.154 10.6192
284.195 11.1494
284.236 11.7220
284.278 12.3418
284.319 13.0144
284.340 13.3734
284.360 13.7463
284.381 14.1377
284.402 14.5450
284.422 14.9732
284.443 15.4194
284.464 15.8894
284.484 16.3800
284.505 16.8978
284.525 17.4395
284.546 18.0122
284.567 18.6127
284.587 19.2491
284.608 19.9179
284.629 20.6285
284.649 21.3772
284.670 22.1749
284.691 23.0178
284.711 23.9185
284.732 24.8778
284.753 25.9013
284.773 26.9896
284.794 28.1599
284.815 29.4084
284.835 30.7556
284.856 32.1977
284.877 33.7588
284.897 35.4354
284.918 37.2562
284.939 39.2175
284.959 41.3536
284.980 43.6608
285.001 46.1798
285.021 48.9061
285.033 50.6328
285.046 52.4486
285.058 54.3585
285.070 56.3677
285.082 58.4816
285.094 60.7059
285.107 63.0463
285.119 65.5088
285.131 68.0998
285.143 70.8254
285.155 73.6923
285.168 76.7072
285.180 79.8768
285.192 83.2081
285.204 86.7080
285.216 90.3836
285.237 97.0417
285.258 104.224
285.278 112.033
285.299 120.425
285.320 129.511
285.340 139.231
285.361 149.702
285.382 160.840
285.402 172.768
285.423 185.375
285.444 198.783
285.464 212.852
285.485 227.701
285.505 243.155
285.526 259.324
285.547 276.002
285.582 306.094
285.618 337.331
285.689 400.983
285.731 436.968
285.772 470.881
285.795 488.351
285.818 504.612
285.841 519.469
285.864 532.685
285.898 549.199
285.915 555.836
285.932 561.296
285.949 565.602
285.966 568.673
285.983 570.520
286.000 571.109
286.011 570.849
286.028 569.409
286.045 566.719
286.062 562.799
286.079 557.713
286.096 551.439
286.113 544.096
286.147 526.268
286.172 510.551
286.198 493.020
286.223 473.937
286.249 453.657
286.298 411.626
286.347 367.926
286.418 304.837
286.454 274.825
286.490 246.384
286.514 227.861
286.539 210.299
286.564 193.747
286.588 178.292
286.613 163.820
286.637 150.388
286.662 137.977
286.686 126.601
286.711 116.126
286.736 106.554
286.748 102.090
286.760 97.8326
286.772 93.7735
286.785 89.9369
286.797 86.2526
286.809 82.7457
286.822 79.4090
286.834 76.2605
286.846 73.2418
286.858 70.3722
286.883 65.0742
286.903 61.1132
286.923 57.4703
286.943 54.1198
286.963 51.0375
286.983 48.2004
287.003 45.5875
287.024 43.1791
287.044 40.9571
287.064 38.9047
287.084 37.0069
287.104 35.2496
287.124 33.6201
287.144 32.1069
287.164 30.6997
287.184 29.3889
287.204 28.1660
287.229 26.7778
287.254 25.4971
287.278 24.3130
287.303 23.2198
287.327 22.2002
287.352 21.2549
287.376 20.3695
287.401 19.5453
287.426 18.7704
287.450 18.0436
287.475 17.3608
287.499 16.7208
287.524 16.1152
287.548 15.5459
287.597 14.4964
287.624 13.9680
287.651 13.4710
287.705 12.5566
287.758 11.7356
287.812 10.9953
287.866 10.3251
287.919 9.71609
287.973 9.16091
288.026 8.65320
288.076 8.22433
288.125 7.82808
288.174 7.45970
288.223 7.11792
288.272 6.79895
288.321 6.50193
288.370 6.22432
288.419 5.96442
288.469 5.72027
288.518 5.49151
288.567 5.27643
288.616 5.07396
288.665 4.88273
288.714 4.70264
288.763 4.53250
288.812 4.37157
288.911 4.07450
289.009 3.80717
289.107 3.56571
289.206 3.34708
289.304 3.14807
289.402 2.96677
289.500 2.80079
289.599 2.64877
289.679 2.53338
289.759 2.42565
289.840 2.32479
289.920 2.23022
290.001 2.14142
290.081 2.05791
290.161 1.97928
290.242 1.90516
290.322 1.83519
290.403 1.76908
290.563 1.64737
290.724 1.53807
290.885 1.43958
290.983 1.38409
291.082 1.33185
291.180 1.28261
291.278 1.23619
291.376 1.19229
291.475 1.15078
291.671 1.07430
291.868 1.00547
292.064 0.943393
292.261 0.887186
292.457 0.836146
292.582 0.806063
292.708 0.777692
292.958 0.725621
293.208 0.679041
293.458 0.637294
293.708 0.599729
293.958 0.565809
294.208 0.535073
294.458 0.507189
294.655 0.487080
294.852 0.468435
295.048 0.451117
295.245 0.435044
295.441 0.420106
295.638 0.406241
295.834 0.393369
296.031 0.381428
296.227 0.370358
296.424 0.360124
296.620 0.350674
296.817 0.341984
297.014 0.334017
297.210 0.326758
297.407 0.320187
297.603 0.314294
297.960 0.305302
298.318 0.298574
298.496 0.296091
298.675 0.294224
298.854 0.293006
299.032 0.292475
299.265 0.292886
299.497 0.294666
299.729 0.298012
299.962 0.303189
300.194 0.310537
300.310 0.315154
300.426 0.320477
300.542 0.326592
300.658 0.333577
300.775 0.341542
300.891 0.350607
301.025 0.362637
301.159 0.376580
301.293 0.392772
301.427 0.411619
301.494 0.422195
301.561 0.433637
301.628 0.446032
301.695 0.459476
301.762 0.474079
301.829 0.489965
301.896 0.507275
301.963 0.526172
302.057 0.555654
302.150 0.589228
302.197 0.607780
302.244 0.627653
302.291 0.648973
302.338 0.671881
302.385 0.696536
302.432 0.723120
302.479 0.751840
302.526 0.782932
302.572 0.816667
302.619 0.853362
302.666 0.893380
302.713 0.937152
302.762 0.987658
302.811 1.04344
302.861 1.10559
302.910 1.17489
302.959 1.25301
302.984 1.29585
303.008 1.34139
303.033 1.39030
303.057 1.44257
303.082 1.49907
303.106 1.55988
303.131 1.62614
303.155 1.69840
303.180 1.77762
303.205 1.86461
303.229 1.96149
303.254 2.06972
303.278 2.19144
303.303 2.32874
303.315 2.40470
303.327 2.48599
303.340 2.57311
303.352 2.66664
303.364 2.76723
303.377 2.87557
303.389 2.99244
303.401 3.11761
303.413 3.25406
303.426 3.40183
303.438 3.56201
303.450 3.73437
303.463 3.92304
303.475 4.12811
303.487 4.35114
303.499 4.59179
303.513 4.88054
303.526 5.19738
303.540 5.54511
303.553 5.92675
303.566 6.34557
303.580 6.80507
303.593 7.30904
303.607 7.86151
303.620 8.46676
303.633 9.12938
303.647 9.85421
303.660 10.6464
303.674 11.5112
303.687 12.4543
303.700 13.4817
303.714 14.5993
303.726 15.7100
303.738 16.9071
303.751 18.1957
303.763 19.5810
303.775 21.0683
303.788 22.6629
303.800 24.3700
303.812 26.1797
303.824 28.1268
303.837 30.2020
303.849 32.4102
303.861 34.7366
303.873 37.2238
303.886 39.8574
303.898 42.6413
303.910 45.5544
303.920 47.9294
303.929 50.3990
303.939 52.9642
303.948 55.6257
303.958 58.3840
303.967 61.2393
303.986 67.2408
304.005 73.6267
304.024 80.3885
304.043 87.5125
304.062 94.9793
304.083 103.684
304.105 112.740
304.126 122.093
304.147 131.681
304.172 143.006
304.196 154.378
304.205 158.551
304.226 168.317
304.248 177.911
304.272 188.696
304.297 198.952
304.321 208.443
304.346 217.204
304.370 224.933
304.395 231.508
304.419 236.848
304.444 240.867
304.469 243.461
304.496 244.634
304.500 244.656
304.505 244.627
304.519 244.187
304.534 243.226
304.562 239.919
304.591 234.688
304.619 227.697
304.643 220.785
304.666 212.919
304.695 202.189
304.723 190.499
304.754 176.858
304.785 162.698
304.843 136.230
304.871 123.236
304.900 110.697
304.928 98.6753
304.957 87.3388
304.971 81.9567
304.986 76.7774
305.000 71.8073
305.014 67.0840
305.026 63.3532
305.037 59.7689
305.049 56.3316
305.061 53.0408
305.073 49.8957
305.084 46.8950
305.096 44.0366
305.108 41.3408
305.119 38.7586
305.131 36.3106
305.143 33.9934
305.154 31.8214
305.166 29.7535
305.178 27.8046
305.189 25.9706
305.201 24.2613
305.215 22.2971
305.230 20.4831
305.244 18.8109
305.258 17.2722
305.272 15.8589
305.287 14.5630
305.301 13.3765
305.315 12.2919
305.330 11.3019
305.344 10.3994
305.358 9.57760
305.373 8.83022
305.387 8.15117
305.401 7.53473
305.415 6.97556
305.430 6.47201
305.438 6.19332
305.447 5.93354
305.455 5.68558
305.463 5.45446
305.472 5.23389
305.480 5.02829
305.489 4.83431
305.497 4.65125
305.506 4.47650
305.514 4.31354
305.523 4.15792
305.531 4.01274
305.548 3.74453
305.565 3.50641
305.582 3.29212
305.598 3.10011
305.615 2.92770
305.632 2.77336
305.649 2.63317
305.666 2.50626
305.683 2.39102
305.700 2.28663
305.714 2.20485
305.728 2.12888
305.743 2.05813
305.757 1.99209
305.785 1.87235
305.814 1.76690
305.843 1.67257
305.871 1.58782
305.900 1.51114
305.928 1.44155
305.957 1.37759
305.985 1.31874
306.014 1.26435
306.043 1.21407
306.071 1.16712
306.100 1.12330
306.128 1.08231
306.157 1.04402
306.185 1.00791
306.214 0.973928
306.271 0.911770
306.328 0.856212
306.385 0.806300
306.443 0.761181
306.500 0.720372
306.557 0.683256
306.614 0.649383
306.671 0.618320
306.728 0.589850
306.785 0.563592
306.842 0.539399
306.900 0.516974
306.957 0.496216
307.014 0.476924
307.071 0.458959
307.128 0.442171
307.185 0.426509
307.242 0.411822
307.300 0.398076
307.414 0.373006
307.528 0.350794
307.601 0.337916
307.674 0.325940
307.746 0.314766
307.819 0.304322
307.892 0.294530
307.964 0.285362
308.110 0.268650
308.255 0.253810
308.401 0.240576
308.546 0.228696
308.692 0.217995
308.806 0.210304
308.920 0.203176
309.035 0.196557
309.149 0.190402
309.263 0.184657
309.377 0.179289
309.606 0.169556
309.834 0.160965
310.063 0.153341
310.291 0.146533
310.520 0.140426
310.728 0.135401
310.936 0.130813
311.143 0.126603
311.351 0.122726
311.559 0.119143
311.767 0.115828
312.182 0.109899
312.598 0.104757
313.013 0.100266
313.429 0.0963159
313.844 0.0928245
314.218 0.0900174
314.592 0.0874876
314.966 0.0852082
315.340 0.0831568
315.714 0.0812872
316.088 0.0795835
316.836 0.0766352
317.584 0.0742194
318.332 0.0722599
319.080 0.0707010
319.828 0.0695022
320.493 0.0687146
321.158 0.0681739
321.823 0.0678704
322.488 0.0677990
323.402 0.0680785
324.316 0.0688028
325.230 0.0699939
326.145 0.0716876
326.602 0.0727379
327.059 0.0739347
327.516 0.0752878
327.973 0.0768072
328.430 0.0785058
328.887 0.0803990
329.344 0.0825022
329.801 0.0848345
330.383 0.0881704
330.965 0.0919671
331.547 0.0962782
332.128 0.101159
332.710 0.106760
333.292 0.113171
333.583 0.116721
333.874 0.120526
334.165 0.124610
334.455 0.128996
334.913 0.136572
335.370 0.145094
335.827 0.154715
336.055 0.159995
336.284 0.165622
336.513 0.171628
336.741 0.178043
336.970 0.184908
337.198 0.192260
337.427 0.200150
337.655 0.208624
337.884 0.217744
338.112 0.227561
338.362 0.239158
338.611 0.251785
338.860 0.265593
339.110 0.280734
339.359 0.297379
339.608 0.315709
339.858 0.335965
340.107 0.358424
340.336 0.381235
340.564 0.406464
340.793 0.434490
341.021 0.465714
341.135 0.482691
341.250 0.500671
341.364 0.519732
341.478 0.539945
341.593 0.561444
341.707 0.584320
341.821 0.608692
341.935 0.634671
342.102 0.675718
342.268 0.721021
342.434 0.771213
342.600 0.827023
342.683 0.857342
342.767 0.889377
342.850 0.923306
342.933 0.959285
343.016 0.997484
343.099 1.03809
343.182 1.08132
343.265 1.12739
343.359 1.18295
343.452 1.24285
343.546 1.30754
343.639 1.37756
343.733 1.45351
343.779 1.49396
343.826 1.53609
343.873 1.58016
343.920 1.62611
343.966 1.67414
344.013 1.72439
344.065 1.78312
344.117 1.84486
344.169 1.91008
344.221 1.97878
344.273 2.05150
344.325 2.12825
344.377 2.20952
344.403 2.25204
344.429 2.29566
344.461 2.35226
344.494 2.41103
344.526 2.47210
344.559 2.53558
344.579 2.57754
344.618 2.65915
344.657 2.74458
344.683 2.80406
344.709 2.86556
344.735 2.92916
344.761 2.99471
344.787 3.06282
344.813 3.13307
344.839 3.20613
344.865 3.28156
344.894 3.36809
344.922 3.45820
344.951 3.55210
344.979 3.64965
345.008 3.75179
345.036 3.85806
345.065 3.96947
345.093 4.08555
345.108 4.14579
345.122 4.20743
345.136 4.27051
345.151 4.33507
345.165 4.40117
345.179 4.46886
345.194 4.53819
345.208 4.60921
345.222 4.68198
345.236 4.75657
345.251 4.83304
345.265 4.91146
345.279 4.99189
345.294 5.07441
345.308 5.15909
345.322 5.24541
345.336 5.33465
345.351 5.42632
345.365 5.52050
345.379 5.61729
345.394 5.71679
345.408 5.81913
345.422 5.92440
345.436 6.03196
345.451 6.14347
345.465 6.25830
345.479 6.37661
345.494 6.49767
345.508 6.62337
345.522 6.75302
345.536 6.88682
345.551 7.02398
345.565 7.16664
345.579 7.31407
345.594 7.46652
345.608 7.62423
345.622 7.78748
345.636 7.95656
345.651 8.13179
345.665 8.31221
345.679 8.50073
345.694 8.69649
345.708 8.89992
345.722 9.10995
345.736 9.33005
345.751 9.55929
345.765 9.79826
345.779 10.0458
345.793 10.3060
345.808 10.5781
345.822 10.8626
345.836 11.1606
345.851 11.4730
345.865 11.8007
345.879 12.1449
345.893 12.5042
345.908 12.8850
345.922 13.2862
345.936 13.7094
345.951 14.1562
345.965 14.6285
345.979 15.1281
345.994 15.6574
346.008 16.2144
346.022 16.8096
346.036 17.4419
346.051 18.1140
346.065 18.8293
346.079 19.5910
346.094 20.4027
346.108 21.2684
346.122 22.1855
346.136 23.1714
346.151 24.2245
346.165 25.3498
346.179 26.5529
346.194 27.8392
346.208 29.2148
346.222 30.6861
346.236 32.2483
346.251 33.9303
346.265 35.7288
346.279 37.6514
346.294 39.7059
346.308 41.9006
346.322 44.2439
346.336 46.7443
346.351 49.3915
346.365 52.2317
346.379 55.2558
346.394 58.4732
346.408 61.8681
346.422 65.4976
346.436 69.3474
346.451 73.4261
346.465 77.7113
346.483 83.5586
346.501 89.8191
346.519 96.5069
346.538 103.594
346.556 111.168
346.574 119.198
346.592 127.690
346.610 136.592
346.625 143.948
346.639 151.583
346.653 159.495
346.667 167.677
346.696 184.814
346.725 202.841
346.753 221.767
346.782 241.308
346.839 281.745
346.896 322.415
346.925 342.138
346.953 361.000
346.982 378.832
347.010 395.215
347.039 409.979
347.067 422.798
347.087 430.193
347.106 436.541
347.125 441.787
347.144 445.867
347.172 449.724
347.200 450.994
347.207 450.903
347.230 449.476
347.253 446.355
347.275 441.549
347.298 435.160
347.329 423.874
347.361 410.003
347.390 394.646
347.420 377.552
347.447 360.736
347.474 342.955
347.527 305.494
347.587 263.257
347.616 242.432
347.646 222.132
347.675 202.562
347.705 183.889
347.735 166.243
347.764 149.719
347.779 141.899
347.794 134.380
347.809 127.164
347.823 120.253
347.838 113.647
347.853 107.343
347.868 101.338
347.883 95.6282
347.897 90.2070
347.912 85.0681
347.927 80.2043
347.942 75.6074
347.957 71.2688
347.971 67.1792
347.986 63.3292
348.001 59.7327
348.016 56.3085
348.031 53.1178
348.045 50.1266
348.060 47.3250
348.075 44.7030
348.090 42.2508
348.105 39.9588
348.119 37.8178
348.134 35.8187
348.149 33.9527
348.164 32.2114
348.179 30.5868
348.193 29.0713
348.208 27.6574
348.223 26.3383
348.238 25.1073
348.258 23.5584
348.278 22.1474
348.298 20.8610
348.319 19.6869
348.339 18.6138
348.359 17.6317
348.379 16.7313
348.399 15.9083
348.420 15.1472
348.440 14.4455
348.460 13.7973
348.480 13.2001
348.500 12.6433
348.520 12.1258
348.541 11.6436
348.561 11.1957
348.590 10.5879
348.620 10.0345
348.650 9.52862
348.679 9.06451
348.709 8.63722
348.738 8.24255
348.768 7.87691
348.798 7.53725
348.827 7.22091
348.857 6.92561
348.886 6.64936
348.916 6.39041
348.946 6.14724
348.975 5.91850
349.005 5.70299
349.034 5.49965
349.094 5.12516
349.153 4.78977
349.212 4.48750
349.271 4.21397
349.330 3.96552
349.390 3.73909
349.449 3.53208
349.508 3.34226
349.565 3.17511
349.621 3.02077
349.678 2.87768
349.734 2.74475
349.791 2.62102
349.847 2.50564
349.904 2.39787
349.960 2.29703
350.017 2.20254
350.073 2.11387
350.130 2.03055
350.186 1.95214
350.243 1.87826
350.299 1.80857
350.356 1.74276
350.412 1.68054
350.471 1.61892
350.531 1.56068
350.649 1.45341
350.767 1.35700
350.886 1.27004
351.004 1.19132
351.123 1.11983
351.241 1.05469
351.359 0.995192
351.451 0.952663
351.542 0.912864
351.634 0.875564
351.725 0.840557
351.817 0.807655
351.908 0.776688
352.000 0.747503
352.091 0.719964
352.183 0.693945
352.274 0.669338
352.457 0.623965
352.640 0.583149
352.823 0.546322
352.942 0.524343
353.060 0.503717
353.179 0.484320
353.297 0.466054
353.415 0.448835
353.534 0.432583
353.771 0.402702
354.007 0.375914
354.244 0.351805
354.481 0.330030
354.718 0.310295
354.998 0.289264
355.278 0.270395
355.557 0.253402
355.837 0.238056
356.117 0.224150
356.397 0.211516
356.677 0.199974
356.957 0.189402
357.194 0.181134
357.430 0.173437
357.667 0.166259
357.904 0.159554
358.141 0.153281
358.378 0.147404
358.614 0.141890
358.851 0.136710
359.088 0.131836
359.325 0.127247
359.798 0.118836
360.272 0.111325
360.746 0.104590
361.219 0.0985272
361.693 0.0930522
362.167 0.0880907
362.640 0.0835807
363.114 0.0794693
363.587 0.0757113
364.061 0.0722693
364.535 0.0691197
365.008 0.0662202
365.482 0.0635333
365.955 0.0610479
366.429 0.0587473
366.903 0.0566129
367.376 0.0546301
367.850 0.0527857
368.324 0.0510673
368.797 0.0494633
369.271 0.0479656
370.218 0.0452535
371.165 0.0428718
372.112 0.0407726
372.715 0.0395657
373.318 0.0384489
373.921 0.0374144
374.524 0.0364556
375.729 0.0347415
376.935 0.0332662
378.140 0.0320131
379.346 0.0309191
380.552 0.0299839
381.757 0.0291915
382.790 0.0286168
383.824 0.0281274
384.857 0.0277137
385.890 0.0273756
386.924 0.0271123
387.957 0.0269168
388.991 0.0267833
390.024 0.0267139
391.918 0.0267559
392.866 0.0268519
393.813 0.0270055
395.707 0.0274735
396.655 0.0277946
397.602 0.0281787
398.549 0.0286211
399.496 0.0291326
400.443 0.0297210
401.391 0.0303810
402.338 0.0311236
403.285 0.0319644
404.232 0.0328996
405.180 0.0339389
406.213 0.0352182
407.246 0.0366394
408.280 0.0382583
409.313 0.0400845
410.346 0.0421486
411.380 0.0444869
412.413 0.0471450
412.930 0.0486105
413.446 0.0501771
414.308 0.0530394
415.169 0.0562571
416.030 0.0598895
416.460 0.0618836
416.891 0.0640089
417.321 0.0662790
417.752 0.0687057
418.183 0.0713040
418.613 0.0740902
419.044 0.0770820
419.474 0.0802907
419.905 0.0837404
420.335 0.0874792
420.809 0.0919590
421.283 0.0968605
421.756 0.102239
422.230 0.108161
422.704 0.114705
423.177 0.121958
423.651 0.130034
424.124 0.139065
424.555 0.148239
424.986 0.158482
425.201 0.164058
425.416 0.169972
425.631 0.176251
425.847 0.182923
426.062 0.190031
426.277 0.197610
426.493 0.205703
426.708 0.214352
426.923 0.223615
427.138 0.233548
427.354 0.244227
427.569 0.255737
427.806 0.269490
428.043 0.284504
428.279 0.300942
428.516 0.318994
428.753 0.338883
428.990 0.360876
429.227 0.385290
429.463 0.412504
429.689 0.441524
429.802 0.457288
429.915 0.473983
430.029 0.491701
430.142 0.510497
430.255 0.530479
430.368 0.551752
430.481 0.574451
430.594 0.598665
430.707 0.624557
430.820 0.652287
430.933 0.682040
431.046 0.714024
431.159 0.748476
431.272 0.785669
431.385 0.825951
431.498 0.869605
431.611 0.917114
431.724 0.968861
431.780 0.996554
431.837 1.02548
431.893 1.05576
431.950 1.08750
432.006 1.12077
432.063 1.15570
432.119 1.19239
432.176 1.23097
432.224 1.26570
432.273 1.30193
432.321 1.33984
432.370 1.37953
432.418 1.42121
432.467 1.46484
432.515 1.51064
432.563 1.55875
432.610 1.60795
432.658 1.65966
432.679 1.68426
432.682 1.68738
432.693 1.69982
432.730 1.74483
432.769 1.79354
432.808 1.84431
432.847 1.89741
432.886 1.95297
432.935 2.02575
432.959 2.06369
432.983 2.10277
433.008 2.14320
433.032 2.18472
433.056 2.22752
433.080 2.27167
433.104 2.31743
433.129 2.36446
433.153 2.41304
433.177 2.46322
433.201 2.51508
433.225 2.56871
433.250 2.62418
433.274 2.68158
433.303 2.75457
433.333 2.83078
433.363 2.91041
433.392 2.99370
433.422 3.08086
433.451 3.17218
433.481 3.26791
433.511 3.36839
433.540 3.47394
433.570 3.58494
433.599 3.70179
433.629 3.82496
433.659 3.95494
433.688 4.09230
433.718 4.23766
433.747 4.39173
433.777 4.55528
433.807 4.72923
433.836 4.91459
433.851 5.01190
433.866 5.11251
433.881 5.21660
433.895 5.32434
433.910 5.43593
433.925 5.55159
433.940 5.67155
433.955 5.79606
433.969 5.92537
433.984 6.05979
433.999 6.20057
434.014 6.34618
434.029 6.49790
434.044 6.65612
434.058 6.82127
434.073 6.99382
434.088 7.17424
434.103 7.36310
434.118 7.56098
434.132 7.76850
434.147 7.98637
434.162 8.21531
434.177 8.45615
434.192 8.70976
434.206 8.97707
434.221 9.25913
434.236 9.55703
434.251 9.87197
434.266 10.2052
434.280 10.5582
434.295 10.9325
434.310 11.3295
434.325 11.7512
434.340 12.1993
434.354 12.6758
434.369 13.1830
434.384 13.7230
434.399 14.2984
434.414 14.9117
434.428 15.5657
434.443 16.2635
434.458 17.0028
434.473 17.7971
434.487 18.6451
434.502 19.5503
434.517 20.5166
434.532 21.5482
434.547 22.6493
434.561 23.8242
434.576 25.0777
434.591 26.4144
434.606 27.8394
434.621 29.3577
434.635 30.9745
434.650 32.6953
434.665 34.5253
434.680 36.4702
434.695 38.5356
434.709 40.6357
434.723 42.8406
434.737 45.1866
434.751 47.6454
434.765 50.2566
434.780 52.9880
434.794 55.8618
434.808 58.8822
434.822 62.0762
434.836 65.4025
434.850 68.8863
434.864 72.5307
434.878 76.3657
434.893 80.3394
434.907 84.4798
434.921 88.7880
434.936 93.4910
434.950 98.3791
434.965 103.451
434.980 108.705
435.010 119.747
435.039 131.428
435.069 143.776
435.098 156.682
435.128 170.059
435.157 183.800
435.276 239.700
435.322 260.223
435.367 279.091
435.397 290.144
435.427 300.076
435.456 308.730
435.486 315.966
435.508 320.317
435.529 323.793
435.551 326.362
435.573 327.995
435.600 328.717
435.607 328.664
435.629 327.848
435.651 326.063
435.673 323.324
435.695 319.658
435.719 314.851
435.742 309.136
435.765 302.524
435.788 295.136
435.812 286.653
435.836 277.463
435.860 267.660
435.884 257.341
435.933 235.496
435.981 212.792
436.047 181.651
436.080 166.469
436.112 151.817
436.137 141.398
436.161 131.403
436.185 121.824
436.209 112.690
436.233 104.023
436.257 95.8364
436.281 88.1385
436.305 80.9306
436.330 74.1821
436.354 67.9405
436.378 62.1642
436.402 56.8375
436.426 51.9222
436.438 49.6210
436.450 47.4382
436.462 45.3346
436.474 43.3419
436.486 41.4242
436.498 39.6101
436.519 36.6502
436.540 33.9431
436.561 31.4587
436.582 29.1818
436.603 27.0879
436.623 25.1829
436.644 23.4423
436.665 21.8532
436.686 20.3963
436.707 19.0738
436.727 17.8674
436.748 16.7668
436.769 15.7625
436.790 14.8455
436.811 14.0076
436.831 13.2415
436.856 12.4312
436.880 11.7019
436.904 11.0412
436.928 10.4416
436.952 9.89389
436.976 9.39661
437.000 8.94199
437.024 8.52530
437.049 8.14084
437.073 7.78812
437.097 7.46224
437.121 7.16040
437.145 6.88010
437.169 6.61918
437.193 6.37571
437.217 6.14802
437.250 5.86002
437.283 5.59544
437.316 5.35154
437.349 5.12600
437.382 4.91683
437.415 4.72233
437.448 4.54104
437.480 4.37218
437.513 4.21363
437.546 4.06495
437.579 3.92530
437.612 3.79430
437.678 3.55368
437.743 3.33932
437.792 3.19607
437.840 3.06386
437.888 2.94133
437.936 2.82757
437.985 2.72156
438.033 2.62303
438.081 2.53113
438.129 2.44529
438.178 2.36488
438.226 2.28976
438.322 2.15338
438.419 2.03312
438.515 1.92703
438.576 1.86592
438.638 1.80935
438.699 1.75696
438.761 1.70844
438.883 1.62186
439.006 1.54774
439.129 1.48438
439.252 1.43061
439.374 1.38533
439.497 1.34779
439.585 1.32532
439.673 1.30625
439.760 1.29044
439.848 1.27776
439.936 1.26809
440.023 1.26136
440.111 1.25752
440.199 1.25653
440.282 1.25824
440.365 1.26253
440.449 1.26942
440.532 1.27897
440.615 1.29124
440.698 1.30632
440.782 1.32432
440.865 1.34536
440.948 1.36960
441.032 1.39723
441.115 1.42846
441.198 1.46356
441.282 1.50281
441.365 1.54656
441.448 1.59522
441.531 1.64922
441.628 1.71919
441.724 1.79792
441.821 1.88675
441.917 1.98683
442.014 2.10003
442.110 2.22811
442.158 2.29865
442.207 2.37375
442.255 2.45394
442.303 2.53966
442.356 2.64029
442.408 2.74862
442.435 2.80599
442.461 2.86565
442.487 2.92772
442.514 2.99233
442.540 3.05961
442.566 3.12971
442.592 3.20280
442.619 3.27904
442.645 3.35863
442.671 3.44175
442.698 3.52864
442.724 3.61953
442.751 3.71911
442.779 3.82328
442.806 3.93272
442.834 4.04784
442.861 4.16903
442.888 4.29678
442.916 4.43160
442.930 4.50184
442.943 4.57406
442.961 4.66990
442.977 4.76302
442.994 4.85888
443.010 4.95883
443.027 5.06184
443.043 5.16938
443.060 5.28036
443.076 5.39566
443.092 5.51553
443.104 5.60707
443.116 5.70057
443.129 5.79773
443.141 5.89706
443.153 6.00037
443.165 6.10609
443.177 6.21616
443.189 6.32891
443.201 6.44641
443.213 6.56690
443.225 6.69261
443.237 6.82167
443.249 6.95646
443.261 7.09500
443.273 7.23988
443.285 7.38896
443.297 7.54505
443.309 7.70724
443.321 7.87588
443.333 8.04986
443.346 8.23248
443.358 8.42112
443.370 8.61938
443.382 8.82444
443.394 9.04023
443.406 9.26561
443.418 9.50117
443.430 9.74542
443.442 10.0031
443.454 10.2706
443.466 10.5532
443.478 10.8469
443.490 11.1574
443.502 11.4832
443.514 11.8254
443.526 12.1817
443.539 12.5592
443.551 12.9528
443.563 13.3700
443.575 13.8054
443.587 14.2673
443.599 14.7494
443.611 15.2614
443.623 15.7960
443.635 16.3639
443.647 16.9573
443.659 17.5877
443.671 18.2465
443.683 18.9465
443.695 19.6844
443.707 20.4621
443.719 21.2749
443.731 22.1385
443.743 23.0407
443.756 23.9990
443.768 24.9999
443.780 26.0625
443.792 27.1718
443.804 28.3487
443.816 29.5766
443.828 30.8785
443.840 32.2356
443.852 33.6733
443.864 35.1707
443.876 36.7555
443.888 38.4184
443.900 40.1622
443.912 41.9745
443.924 43.8882
443.936 45.8744
443.948 47.9691
443.960 50.1402
443.973 52.4265
443.985 54.7929
443.997 57.2811
444.009 59.8524
444.021 62.5517
444.033 65.3364
444.045 68.2549
444.057 71.2605
444.078 76.7639
444.099 82.5846
444.119 88.7821
444.140 95.2979
444.161 102.193
444.182 109.395
444.203 116.929
444.224 124.781
444.248 134.257
444.272 144.107
444.296 154.292
444.320 164.767
444.368 186.359
444.416 208.367
444.465 230.222
444.513 251.144
444.561 270.451
444.585 279.271
444.609 287.419
444.636 295.445
444.662 302.472
444.696 309.952
444.730 315.443
444.765 318.884
444.800 320.023
444.807 319.971
444.830 319.156
444.853 317.370
444.875 314.615
444.898 310.943
444.935 302.994
444.973 292.847
445.010 280.863
445.047 267.297
445.087 250.967
445.127 233.553
445.164 216.942
445.201 200.062
445.275 166.653
445.312 150.623
445.349 135.312
445.386 120.871
445.405 114.013
445.423 107.446
445.450 98.3158
445.477 89.7585
445.504 81.7801
445.531 74.3791
445.558 67.5464
445.571 64.3271
445.585 61.2672
445.598 58.3183
445.611 55.5213
445.625 52.8313
445.638 50.2848
445.657 46.9650
445.675 43.8638
445.694 40.9715
445.712 38.2779
445.731 35.7729
445.749 33.4463
445.768 31.2878
445.786 29.2876
445.805 27.4357
445.823 25.7227
445.842 24.1391
445.860 22.6761
445.879 21.3252
445.897 20.0781
445.916 18.9272
445.934 17.8706
445.953 16.8899
445.971 15.9847
445.990 15.1488
446.008 14.3766
446.027 13.6628
446.045 13.0025
446.064 12.3913
446.082 11.8249
446.101 11.2996
446.119 10.8117
446.138 10.3581
446.156 9.93581
446.175 9.54215
446.193 9.17465
446.212 8.83107
446.230 8.51107
446.248 8.22197
446.265 7.95124
446.301 7.45334
446.336 7.00808
446.371 6.60775
446.407 6.24599
446.442 5.91750
446.477 5.61787
446.513 5.34343
446.548 5.09112
446.583 4.85833
446.618 4.64288
446.654 4.44290
446.689 4.25679
446.724 4.08318
446.760 3.92087
446.795 3.76881
446.832 3.61945
446.869 3.47944
446.906 3.34796
446.943 3.22428
446.980 3.10778
447.017 2.99787
447.091 2.79611
447.165 2.61493
447.239 2.45173
447.313 2.30414
447.387 2.17034
447.441 2.08051
447.494 1.99643
447.548 1.91761
447.602 1.84361
447.656 1.77402
447.710 1.70851
447.763 1.64674
447.817 1.58842
447.925 1.48116
448.032 1.38490
448.140 1.29816
448.248 1.21969
448.322 1.16998
448.396 1.12340
448.470 1.07969
448.543 1.03866
448.617 0.999989
448.691 0.963553
448.765 0.929176
448.839 0.896746
448.987 0.836961
449.135 0.783299
449.283 0.734905
449.431 0.691099
449.525 0.665325
449.619 0.641076
449.714 0.618183
449.808 0.596593
449.996 0.556854
450.184 0.521197
450.373 0.489065
450.561 0.459988
450.749 0.433575
450.937 0.409513
451.085 0.392054
451.233 0.375768
451.381 0.360532
451.529 0.346276
451.677 0.332897
451.825 0.320340
451.973 0.308523
452.121 0.297401
452.269 0.286906
452.417 0.277004
452.713 0.258778
453.009 0.242419
453.304 0.227680
453.479 0.219638
453.654 0.212051
454.004 0.198097
454.354 0.185582
454.703 0.174317
455.053 0.164141
455.403 0.154917
455.752 0.146508
456.102 0.138815
456.398 0.132807
456.694 0.127218
456.990 0.122008
457.285 0.117144
457.581 0.112594
457.877 0.108333
458.173 0.104335
458.469 0.100579
458.765 0.0970448
459.061 0.0937150
459.652 0.0876088
460.244 0.0821492
460.836 0.0772484
461.186 0.0745833
461.535 0.0720735
462.235 0.0674728
462.934 0.0633634
463.633 0.0596778
464.333 0.0563614
465.032 0.0533806
465.732 0.0506613
466.431 0.0481846
467.023 0.0462605
467.614 0.0444766
468.206 0.0428199
468.798 0.0412802
469.390 0.0398457
469.981 0.0385073
470.573 0.0372574
471.165 0.0360887
472.349 0.0339676
473.532 0.0321003
474.716 0.0304502
475.899 0.0289869
476.760 0.0280261
477.621 0.0271433
478.481 0.0263312
479.342 0.0255837
480.203 0.0248952
481.064 0.0242649
482.785 0.0231458
484.507 0.0221936
486.228 0.0213898
487.950 0.0207161
489.671 0.0201580
490.962 0.0198102
492.253 0.0195163
493.544 0.0192703
494.836 0.0190731
496.127 0.0189255
497.418 0.0188225
498.709 0.0187603
500.000 0.0187412
502.334 0.0188196
504.668 0.0190374
507.002 0.0193992
509.336 0.0199245
510.504 0.0202489
511.671 0.0206256
512.838 0.0210463
514.005 0.0215211
515.172 0.0220608
516.339 0.0226557
517.506 0.0233210
518.673 0.0240574
519.895 0.0249282
521.118 0.0259036
522.341 0.0269974
523.563 0.0282255
524.786 0.0296070
526.008 0.0311653
527.231 0.0329282
528.454 0.0349297
529.509 0.0368828
530.565 0.0390783
531.621 0.0415559
532.677 0.0443644
533.205 0.0459117
533.733 0.0475643
534.261 0.0493346
534.789 0.0512301
535.317 0.0532601
535.845 0.0554325
536.373 0.0577835
536.901 0.0603255
537.512 0.0635297
538.123 0.0670469
538.735 0.0709197
539.346 0.0751977
539.957 0.0799396
540.569 0.0852151
541.180 0.0911075
541.486 0.0943162
541.791 0.0977172
542.319 0.104097
542.847 0.111195
543.375 0.119127
543.639 0.123448
543.903 0.128027
544.167 0.132892
544.431 0.138063
544.695 0.143565
544.959 0.149422
545.223 0.155667
545.487 0.162338
545.751 0.169485
546.015 0.177154
546.321 0.186759
546.626 0.197217
546.932 0.208639
547.237 0.221139
547.543 0.234865
547.849 0.249975
548.154 0.266673
548.460 0.285178
548.766 0.305775
548.919 0.316953
549.071 0.328780
549.224 0.341316
549.377 0.354601
549.530 0.368705
549.683 0.383699
549.836 0.399669
549.988 0.416680
550.141 0.434836
550.294 0.454240
550.447 0.475024
550.600 0.497289
550.752 0.521194
550.905 0.546906
551.065 0.575937
551.225 0.607404
551.385 0.641597
551.465 0.659817
551.544 0.678845
551.624 0.698731
551.704 0.719526
551.784 0.741286
551.864 0.764072
551.944 0.787950
552.024 0.812991
552.104 0.839272
552.184 0.866842
552.281 0.902380
552.329 0.920973
552.378 0.940161
552.427 0.960009
552.475 0.980464
552.524 1.00160
552.573 1.02343
552.616 1.04360
552.659 1.06434
552.677 1.07278
552.718 1.09356
552.758 1.11407
552.798 1.13513
552.838 1.15686
552.878 1.17917
552.937 1.21346
552.996 1.24923
553.055 1.28664
553.114 1.32579
553.173 1.36686
553.232 1.40984
553.291 1.45493
553.350 1.50226
553.406 1.54905
553.462 1.59811
553.489 1.62354
553.517 1.64960
553.545 1.67630
553.573 1.70357
553.601 1.73163
553.628 1.76040
553.656 1.78991
553.684 1.82019
553.712 1.85126
553.740 1.88315
553.767 1.91590
553.795 1.94940
553.833 1.99723
553.872 2.04675
553.910 2.09819
553.948 2.15164
553.986 2.20722
554.024 2.26503
554.063 2.32521
554.101 2.38789
554.139 2.45339
554.177 2.52151
554.215 2.59260
554.254 2.66684
554.292 2.74441
554.330 2.82552
554.368 2.91041
554.406 2.99931
554.445 3.09250
554.483 3.19026
554.521 3.29291
554.559 3.40078
554.597 3.51427
554.636 3.63378
554.674 3.75977
554.712 3.89273
554.750 4.03322
554.788 4.18185
554.827 4.33930
554.865 4.50632
554.903 4.68376
554.941 4.87257
554.979 5.07380
555.018 5.28868
555.056 5.51919
555.094 5.76568
555.132 6.03052
555.171 6.31575
555.209 6.62373
555.247 6.95717
555.266 7.13440
555.285 7.31922
555.304 7.51210
555.323 7.71355
555.342 7.92413
555.362 8.14443
555.381 8.37509
555.400 8.61682
555.419 8.87037
555.438 9.13654
555.457 9.41623
555.476 9.71037
555.495 10.0200
555.514 10.3462
555.533 10.6902
555.553 11.0533
555.572 11.4368
555.591 11.8422
555.610 12.2712
555.629 12.7255
555.648 13.2094
555.667 13.7200
555.686 14.2617
555.705 14.8369
555.725 15.4480
555.744 16.0974
555.763 16.7879
555.782 17.5224
555.801 18.3039
555.820 19.1355
555.839 20.0207
555.858 20.9629
555.877 21.9659
555.896 23.0334
555.916 24.1694
555.935 25.3781
555.954 26.6636
555.973 28.0303
555.992 29.4827
556.011 31.0252
556.030 32.6625
556.049 34.3990
556.068 36.2394
556.087 38.1883
556.107 40.2499
556.126 42.4288
556.145 44.7291
556.164 47.1547
556.183 49.7094
556.202 52.3966
556.221 55.2192
556.240 58.1801
556.261 61.5808
556.282 65.1340
556.303 68.8753
556.324 72.7689
556.345 76.8517
556.365 81.0826
556.386 85.4993
556.407 90.0552
556.445 98.8188
556.483 108.054
556.522 117.697
556.560 127.667
556.636 148.177
556.713 168.619
556.751 178.458
556.789 187.838
556.827 196.602
556.865 204.596
556.903 211.572
556.941 217.518
556.978 222.354
557.016 225.963
557.058 228.487
557.100 229.323
557.112 229.248
557.151 228.041
557.191 225.387
557.230 221.344
557.269 215.998
557.294 211.906
557.319 207.371
557.370 197.057
557.406 188.784
557.442 179.966
557.479 170.714
557.515 161.161
557.609 135.900
557.656 123.462
557.702 111.432
557.749 99.9500
557.796 89.1921
557.820 84.0933
557.843 79.2207
557.867 74.5379
557.890 70.0884
557.926 63.6105
557.945 60.5731
557.963 57.6625
557.981 54.8625
557.999 52.2017
558.017 49.6623
558.035 47.2416
558.053 44.9243
558.071 42.7327
558.090 40.6504
558.108 38.6739
558.126 36.7995
558.144 35.0236
558.162 33.3422
558.180 31.7514
558.204 29.8150
558.227 28.0238
558.250 26.3542
558.274 24.8121
558.297 23.3765
558.321 22.0519
558.344 20.8195
558.368 19.6829
558.391 18.6256
558.415 17.6502
558.438 16.7425
558.461 15.9045
558.485 15.1239
558.508 14.4024
558.532 13.7293
558.555 13.1061
558.579 12.5236
558.602 11.9832
558.626 11.4770
558.649 11.0063
558.673 10.5644
558.696 10.1524
558.719 9.76446
558.743 9.40190
558.766 9.05966
558.790 8.73890
558.813 8.43530
558.837 8.15000
558.884 7.62418
558.930 7.15229
558.977 6.72590
559.024 6.34053
559.071 5.99001
559.118 5.66994
559.165 5.37664
559.212 5.10700
559.259 4.85837
559.306 4.62848
559.353 4.41538
559.400 4.21738
559.446 4.03302
559.493 3.86100
559.540 3.70020
559.587 3.54963
559.634 3.40840
559.681 3.27572
559.728 3.15064
559.775 3.03306
559.822 2.92215
559.869 2.81738
559.962 2.62453
560.056 2.45131
560.150 2.29511
560.244 2.15372
560.338 2.02530
560.431 1.90828
560.500 1.82948
560.568 1.75568
560.636 1.68635
560.704 1.62113
560.773 1.55962
560.841 1.50170
560.909 1.44701
560.977 1.39531
561.114 1.29997
561.250 1.21431
561.387 1.13692
561.523 1.06688
561.617 1.02242
561.711 0.980772
561.805 0.941669
561.898 0.904903
561.992 0.870292
562.086 0.837670
562.180 0.806887
562.274 0.777807
562.461 0.724272
562.649 0.676199
562.836 0.632868
563.024 0.593672
563.229 0.555025
563.433 0.520134
563.638 0.488530
563.843 0.459829
564.047 0.433666
564.252 0.409764
564.457 0.387866
564.661 0.367755
564.849 0.350700
565.037 0.334858
565.224 0.320110
565.412 0.306360
565.600 0.293516
565.787 0.281514
565.975 0.270276
566.162 0.259739
566.350 0.249842
566.538 0.240544
566.725 0.231793
566.913 0.223547
567.100 0.215769
567.288 0.208423
567.663 0.194910
568.039 0.182785
568.414 0.171873
568.789 0.162014
569.164 0.153084
569.540 0.144968
569.915 0.137575
570.290 0.130826
570.665 0.124655
571.023 0.119248
571.382 0.114255
571.740 0.109630
572.098 0.105343
572.456 0.101366
572.814 0.0976726
573.172 0.0942388
573.531 0.0910431
573.889 0.0880639
574.247 0.0852846
574.605 0.0826891
574.963 0.0802640
575.680 0.0758709
576.396 0.0720178
577.146 0.0684798
577.897 0.0653847
578.647 0.0626755
579.398 0.0603053
580.148 0.0582341
580.899 0.0564294
581.649 0.0548641
582.400 0.0535251
583.218 0.0522872
584.037 0.0512491
584.856 0.0504041
585.675 0.0497406
586.493 0.0492482
587.312 0.0489158
588.131 0.0487352
588.949 0.0487028
589.700 0.0488016
590.450 0.0490197
591.201 0.0493561
591.951 0.0498145
592.702 0.0503952
593.452 0.0510990
594.203 0.0519332
594.953 0.0529025
595.704 0.0540105
596.454 0.0552676
597.205 0.0566847
597.955 0.0582685
598.706 0.0600340
599.456 0.0619995
600.206 0.0641775
600.957 0.0665727
601.707 0.0692282
602.458 0.0721840
603.208 0.0754594
603.959 0.0790911
604.709 0.0831243
605.460 0.0876110
606.210 0.0926128
606.961 0.0982027
607.711 0.104470
608.462 0.111520
608.837 0.115378
609.212 0.119480
609.587 0.123849
609.963 0.128506
610.338 0.133479
610.713 0.138793
611.088 0.144479
611.463 0.150574
611.839 0.157119
612.214 0.164150
612.589 0.171713
612.964 0.179856
613.340 0.188661
613.715 0.198210
614.090 0.208588
614.465 0.219877
614.841 0.232192
615.216 0.245652
615.591 0.260407
615.966 0.276629
616.273 0.291137
616.580 0.306885
616.887 0.324022
617.194 0.342714
617.501 0.363148
617.808 0.385548
617.962 0.397568
618.115 0.410186
618.269 0.423444
618.422 0.437386
618.584 0.452905
618.746 0.469290
618.909 0.486627
618.990 0.495665
619.071 0.504966
619.152 0.514552
619.233 0.524410
619.314 0.534564
619.395 0.545025
619.476 0.555806
619.557 0.566920
619.638 0.578382
619.719 0.590207
619.808 0.603729
619.898 0.617720
619.987 0.632235
620.032 0.639691
620.077 0.647267
620.137 0.657622
620.192 0.667444
620.247 0.677495
620.337 0.694252
620.427 0.711637
620.516 0.729701
620.606 0.748482
620.699 0.768997
620.793 0.790366
620.887 0.812661
620.934 0.824172
620.981 0.835937
621.028 0.847960
621.075 0.860252
621.122 0.872818
621.168 0.885669
621.215 0.898812
621.262 0.912257
621.309 0.926013
621.356 0.940089
621.403 0.954528
621.450 0.969277
621.497 0.984378
621.544 0.999843
621.591 1.01568
621.638 1.03191
621.684 1.04854
621.731 1.06558
621.778 1.08305
621.825 1.10097
621.872 1.11934
621.919 1.13818
621.966 1.15751
622.013 1.17735
622.060 1.19772
622.107 1.21863
622.154 1.24015
622.200 1.26221
622.247 1.28487
622.294 1.30816
622.341 1.33211
622.388 1.35673
622.435 1.38206
622.482 1.40811
622.529 1.43492
622.576 1.46252
622.623 1.49094
622.669 1.52021
622.716 1.55037
622.763 1.58146
622.810 1.61351
622.857 1.64655
622.904 1.68065
622.951 1.71584
622.998 1.75216
623.045 1.78967
623.092 1.82842
623.138 1.86847
623.185 1.90988
623.232 1.95270
623.279 1.99701
623.326 2.04287
623.373 2.09036
623.420 2.13956
623.467 2.19055
623.514 2.24342
623.561 2.29827
623.607 2.35519
623.654 2.41443
623.701 2.47584
623.748 2.53967
623.795 2.60605
623.842 2.67513
623.889 2.74704
623.936 2.82196
623.983 2.90004
624.030 2.98149
624.077 3.06648
624.123 3.15525
624.170 3.24801
624.217 3.34502
624.264 3.44654
624.311 3.55287
624.358 3.66430
624.405 3.78145
624.452 3.90418
624.499 4.03314
624.546 4.16876
624.593 4.31153
624.639 4.46196
624.686 4.62063
624.733 4.78818
624.780 4.96528
624.827 5.15271
624.874 5.35130
624.921 5.56200
624.968 5.78585
625.015 6.02398
625.062 6.27771
625.108 6.54846
625.155 6.83786
625.202 7.14773
625.249 7.48012
625.296 7.83735
625.343 8.22208
625.390 8.63730
625.437 9.08643
625.484 9.57340
625.531 10.1039
625.578 10.6807
625.624 11.3110
625.648 11.6489
625.671 12.0014
625.695 12.3724
625.718 12.7598
625.742 13.1681
625.765 13.5951
625.789 14.0457
625.812 14.5175
625.836 15.0160
625.859 15.5387
625.882 16.0916
625.906 16.6718
625.929 17.2864
625.953 17.9320
625.976 18.6163
626.000 19.3358
626.023 20.0990
626.047 20.9020
626.070 21.7542
626.093 22.6511
626.117 23.6033
626.140 24.6056
626.164 25.6697
626.187 26.7896
626.211 27.9781
626.234 29.2284
626.258 30.5545
626.281 31.9485
626.305 33.4257
626.328 34.9768
626.351 36.6183
626.375 38.3395
626.398 40.1580
626.422 42.0614
626.445 44.0686
626.469 46.1649
626.492 48.3704
626.516 50.6682
626.539 53.0791
626.562 55.5838
626.586 58.2040
626.609 60.9174
626.635 64.0042
626.661 67.2129
626.686 70.5407
626.712 73.9836
626.763 81.1935
626.814 88.7726
626.861 96.0021
626.908 103.419
627.002 118.452
627.051 126.216
627.100 133.705
627.149 140.804
627.198 147.339
627.231 151.282
627.263 154.874
627.295 158.101
627.328 160.911
627.360 163.291
627.392 165.200
627.425 166.626
627.457 167.554
627.500 168.000
627.522 167.878
627.557 167.189
627.592 165.906
627.627 164.038
627.662 161.620
627.698 158.668
627.733 155.236
627.768 151.358
627.803 147.081
627.841 142.071
627.879 136.733
627.954 125.297
628.030 113.287
628.105 101.186
628.185 88.8645
628.224 82.9593
628.264 77.2746
628.303 71.8390
628.343 66.6740
628.383 61.7945
628.422 57.2094
628.462 52.9219
628.501 48.9308
628.541 45.2307
628.581 41.8127
628.620 38.6656
628.660 35.7761
628.699 33.1293
628.739 30.7097
628.762 29.3747
628.786 28.1159
628.809 26.9242
628.833 25.7963
628.856 24.7290
628.879 23.7192
628.903 22.7639
628.926 21.8600
628.950 21.0047
628.973 20.1953
628.996 19.4292
629.020 18.7038
629.043 18.0168
629.067 17.3659
629.113 16.1638
629.153 15.2386
629.193 14.3931
629.232 13.6171
629.272 12.9035
629.312 12.2460
629.351 11.6392
629.391 11.0781
629.430 10.5581
629.470 10.0754
629.510 9.62652
629.549 9.20823
629.589 8.81781
629.628 8.45276
629.668 8.11088
629.708 7.79020
629.747 7.48894
629.787 7.20552
629.826 6.93851
629.866 6.68664
629.906 6.44873
629.985 6.01076
630.064 5.61734
630.143 5.26248
630.222 4.94118
630.302 4.64924
630.381 4.38311
630.446 4.18245
630.510 3.99561
630.575 3.82133
630.640 3.65848
630.705 3.50607
630.770 3.36321
630.834 3.22910
630.899 3.10303
630.964 2.98436
631.029 2.87252
631.094 2.76697
631.158 2.66726
631.288 2.48366
631.418 2.31876
631.497 2.22599
631.576 2.13891
631.655 2.05696
631.734 1.97973
631.814 1.90686
631.893 1.83805
632.051 1.71139
632.210 1.59764
632.368 1.49520
632.527 1.40258
632.685 1.31855
632.786 1.26902
632.887 1.22238
632.987 1.17835
633.088 1.13675
633.290 1.06015
633.491 0.991357
633.693 0.929344
633.895 0.873235
634.096 0.822295
634.298 0.775909
634.456 0.742296
634.615 0.710977
634.773 0.681734
634.932 0.654394
635.090 0.628798
635.248 0.604806
635.407 0.582288
635.565 0.561131
635.724 0.541217
635.882 0.522477
636.199 0.488149
636.516 0.457539
636.832 0.430155
637.149 0.405576
637.466 0.383473
637.783 0.363544
638.100 0.345540
638.417 0.329248
638.733 0.314500
639.050 0.301143
639.367 0.289043
639.684 0.278064
640.001 0.268099
640.318 0.259059
640.634 0.250879
640.951 0.243498
641.268 0.236867
641.585 0.230936
641.902 0.225663
642.219 0.221013
642.535 0.216962
642.852 0.213484
643.169 0.210562
643.486 0.208184
643.803 0.206342
644.119 0.205033
644.436 0.204259
644.926 0.204132
645.416 0.205351
645.905 0.208000
646.395 0.212198
646.640 0.214925
646.885 0.218099
647.129 0.221750
647.374 0.225918
647.619 0.230655
647.864 0.236004
648.109 0.242022
648.353 0.248765
648.670 0.258685
648.987 0.270112
649.304 0.283268
649.621 0.298420
649.779 0.306843
649.938 0.315893
650.096 0.325622
650.254 0.336089
650.413 0.347358
650.571 0.359504
650.730 0.372607
650.888 0.386759
651.090 0.406459
651.291 0.428259
651.493 0.452462
651.694 0.479418
651.896 0.509562
652.098 0.543364
652.199 0.561824
652.299 0.581435
652.400 0.602292
652.501 0.624498
652.659 0.662428
652.818 0.704476
652.976 0.751281
653.135 0.803578
653.214 0.832057
653.293 0.862255
653.372 0.894314
653.451 0.928388
653.531 0.964650
653.610 1.00329
653.689 1.04453
653.768 1.08860
653.883 1.15830
653.999 1.23553
654.114 1.32141
654.229 1.41731
654.287 1.46953
654.344 1.52490
654.402 1.58369
654.459 1.64620
654.517 1.71276
654.575 1.78373
654.632 1.85954
654.690 1.94064
654.742 2.01914
654.794 2.10287
654.820 2.14684
654.846 2.19230
654.873 2.23934
654.899 2.28801
654.925 2.33841
654.951 2.39062
654.977 2.44474
655.003 2.50086
655.029 2.55909
655.055 2.61955
655.081 2.68235
655.107 2.74764
655.143 2.84202
655.179 2.94181
655.201 3.00447
655.223 3.06934
655.244 3.13655
655.266 3.20622
655.287 3.27847
655.309 3.35347
655.331 3.43136
655.352 3.51231
655.372 3.58975
655.392 3.66968
655.412 3.75265
655.432 3.83883
655.451 3.92841
655.471 4.02160
655.491 4.11860
655.511 4.21966
655.531 4.32504
655.550 4.43501
655.570 4.54988
655.590 4.66996
655.610 4.79562
655.630 4.92724
655.649 5.06524
655.669 5.21006
655.681 5.29905
655.693 5.39069
655.704 5.48512
655.716 5.58244
655.728 5.68278
655.739 5.78627
655.751 5.89305
655.763 6.00327
655.774 6.11707
655.786 6.23461
655.798 6.35607
655.810 6.48161
655.821 6.61141
655.833 6.74568
655.845 6.88461
655.856 7.02841
655.876 7.28348
655.896 7.55427
655.916 7.84200
655.936 8.14798
655.955 8.47363
655.975 8.82046
655.995 9.19011
656.015 9.58432
656.035 10.0050
656.054 10.4540
656.074 10.9335
656.094 11.4458
656.114 11.9932
656.134 12.5783
656.153 13.2036
656.173 13.8720
656.193 14.5863
656.213 15.3496
656.233 16.1651
656.252 17.0361
656.272 17.9658
656.292 18.9579
656.312 20.0160
656.332 21.1436
656.351 22.3445
656.371 23.6225
656.391 24.9813
656.411 26.4247
656.431 27.9565
656.450 29.5803
656.470 31.2997
656.490 33.1182
656.510 35.0390
656.530 37.0653
656.549 39.1999
656.569 41.4454
656.589 43.8039
656.609 46.2774
656.629 48.8673
656.648 51.5746
656.668 54.3998
656.688 57.3426
656.708 60.4025
656.728 63.5782
656.747 66.8675
656.767 70.2678
656.807 77.3864
656.846 84.8968
656.886 92.7483
656.926 100.877
656.965 109.206
657.044 126.093
657.124 142.565
657.163 150.349
657.203 157.664
657.242 164.389
657.282 170.405
657.326 176.114
657.370 180.688
657.400 183.112
657.430 184.922
657.460 186.101
657.490 186.632
657.500 186.665
657.510 186.626
657.543 185.997
657.575 184.612
657.608 182.490
657.641 179.658
657.669 176.653
657.697 173.170
657.725 169.244
657.754 164.927
657.782 160.195
657.811 155.152
657.867 144.268
657.924 132.603
657.981 120.561
658.079 99.7765
658.128 89.7847
658.177 80.2568
658.206 74.9835
658.234 69.9376
658.263 65.1131
658.291 60.5196
658.320 56.1486
658.348 52.0345
658.376 48.1624
658.405 44.5308
658.436 40.8257
658.467 37.4082
658.498 34.2567
658.529 31.3603
658.560 28.7066
658.575 27.4665
658.591 26.2821
658.606 25.1516
658.622 24.0731
658.637 23.0448
658.653 22.0650
658.681 20.3838
658.710 18.8543
658.738 17.4549
658.767 16.1848
658.795 15.0250
658.824 13.9740
658.852 13.0185
658.880 12.1499
658.909 11.3575
658.937 10.6397
658.966 9.98642
658.994 9.39156
659.023 8.84750
659.051 8.35278
659.079 7.90064
659.108 7.48678
659.136 7.10602
659.165 6.75753
659.193 6.43679
659.222 6.14099
659.250 5.86669
659.278 5.61359
659.307 5.37869
659.335 5.16021
659.364 4.95590
659.392 4.76578
659.421 4.58787
659.449 4.42105
659.477 4.26380
659.506 4.11636
659.563 3.84612
659.609 3.64593
659.656 3.46294
659.702 3.29468
659.749 3.13947
659.795 2.99587
659.842 2.86266
659.888 2.73877
659.935 2.62330
659.981 2.51521
660.028 2.41428
660.074 2.31966
660.121 2.23080
660.167 2.14721
660.214 2.06847
660.260 1.99420
660.307 1.92405
660.364 1.84336
660.421 1.76786
660.478 1.69711
660.534 1.63081
660.591 1.56837
660.648 1.50970
660.705 1.45430
660.762 1.40211
660.875 1.30604
660.989 1.21987
661.103 1.14227
661.217 1.07212
661.284 1.03377
661.351 0.997520
661.485 0.930735
661.620 0.870693
661.754 0.816542
661.888 0.767453
662.023 0.722838
662.157 0.682157
662.292 0.644980
662.405 0.615901
662.519 0.588850
662.633 0.563616
662.746 0.540040
662.860 0.517978
662.974 0.497303
663.088 0.477899
663.201 0.459665
663.315 0.442506
663.429 0.426340
663.542 0.411091
663.656 0.396689
663.883 0.370185
664.111 0.346392
664.338 0.324949
664.566 0.305553
664.793 0.287947
665.020 0.271918
665.248 0.257280
665.475 0.243878
665.703 0.231577
665.930 0.220257
666.158 0.209805
666.385 0.200137
666.612 0.191169
666.840 0.182835
667.067 0.175077
667.295 0.167843
667.522 0.161088
667.749 0.154769
667.977 0.148849
668.204 0.143294
668.432 0.138074
668.659 0.133163
669.114 0.124168
669.569 0.116143
670.023 0.108947
670.478 0.102471
670.933 0.0966172
671.388 0.0913063
671.843 0.0864700
672.298 0.0820537
672.752 0.0780084
673.207 0.0742967
673.641 0.0710328
674.075 0.0680054
674.510 0.0651854
674.944 0.0625583
675.378 0.0601073
675.812 0.0578175
676.680 0.0536640
677.549 0.0500007
678.417 0.0467503
679.285 0.0438502
680.153 0.0412498
681.146 0.0385909
682.138 0.0362181
683.130 0.0340895
684.123 0.0321712
685.115 0.0304348
686.107 0.0288577
687.100 0.0274291
688.092 0.0261128
689.581 0.0243349
691.069 0.0227618
692.558 0.0213614
694.046 0.0201080
695.535 0.0189807
697.023 0.0179625
697.767 0.0174917
698.139 0.0173408
698.326 0.0175724
698.419 0.0180168
698.512 0.0189760
698.605 0.0208979
698.651 0.0224374
698.698 0.0245300
698.744 0.0273415
698.791 0.0310758
698.837 0.0359812
698.884 0.0423551
698.930 0.0505683
698.977 0.0609938
699.023 0.0741127
699.070 0.0904474
699.116 0.110573
699.163 0.135111
699.209 0.164716
699.256 0.200062
699.302 0.241921
699.349 0.290766
699.395 0.347281
699.442 0.411994
699.488 0.485322
699.535 0.567551
699.581 0.658803
699.628 0.759020
699.674 0.868182
699.721 0.985349
699.767 1.11006
699.814 1.24142
699.860 1.37836
699.907 1.51963
700.000 1.80957
700.000 3.60315
800.000 3.15367
1000.00 2.63162
1250.00 2.20312
1500.00 1.91296
1700.00 1.74354
2000.00 1.55205
2500.00 1.33194
3000.00 1.18570
3500.00 1.08301
4000.00 1.00724
5000.00 0.897550
6000.00 0.827314
7200.00 0.762419
8000.00 0.730870
10000.0 0.670667
12500.0 0.615052
15000.0 0.578157
17000.0 0.551110
20000.0 0.519619
25000.0 0.479168
30000.0 0.450349
35000.0 0.427051
40000.0 0.408868
50000.0 0.381392
50000.0 0.490655
60000.0 0.466406
80000.0 0.436959
88855.5 0.398047
88855.5 0.398047
100000 0.349077
120000 0.301479
150000 0.259900
200000 0.222818
250000 0.202686
291844 0.192361
291844 0.192361
300000 0.190348
350000 0.180848
400000 0.174304
414186 0.173071
414186 0.173071
450000 0.169959
500000 0.167383
600000 0.166468
600242 0.166477
600242 0.166477
700000 0.170033
800000 0.177309
900000 0.187762
1.00000E+06 0.201036
1.00345E+06 0.201584
1.00345E+06 0.201584
1.10000E+06 0.216919
1.15653E+06 0.224543
1.15653E+06 0.224543
1.20000E+06 0.230405
1.23366E+06 0.226491
1.23366E+06 0.226491
1.25485E+06 0.224027
1.25485E+06 0.224027
1.30000E+06 0.218777
1.30053E+06 0.218651
1.30053E+06 0.218650
1.32084E+06 0.213825
1.32084E+06 0.213825
1.34071E+06 0.209103
1.34071E+06 0.209102
1.34900E+06 0.207133
1.34900E+06 0.207133
1.36981E+06 0.202188
1.36981E+06 0.202188
1.38729E+06 0.198034
1.38729E+06 0.198034
1.39816E+06 0.195451
1.39816E+06 0.195450
1.40000E+06 0.195013
1.41261E+06 0.192735
1.41261E+06 0.192735
1.42103E+06 0.191215
1.42103E+06 0.191214
1.45408E+06 0.185244
1.45408E+06 0.185244
1.48955E+06 0.178837
1.48955E+06 0.178837
1.50000E+06 0.176949
1.51444E+06 0.175382
1.51444E+06 0.175382
1.51726E+06 0.175077
1.51726E+06 0.175077
1.54139E+06 0.172459
1.54139E+06 0.172459
1.54913E+06 0.171619
1.54913E+06 0.171619
1.56825E+06 0.169545
1.56825E+06 0.169545
1.58665E+06 0.167549
1.58666E+06 0.167549
1.60000E+06 0.166101
1.60063E+06 0.166010
1.60064E+06 0.166010
1.61853E+06 0.163451
1.61853E+06 0.163451
1.63789E+06 0.160683
1.63789E+06 0.160683
1.65285E+06 0.158542
1.65285E+06 0.158542
1.66259E+06 0.157150
1.66259E+06 0.157150
1.68193E+06 0.154384
1.68193E+06 0.154384
1.68557E+06 0.153864
1.68557E+06 0.153863
1.70000E+06 0.151800
1.70170E+06 0.151454
1.70170E+06 0.151454
1.70967E+06 0.149836
1.70967E+06 0.149836
1.71437E+06 0.148880
1.71437E+06 0.148880
1.72025E+06 0.147687
1.72025E+06 0.147686
1.73192E+06 0.145315
1.73192E+06 0.145315
1.73771E+06 0.144140
1.73771E+06 0.144140
1.74239E+06 0.143188
1.74239E+06 0.143188
1.74340E+06 0.142983
1.74340E+06 0.142983
1.80000E+06 0.131485
1.90000E+06 0.117163
2.00000E+06 0.105951
2.10000E+06 0.100487
2.20000E+06 0.0971321
2.30000E+06 0.0916226
2.40000E+06 0.0866452
2.50000E+06 0.0816471
2.60000E+06 0.0764083
2.70000E+06 0.0710257
2.80000E+06 0.0656867
2.90000E+06 0.0605253
3.00000E+06 0.0556174
3.10000E+06 0.0509786
3.20000E+06 0.0466041
3.30000E+06 0.0424789
3.40000E+06 0.0385877
3.50000E+06 0.0349168
3.60000E+06 0.0314591
3.80000E+06 0.0251851
4.00000E+06 0.0198266
4.50000E+06 0.0106906
5.00000E+06 0.00602338
5.50000E+06 0.00348700
6.00000E+06 0.00207606
6.50000E+06 0.00130299
6.73833E+06 0.00110045
6.73834E+06 0.00110045
7.00000E+06 0.000878091
7.50000E+06 0.000658714
8.00000E+06 0.000555200
8.21285E+06 0.000537246
8.21285E+06 0.000537246
8.50000E+06 0.000513025
9.00000E+06 0.000499123
9.50000E+06 0.000492111
1.00000E+07 0.000482150
1.05000E+07 0.000470527
1.10000E+07 0.000464308
1.15000E+07 0.000470989
1.20000E+07 0.000494554
1.25000E+07 0.000532196
1.30000E+07 0.000576331
1.35000E+07 0.000621645
1.40000E+07 0.000665097
1.45000E+07 0.000697432
1.49599E+07 0.000703938
1.49599E+07 0.000703938
1.50000E+07 0.000704505
1.55000E+07 0.000681041
1.60000E+07 0.000635640
1.65000E+07 0.000581363
1.70000E+07 0.000527401
1.75000E+07 0.000477901
1.80000E+07 0.000433921
1.85000E+07 0.000395206
1.90000E+07 0.000361132
1.95000E+07 0.000331090
2.00000E+07 0.000304582
