Hg-196(n,tot) ENDFB-8.0
Energy(eV) XS(b)
1.00000E-05 159427
1.03125E-05 156993
1.06250E-05 154668
1.09375E-05 152442
1.12500E-05 150310
1.15625E-05 148266
1.18750E-05 146302
1.21875E-05 144414
1.25000E-05 142598
1.28125E-05 140849
1.31250E-05 139162
1.34375E-05 137535
1.37500E-05 135963
1.43750E-05 132975
1.50000E-05 130176
1.56250E-05 127546
1.62500E-05 125070
1.68750E-05 122732
1.75000E-05 120521
1.81250E-05 118425
1.87500E-05 116435
1.93750E-05 114542
2.00000E-05 112739
2.09375E-05 110186
2.18750E-05 107800
2.28125E-05 105562
2.37500E-05 103458
2.46875E-05 101476
2.56250E-05 99602.5
2.65625E-05 97829.6
2.75000E-05 96148.1
2.84375E-05 94550.5
2.93750E-05 93030.0
3.03125E-05 91580.6
3.12500E-05 90196.9
3.21875E-05 88874.1
3.31250E-05 87607.9
3.40625E-05 86394.4
3.50000E-05 85229.9
3.59375E-05 84111.3
3.68750E-05 83035.7
3.78125E-05 82000.3
3.87500E-05 81002.7
3.96875E-05 80040.7
4.06250E-05 79112.2
4.25000E-05 77348.2
4.43750E-05 75697.3
4.62500E-05 74147.8
4.81250E-05 72689.8
5.00000E-05 71314.6
5.15625E-05 70226.3
5.31250E-05 69186.5
5.46875E-05 68191.6
5.62500E-05 67238.4
5.78125E-05 66324.1
5.93750E-05 65446.2
6.09375E-05 64602.2
6.25000E-05 63790.1
6.40625E-05 63007.9
6.56250E-05 62253.9
6.71875E-05 61526.3
6.87500E-05 60823.6
7.18750E-05 59487.7
7.50000E-05 58236.1
7.81250E-05 57060.5
8.12500E-05 55953.4
8.43750E-05 54908.3
8.75000E-05 53919.8
9.06250E-05 52982.9
9.37500E-05 52093.2
9.68750E-05 51246.9
0.000100000 50440.7
0.000103125 49671.3
0.000106250 48936.2
0.000109375 48232.8
0.000112500 47559.0
0.000115625 46912.6
0.000118750 46292.0
0.000121875 45695.4
0.000125000 45121.3
0.000128125 44568.3
0.000131250 44035.2
0.000134375 43520.9
0.000137500 43024.1
0.000143750 42079.7
0.000150000 41195.0
0.000156250 40363.9
0.000162500 39581.2
0.000168750 38842.5
0.000175000 38143.7
0.000181250 37481.3
0.000187500 36852.4
0.000193750 36254.2
0.000200000 35684.2
0.000209375 34877.6
0.000218750 34123.5
0.000228125 33416.3
0.000237500 32751.5
0.000246875 32124.9
0.000256250 31533.0
0.000265625 30972.8
0.000275000 30441.4
0.000284375 29936.6
0.000293750 29456.1
0.000303125 28998.1
0.000312500 28560.9
0.000321875 28142.9
0.000331250 27742.8
0.000340625 27359.3
0.000350000 26991.4
0.000359375 26637.9
0.000368750 26298.1
0.000378125 25970.9
0.000387500 25655.7
0.000396875 25351.7
0.000406250 25058.3
0.000425000 24500.9
0.000443750 23979.3
0.000462500 23489.7
0.000481250 23029.0
0.000500000 22594.4
0.000515625 22250.6
0.000531250 21922.0
0.000546875 21607.6
0.000562500 21306.4
0.000578125 21017.5
0.000593750 20740.1
0.000609375 20473.4
0.000625000 20216.8
0.000640625 19969.6
0.000656250 19731.3
0.000671875 19501.4
0.000687500 19279.3
0.000718750 18857.2
0.000750000 18461.7
0.000781250 18090.1
0.000812500 17740.2
0.000843750 17410.0
0.000875000 17097.5
0.000906250 16801.4
0.000937500 16520.2
0.000968750 16252.7
0.00100000 15997.9
0.00103125 15754.7
0.00106250 15522.3
0.00109375 15300.0
0.00112500 15087.0
0.00115625 14882.6
0.00118750 14686.4
0.00121875 14497.8
0.00125000 14316.3
0.00128125 14141.5
0.00131250 13972.9
0.00134375 13810.3
0.00137500 13653.2
0.00143750 13354.6
0.00150000 13074.8
0.00156250 12811.9
0.00162500 12564.4
0.00168750 12330.7
0.00175000 12109.6
0.00181250 11900.1
0.00187500 11701.1
0.00193750 11511.9
0.00200000 11331.5
0.00209375 11076.3
0.00218750 10837.6
0.00228125 10613.7
0.00237500 10403.3
0.00246875 10204.9
0.00256250 10017.5
0.00265625 9840.07
0.00275000 9671.79
0.00284375 9511.90
0.00293750 9359.70
0.00303125 9214.61
0.00312500 9076.09
0.00321875 8943.66
0.00331250 8816.87
0.00340625 8695.35
0.00350000 8578.73
0.00359375 8466.70
0.00368750 8358.95
0.00378125 8255.23
0.00387500 8155.29
0.00396875 8058.90
0.00406250 7965.86
0.00425000 7789.08
0.00443750 7623.59
0.00462500 7468.23
0.00481250 7322.02
0.00500000 7184.09
0.00515625 7074.92
0.00531250 6970.58
0.00546875 6870.74
0.00562500 6775.07
0.00578125 6683.30
0.00593750 6595.15
0.00609375 6510.41
0.00625000 6428.86
0.00640625 6350.29
0.00656250 6274.54
0.00671875 6201.43
0.00687500 6130.82
0.00718750 5996.53
0.00750000 5870.69
0.00781250 5752.43
0.00812500 5641.02
0.00843750 5535.82
0.00875000 5436.27
0.00906250 5341.88
0.00937500 5252.22
0.00968750 5166.91
0.0100000 5085.61
0.0103125 5008.00
0.0106250 4933.82
0.0109375 4862.83
0.0112500 4794.80
0.0115625 4729.52
0.0118750 4666.82
0.0121875 4606.54
0.0125000 4548.51
0.0128125 4492.61
0.0131250 4438.69
0.0134375 4386.65
0.0137500 4336.39
0.0143750 4240.76
0.0150000 4151.12
0.0156250 4066.84
0.0162500 3987.42
0.0168750 3912.40
0.0175000 3841.39
0.0181250 3774.04
0.0187500 3710.04
0.0193750 3649.13
0.0200000 3591.06
0.0206625 3532.37
0.0213250 3476.40
0.0219875 3422.95
0.0226500 3371.83
0.0233125 3322.87
0.0239750 3275.92
0.0246375 3230.86
0.0253000 3187.54
0.0263613 3121.54
0.0274227 3059.33
0.0284840 3000.58
0.0295453 2944.97
0.0306067 2892.23
0.0316680 2842.12
0.0327293 2794.43
0.0337906 2748.96
0.0345625 2717.19
0.0355274 2678.91
0.0364922 2642.12
0.0374570 2606.73
0.0384219 2572.64
0.0393867 2539.77
0.0403516 2508.06
0.0413164 2477.44
0.0422813 2447.85
0.0442109 2391.52
0.0461406 2338.68
0.0480703 2288.96
0.0500000 2242.07
0.0515625 2206.00
0.0531250 2171.48
0.0546875 2138.41
0.0562500 2106.68
0.0578125 2076.21
0.0593750 2046.91
0.0609375 2018.71
0.0625000 1991.54
0.0640625 1965.34
0.0656250 1940.05
0.0671875 1915.62
0.0687500 1892.01
0.0703125 1869.16
0.0718750 1847.04
0.0750000 1804.80
0.0781250 1765.01
0.0812500 1727.43
0.0843750 1691.87
0.0875000 1658.15
0.0906250 1626.12
0.0937500 1595.64
0.0968750 1566.58
0.100000 1538.83
0.103125 1512.30
0.106250 1486.89
0.109375 1462.53
0.112500 1439.14
0.115625 1416.67
0.118750 1395.04
0.121875 1374.21
0.125000 1354.13
0.128125 1334.75
0.131250 1316.03
0.134375 1297.94
0.137500 1280.44
0.140625 1263.49
0.143750 1247.08
0.146875 1231.17
0.150000 1215.75
0.156250 1186.21
0.162500 1158.28
0.168750 1131.82
0.175000 1106.72
0.181250 1082.86
0.187500 1060.13
0.193750 1038.45
0.200000 1017.74
0.204688 1002.79
0.209375 988.333
0.214063 974.326
0.218750 960.750
0.223438 947.583
0.228125 934.807
0.232813 922.406
0.237500 910.359
0.246875 887.244
0.256250 865.322
0.265625 844.507
0.275000 824.714
0.284375 805.862
0.293750 787.880
0.303125 770.701
0.312500 754.269
0.321875 738.531
0.331250 723.440
0.340625 708.952
0.350000 695.031
0.359375 681.639
0.368750 668.745
0.378125 656.320
0.387500 644.336
0.396875 632.768
0.406250 621.594
0.415625 610.792
0.425000 600.343
0.434375 590.229
0.443750 580.432
0.453125 570.938
0.462500 561.733
0.471875 552.809
0.481250 544.160
0.500000 527.633
0.531250 501.989
0.562500 478.477
0.593750 456.887
0.625000 436.985
0.656250 418.578
0.687500 401.501
0.718750 385.614
0.750000 370.796
0.781250 356.944
0.812500 343.966
0.843750 331.783
0.875000 320.326
0.906250 309.532
0.937500 299.348
0.968750 289.724
1.00000 280.616
1.03125 271.988
1.06250 263.838
1.12500 248.700
1.18750 234.944
1.25000 222.432
1.31250 211.009
1.37500 200.548
1.43750 190.938
1.50000 182.085
1.56250 173.909
1.62500 166.341
1.68750 159.319
1.75000 152.790
1.81250 146.708
1.87500 141.032
1.93750 135.725
2.00000 130.766
2.09375 123.892
2.18750 117.616
2.28125 111.880
2.37500 106.622
2.46875 101.788
2.56250 97.3344
2.65625 93.2209
2.75000 89.4130
2.84375 85.8808
2.93750 82.5978
3.03125 79.5406
3.12500 76.6886
3.21875 74.0236
3.31250 71.5293
3.40625 69.1911
3.50000 66.9960
3.59375 64.9324
3.68750 62.9898
3.78125 61.1587
3.87500 59.4306
3.96875 57.7977
4.06250 56.2531
4.15625 54.7903
4.25000 53.4035
4.39063 51.4550
4.53125 49.6489
4.67188 47.9728
4.81250 46.4164
5.00000 44.5024
5.15625 43.0321
5.31250 41.6671
5.46875 40.3964
5.62500 39.2112
5.78125 38.1039
5.93750 37.0676
6.09375 36.0961
6.25000 35.1839
6.40625 34.3262
6.56250 33.5186
6.71875 32.7570
6.87500 32.0380
7.03125 31.3582
7.18750 30.7148
7.34375 30.1051
7.50000 29.5268
7.65625 28.9775
7.81250 28.4553
7.96875 27.9583
8.12500 27.4850
8.28125 27.0336
8.43750 26.6029
8.59375 26.1915
8.75000 25.7993
9.06250 25.0636
9.37500 24.3872
9.68750 23.7643
10.0000 23.1890
10.3125 22.6565
10.6250 22.1622
10.9375 21.7024
11.2500 21.2737
11.5625 20.8732
11.8750 20.4983
12.1875 20.1467
12.5000 19.8163
12.8125 19.5053
13.1250 19.2121
13.4375 18.9353
13.7500 18.6736
14.0625 18.4257
14.3750 18.1906
14.6875 17.9674
15.0000 17.7552
15.3125 17.5532
15.6250 17.3607
15.9375 17.1770
16.2500 17.0016
16.5625 16.8339
16.8750 16.6733
17.1875 16.5196
17.5000 16.3721
17.8125 16.2306
18.1250 16.0948
18.7500 15.8385
19.3750 15.6006
20.0000 15.3792
20.6445 15.1669
21.2891 14.9681
21.9336 14.7821
22.5781 14.6079
23.2227 14.4435
23.8672 14.2887
24.5117 14.1424
25.1563 14.0036
25.7422 13.8837
26.3281 13.7692
27.5000 13.5545
28.4375 13.3950
29.3750 13.2451
30.3125 13.1036
31.2500 12.9698
32.1875 12.8427
33.1250 12.7217
34.0625 12.6060
35.0000 12.4952
35.9375 12.3887
36.8750 12.2861
37.8125 12.1869
38.7500 12.0909
39.6875 11.9976
40.6250 11.9067
41.5625 11.8180
42.5000 11.7311
43.4375 11.6459
44.3750 11.5621
45.3125 11.4795
46.2500 11.3979
47.1875 11.3171
48.1250 11.2368
49.0625 11.1570
50.0000 11.0773
51.6068 10.9408
52.4101 10.8724
53.2135 10.8035
54.0169 10.7345
54.8202 10.6647
55.6236 10.5944
56.4270 10.5233
58.0337 10.3786
59.6405 10.2293
61.2472 10.0748
62.0506 9.99508
62.8540 9.91358
63.7842 9.81668
64.7144 9.71701
65.6446 9.61421
66.5748 9.50790
67.5051 9.39806
68.4353 9.28411
68.9004 9.22562
69.3655 9.16587
70.2957 9.04315
71.0991 8.93310
71.9025 8.81919
72.3042 8.76088
72.7058 8.70131
73.1075 8.64093
73.5092 8.57937
74.3126 8.45321
75.1159 8.32275
75.5176 8.25592
75.9193 8.18831
76.3210 8.11958
76.7227 8.04993
77.1878 7.96826
77.6529 7.88565
78.1180 7.80231
78.5831 7.71851
79.0482 7.63463
79.5134 7.55112
79.9785 7.46861
80.4436 7.38785
80.9087 7.30986
81.1412 7.27228
81.3738 7.23590
81.6064 7.20093
81.8389 7.16762
82.0715 7.13625
82.3040 7.10715
82.5366 7.08066
82.7691 7.05722
83.0017 7.03731
83.2342 7.02144
83.4668 7.01024
83.6993 7.00448
83.9319 7.00492
84.1645 7.01249
84.4182 7.02991
84.6719 7.05821
84.9256 7.10060
85.1792 7.15885
85.4329 7.23559
85.6866 7.33409
85.9403 7.45828
86.1940 7.61285
86.4160 7.77747
86.6380 7.97427
86.8600 8.20870
87.0820 8.48726
87.3040 8.81782
87.5259 9.20980
87.6369 9.43223
87.7479 9.67420
87.8589 9.93741
87.9699 10.2242
88.0439 10.4298
88.1179 10.6478
88.1919 10.8790
88.2659 11.1241
88.3399 11.3843
88.3769 11.5203
88.4139 11.6604
88.4509 11.8047
88.4879 11.9535
88.5249 12.1067
88.5619 12.2647
88.5936 12.4040
88.6253 12.5469
88.6570 12.6935
88.6887 12.8441
88.7204 12.9987
88.7521 13.1575
88.7838 13.3204
88.8156 13.4878
88.8446 13.6451
88.8737 13.8064
88.9028 13.9717
88.9318 14.1412
88.9609 14.3148
88.9900 14.4929
89.0190 14.6754
89.0481 14.8625
89.0798 15.0722
89.1115 15.2876
89.1406 15.4904
89.1697 15.6985
89.1987 15.9119
89.2278 16.1309
89.2569 16.3555
89.2860 16.5861
89.3150 16.8228
89.3441 17.0656
89.3732 17.3150
89.4022 17.5710
89.4313 17.8339
89.4604 18.1040
89.4894 18.3813
89.5185 18.6661
89.5476 18.9588
89.5766 19.2594
89.6057 19.5685
89.6348 19.8861
89.6638 20.2126
89.6929 20.5483
89.7220 20.8935
89.7511 21.2485
89.7801 21.6137
89.8092 21.9893
89.8383 22.3759
89.8673 22.7736
89.8964 23.1830
89.9255 23.6045
89.9545 24.0385
89.9836 24.4854
90.0127 24.9458
90.0417 25.4199
90.0787 26.0445
90.1157 26.6936
90.1527 27.3684
90.1897 28.0700
90.2267 28.7999
90.2637 29.5594
90.3007 30.3501
90.3377 31.1732
90.3668 31.8440
90.3959 32.5370
90.4249 33.2528
90.4540 33.9926
90.4831 34.7573
90.5121 35.5479
90.5412 36.3656
90.5703 37.2114
90.5994 38.0868
90.6284 38.9928
90.6575 39.9309
90.6866 40.9025
90.7156 41.9091
90.7447 42.9523
90.7738 44.0338
90.8028 45.1553
90.8319 46.3187
90.8610 47.5260
90.8901 48.7792
90.9191 50.0807
90.9482 51.4328
90.9773 52.8379
91.0063 54.2987
91.0354 55.8175
91.0645 57.3983
91.0935 59.0437
91.1226 60.7573
91.1517 62.5424
91.1807 64.4031
91.2098 66.3434
91.2389 68.3676
91.2679 70.4797
91.2970 72.6861
91.3261 74.9915
91.3552 77.4015
91.3842 79.9223
91.4133 82.5605
91.4424 85.3231
91.4714 88.2178
91.5005 91.2526
91.5296 94.4365
91.5586 97.7788
91.5877 101.290
91.6168 104.981
91.6459 108.863
91.6749 112.950
91.7040 117.256
91.7331 121.795
91.7753 128.852
91.8176 136.494
91.8599 144.789
91.9022 153.810
91.9233 158.622
91.9445 163.645
91.9656 168.896
91.9868 174.387
92.0079 180.134
92.0290 186.151
92.0502 192.456
92.0713 199.067
92.1004 208.693
92.1295 218.991
92.1585 230.022
92.1876 241.858
92.2167 254.575
92.2457 268.261
92.2748 283.016
92.3039 298.950
92.3329 316.192
92.3620 334.884
92.3911 355.191
92.4202 377.303
92.4492 401.434
92.4783 427.835
92.5074 456.794
92.5219 472.330
92.5364 488.635
92.5510 505.773
92.5655 523.774
92.5800 542.722
92.5946 562.657
92.6091 583.677
92.6236 605.827
92.6382 629.223
92.6527 653.923
92.6672 680.058
92.6818 707.700
92.6963 737.005
92.7108 768.061
92.7254 801.050
92.7399 836.080
92.7544 873.339
92.7690 913.010
92.7901 975.479
92.8113 1044.13
92.8324 1119.77
92.8430 1160.47
92.8535 1203.26
92.8641 1248.25
92.8747 1295.57
92.8853 1345.38
92.8958 1397.81
92.9064 1453.02
92.9170 1511.16
92.9275 1572.42
92.9381 1636.95
92.9526 1731.41
92.9672 1832.84
92.9817 1941.87
92.9962 2058.87
93.0108 2184.51
93.0253 2319.13
93.0399 2463.42
93.0544 2617.64
93.0689 2782.45
93.0835 2958.00
93.0980 3144.83
93.1125 3342.93
93.1271 3552.66
93.1416 3773.73
93.1561 4006.30
93.1707 4249.71
93.1852 4503.80
93.1997 4767.50
93.2288 5320.57
93.2579 5898.84
93.2869 6488.37
93.2975 6702.40
93.3355 7450.81
93.3545 7802.76
93.3734 8131.60
93.3924 8431.70
93.4114 8697.01
93.4304 8922.58
93.4494 9103.60
93.4620 9197.76
93.4747 9269.58
93.4874 9318.50
93.5000 9344.03
93.5127 9346.02
93.5332 9299.19
93.5538 9191.80
93.5744 9026.90
93.5949 8809.02
93.6155 8543.56
93.6361 8237.30
93.6566 7897.08
93.6772 7530.71
93.7112 6886.89
93.7452 6223.84
93.7792 5569.19
93.7962 5252.11
93.8132 4944.83
93.8301 4650.44
93.8470 4368.91
93.8639 4101.02
93.8809 3847.35
93.8978 3608.09
93.9147 3383.56
93.9316 3173.46
93.9485 2977.43
93.9654 2794.90
93.9823 2625.48
93.9992 2468.41
94.0162 2322.96
94.0331 2188.33
94.0500 2063.93
94.0669 1948.94
94.0838 1842.66
94.1000 1748.64
94.1161 1661.42
94.1322 1580.36
94.1484 1505.05
94.1645 1434.94
94.1807 1369.69
94.1968 1308.86
94.2130 1252.09
94.2291 1199.01
94.2452 1149.38
94.2614 1102.87
94.2775 1059.28
94.2937 1018.33
94.3098 979.853
94.3260 943.642
94.3421 909.522
94.3590 875.826
94.3759 844.108
94.3928 814.197
94.4098 785.959
94.4267 759.254
94.4436 734.002
94.4605 710.084
94.4774 687.406
94.5112 645.426
94.5451 607.484
94.5789 573.060
94.6127 541.726
94.6527 508.173
94.6926 477.927
94.7326 450.545
94.7726 425.682
94.8126 403.021
94.8525 382.312
94.8925 363.323
94.9325 345.872
94.9663 332.177
95.0001 319.377
95.0340 307.388
95.0678 296.146
95.1016 285.584
95.1354 275.653
95.1693 266.296
95.2031 257.475
95.2369 249.144
95.2707 241.270
95.3046 233.815
95.3384 226.755
95.3722 220.057
95.4060 213.699
95.4737 201.909
95.5413 191.219
95.6090 181.495
95.6766 172.620
95.7443 164.496
95.8119 157.038
95.8796 150.174
95.9472 143.840
96.0149 137.982
96.0733 133.270
96.1317 128.851
96.1902 124.697
96.2486 120.789
96.3070 117.105
96.3654 113.628
96.4239 110.342
96.4823 107.232
96.5407 104.286
96.5991 101.494
96.6575 98.8430
96.7160 96.3245
96.8328 91.6489
96.9497 87.4045
97.0173 85.1226
97.0850 82.9580
97.1526 80.9025
97.2203 78.9486
97.3556 75.3186
97.4909 72.0197
97.6262 69.0112
97.7615 66.2584
97.8968 63.7320
98.0320 61.4069
98.1796 59.0740
98.3272 56.9303
98.4748 54.9549
98.6224 53.1299
98.7700 51.4399
98.9176 49.8725
99.0652 48.4156
99.2128 47.0564
99.4096 45.3787
99.6064 43.8405
99.8032 42.4265
100.000 41.1228
100.123 40.3618
100.245 39.6366
100.490 38.2851
100.735 37.0505
100.980 35.9190
101.225 34.8782
101.470 33.9189
101.715 33.0318
101.959 32.2094
102.182 31.5140
102.293 31.2059
102.349 31.1004
102.405 31.0967
102.433 31.1696
102.460 31.3228
102.488 31.5888
102.516 32.0079
102.530 32.2917
102.544 32.6303
102.558 33.0325
102.572 33.5054
102.586 34.0559
102.600 34.6911
102.613 35.4178
102.627 36.2422
102.641 37.1770
102.655 38.2135
102.669 39.3619
102.683 40.6244
102.697 42.0020
102.711 43.4941
102.725 45.0982
102.739 46.8103
102.753 48.6377
102.767 50.5463
102.794 54.6057
102.822 58.9061
102.850 63.3337
102.850 96.6675
109.859 93.7799
116.867 91.1503
123.876 88.7405
130.885 86.5225
137.894 84.4706
144.903 82.5659
151.912 80.7915
158.921 79.1330
165.930 77.5773
172.939 76.1148
179.948 74.7367
186.957 73.4349
193.966 72.2020
200.975 71.0326
214.993 68.8638
229.011 66.8916
243.029 65.0886
257.047 63.4311
271.065 61.9007
285.083 60.4813
299.101 59.1605
313.119 57.9273
327.137 56.7723
341.155 55.6870
355.173 54.6650
369.191 53.7004
383.209 52.7879
411.245 51.1009
439.281 49.5742
467.317 48.1832
495.353 46.9092
523.389 45.7361
551.425 44.6515
579.461 43.6444
607.497 42.7061
635.532 41.8290
663.568 41.0068
691.604 40.2336
719.640 39.5049
747.676 38.8165
775.712 38.1649
831.784 36.9591
887.856 35.8666
943.928 34.8703
1000.00 33.9570
1070.31 33.3505
1140.63 32.7926
1210.94 32.2765
1281.25 31.7971
1351.56 31.3498
1421.88 30.9310
1562.50 30.1671
1703.13 29.4854
1843.75 28.8716
1984.38 28.3143
2125.00 27.8050
2265.63 27.3364
2406.25 26.9033
2546.88 26.5012
2687.50 26.1262
2828.13 25.7752
2968.75 25.4456
3250.00 24.8422
3531.25 24.3014
3812.50 23.8125
4093.75 23.3673
4375.00 22.9592
4656.25 22.5830
4937.50 22.2345
5218.75 21.9103
5500.00 21.6074
6062.50 21.0567
6625.00 20.5671
7187.50 20.1273
7750.00 19.7291
8312.50 19.3659
8875.00 19.0325
9437.50 18.7249
10000.0 18.4397
10703.1 18.2006
11406.3 17.9795
12109.4 17.7742
12812.5 17.5826
14218.8 17.2344
15625.0 16.9250
17031.3 16.6472
18437.5 16.3955
19843.8 16.1657
21250.0 15.9545
22656.3 15.7593
24062.5 15.5781
26875.0 15.2509
29687.5 14.9621
32500.0 14.7042
35312.5 14.4717
38125.0 14.2603
40937.5 14.0667
43750.0 13.8884
46562.5 13.7231
49375.0 13.5694
55000.0 13.2911
60625.0 13.0448
66250.0 12.8245
71875.0 12.6253
77500.0 12.4440
83125.0 12.2776
88750.0 12.1242
94375.0 11.9819
100000 11.8495
106250 11.6212
112500 11.4100
118750 11.2137
125000 11.0307
137500 10.6984
150000 10.4038
162500 10.1400
175000 9.90170
187500 9.68491
200000 9.48643
218750 9.21753
237500 8.97748
256250 8.76123
275000 8.56494
293750 8.38557
312500 8.22072
331250 8.06845
350000 7.92716
368750 7.79552
387500 7.67244
425000 7.44836
428170 7.43061
428173 7.43060
428193 7.43049
430000 7.42045
447500 7.32605
465000 7.23643
500000 7.06989
525000 6.91743
550000 6.78034
575000 6.65684
600000 6.54542
650000 6.34216
700000 6.16948
750000 6.00412
800000 5.86132
850000 5.76410
900000 5.67682
1.00000E+06 5.52717
1.04153E+06 5.53163
1.04153E+06 5.53162
1.04464E+06 5.53197
1.04774E+06 5.53230
1.05395E+06 5.53297
1.06636E+06 5.53425
1.06636E+06 5.53425
1.07018E+06 5.53459
1.07734E+06 5.53533
1.08451E+06 5.53606
1.09883E+06 5.53748
1.11316E+06 5.53895
1.12749E+06 5.54037
1.14181E+06 5.54174
1.15614E+06 5.54306
1.17961E+06 5.54566
1.20307E+06 5.54811
1.22654E+06 5.55044
1.25000E+06 5.55263
1.27076E+06 5.55344
1.29823E+06 5.55655
1.32569E+06 5.55953
1.32942E+06 5.55974
1.33315E+06 5.55994
1.34061E+06 5.56036
1.35554E+06 5.56121
1.37046E+06 5.56207
1.38538E+06 5.56294
1.39776E+06 5.56455
1.40096E+06 5.56463
1.40415E+06 5.56473
1.41054E+06 5.56495
1.42332E+06 5.56551
1.43610E+06 5.56621
1.44888E+06 5.56705
1.47444E+06 5.56913
1.50000E+06 5.57170
1.56646E+06 5.65389
1.63292E+06 5.73309
1.69938E+06 5.80953
1.76584E+06 5.88338
1.76584E+06 5.88339
1.77049E+06 5.88855
1.77514E+06 5.89371
1.78444E+06 5.90398
1.78932E+06 5.90936
1.79419E+06 5.91473
1.79792E+06 5.91884
1.80165E+06 5.92295
1.80912E+06 5.93113
1.82404E+06 5.94737
1.82404E+06 5.94738
1.83060E+06 5.95452
1.83716E+06 5.96163
1.85027E+06 5.97575
1.85028E+06 5.97576
1.85450E+06 5.98032
1.85931E+06 5.98553
1.86411E+06 5.99073
1.87372E+06 6.00107
1.89295E+06 6.02158
1.91217E+06 6.04186
1.93139E+06 6.06192
1.93139E+06 6.06192
1.93858E+06 6.06962
1.94576E+06 6.07729
1.96014E+06 6.09258
1.97451E+06 6.10778
1.98888E+06 6.12289
1.98889E+06 6.12289
1.99444E+06 6.12790
2.00000E+06 6.13292
2.02266E+06 6.16123
2.02912E+06 6.16932
2.03558E+06 6.17739
2.04849E+06 6.19346
2.06141E+06 6.20943
2.07432E+06 6.22530
2.07432E+06 6.22530
2.08057E+06 6.23256
2.08682E+06 6.23979
2.09931E+06 6.25420
2.12430E+06 6.28275
2.14929E+06 6.31097
2.17429E+06 6.33886
2.19928E+06 6.36643
2.22427E+06 6.39369
2.27425E+06 6.44729
2.27949E+06 6.45310
2.28473E+06 6.45890
2.29521E+06 6.47046
2.31617E+06 6.49341
2.33712E+06 6.51617
2.35808E+06 6.53872
2.36492E+06 6.54609
2.37175E+06 6.55344
2.37776E+06 6.56008
2.38376E+06 6.56670
2.39577E+06 6.57989
2.41980E+06 6.60607
2.44382E+06 6.63199
2.46784E+06 6.65765
2.47588E+06 6.66555
2.48392E+06 6.67343
2.50000E+06 6.68908
2.50834E+06 6.69514
2.50835E+06 6.69514
2.50885E+06 6.69551
2.51653E+06 6.70178
2.52420E+06 6.70802
2.53955E+06 6.72043
2.57024E+06 6.74500
2.60094E+06 6.76922
2.63164E+06 6.79309
2.66234E+06 6.81662
2.69303E+06 6.83982
2.75443E+06 6.88528
2.81582E+06 6.92950
2.87721E+06 6.97254
2.93861E+06 7.01445
3.00000E+06 7.05527
3.03125E+06 7.06224
3.06250E+06 7.06909
3.09375E+06 7.07581
3.12500E+06 7.08241
3.18750E+06 7.09524
3.25000E+06 7.10762
3.31250E+06 7.12048
3.37500E+06 7.13289
3.43750E+06 7.14487
3.50000E+06 7.15643
3.56250E+06 7.16842
3.62500E+06 7.18004
3.68750E+06 7.19129
3.75000E+06 7.20219
3.81250E+06 7.21345
3.87500E+06 7.22438
3.93750E+06 7.23497
4.00000E+06 7.24524
4.04587E+06 7.22933
4.09174E+06 7.21365
4.13761E+06 7.19819
4.18349E+06 7.18295
4.22936E+06 7.16792
4.27523E+06 7.15309
4.32110E+06 7.13846
4.36697E+06 7.12403
4.40653E+06 7.11167
4.42869E+06 7.10481
4.44610E+06 7.09944
4.48566E+06 7.08736
4.52523E+06 7.07540
4.56479E+06 7.06358
4.60435E+06 7.05188
4.64392E+06 7.04031
4.68348E+06 7.02886
4.72305E+06 7.01749
4.76261E+06 7.00623
4.80218E+06 6.99510
4.84174E+06 6.98407
4.88131E+06 6.97316
4.92087E+06 6.96235
4.96044E+06 6.95165
5.00000E+06 6.94105
5.03125E+06 6.92078
5.06250E+06 6.90069
5.12500E+06 6.86108
5.18750E+06 6.82220
5.25000E+06 6.78401
5.31250E+06 6.74650
5.37500E+06 6.70965
5.43750E+06 6.67344
5.50000E+06 6.63785
5.56250E+06 6.60278
5.62500E+06 6.56829
5.68750E+06 6.53437
5.75000E+06 6.50101
5.81250E+06 6.46815
5.87500E+06 6.43580
5.93750E+06 6.40398
6.00000E+06 6.37264
6.03769E+06 6.34734
6.07538E+06 6.32233
6.11307E+06 6.29761
6.15076E+06 6.27318
6.18845E+06 6.24902
6.22614E+06 6.22514
6.26383E+06 6.20153
6.30152E+06 6.17818
6.33921E+06 6.15509
6.37689E+06 6.13225
6.41458E+06 6.10966
6.45227E+06 6.08732
6.48996E+06 6.06522
6.52765E+06 6.04336
6.56534E+06 6.02173
6.60303E+06 6.00033
6.60303E+06 6.00033
6.64669E+06 5.97524
6.66475E+06 5.96496
6.69034E+06 5.95047
6.73400E+06 5.92600
6.77765E+06 5.90182
6.82131E+06 5.87793
6.86496E+06 5.85433
6.90862E+06 5.83101
6.95227E+06 5.80796
6.99593E+06 5.78517
7.03958E+06 5.76266
7.08324E+06 5.74040
7.12689E+06 5.71839
7.17055E+06 5.69664
7.21420E+06 5.67512
7.25786E+06 5.65385
7.30151E+06 5.63282
7.34517E+06 5.61165
7.38882E+06 5.59071
7.43248E+06 5.57001
7.47613E+06 5.54953
7.51979E+06 5.52927
7.56344E+06 5.50923
7.60710E+06 5.48941
7.65075E+06 5.46979
7.69441E+06 5.45017
7.73806E+06 5.43076
7.82538E+06 5.39254
7.91269E+06 5.35512
7.95634E+06 5.33669
8.00000E+06 5.31845
8.04961E+06 5.30834
8.09922E+06 5.29830
8.14882E+06 5.28833
8.19843E+06 5.27843
8.24804E+06 5.26860
8.29765E+06 5.25884
8.34725E+06 5.24914
8.39686E+06 5.23951
8.44647E+06 5.22994
8.49608E+06 5.22043
8.54568E+06 5.21099
8.59529E+06 5.20161
8.64490E+06 5.19229
8.69451E+06 5.18304
8.74411E+06 5.17384
8.79372E+06 5.16470
8.79372E+06 5.16470
8.83101E+06 5.15539
8.86911E+06 5.14611
8.94451E+06 5.12841
9.01990E+06 5.11158
9.09529E+06 5.09561
9.17068E+06 5.08045
9.24608E+06 5.06611
9.32147E+06 5.05255
9.39686E+06 5.03976
9.47225E+06 5.02771
9.54765E+06 5.01639
9.62304E+06 5.00579
9.69843E+06 4.99588
9.77382E+06 4.98665
9.84922E+06 4.97807
9.92461E+06 4.97015
1.00000E+07 4.96286
1.00625E+07 4.96089
1.01250E+07 4.95911
1.01875E+07 4.95751
1.02500E+07 4.95610
1.03125E+07 4.95486
1.03750E+07 4.95379
1.04375E+07 4.95291
1.05000E+07 4.95219
1.05625E+07 4.95164
1.06250E+07 4.95126
1.06875E+07 4.95105
1.07500E+07 4.95100
1.08125E+07 4.95111
1.08750E+07 4.95138
1.09375E+07 4.95181
1.10000E+07 4.95240
1.10625E+07 4.95314
1.11250E+07 4.95404
1.11875E+07 4.95509
1.12500E+07 4.95628
1.13125E+07 4.95762
1.13750E+07 4.95911
1.14375E+07 4.96075
1.15000E+07 4.96253
1.15625E+07 4.96445
1.16250E+07 4.96651
1.16875E+07 4.96870
1.17500E+07 4.97104
1.18125E+07 4.97351
1.18750E+07 4.97611
1.19375E+07 4.97885
1.20000E+07 4.98172
1.20313E+07 4.98486
1.20625E+07 4.98801
1.20938E+07 4.99118
1.21250E+07 4.99436
1.21563E+07 4.99754
1.21875E+07 5.00074
1.22188E+07 5.00395
1.22500E+07 5.00717
1.22813E+07 5.01040
1.23125E+07 5.01365
1.23438E+07 5.01690
1.23750E+07 5.02017
1.24375E+07 5.02672
1.25000E+07 5.03333
1.25625E+07 5.03997
1.26250E+07 5.04666
1.26875E+07 5.05339
1.27500E+07 5.06015
1.28125E+07 5.06696
1.28750E+07 5.07381
1.29375E+07 5.08070
1.30000E+07 5.08762
1.30625E+07 5.09459
1.31250E+07 5.10159
1.31875E+07 5.10863
1.32500E+07 5.11571
1.33125E+07 5.12282
1.33750E+07 5.12997
1.34375E+07 5.13716
1.35000E+07 5.14438
1.35625E+07 5.15164
1.36250E+07 5.15893
1.36875E+07 5.16626
1.37500E+07 5.17362
1.38125E+07 5.18101
1.38750E+07 5.18844
1.39375E+07 5.19591
1.40000E+07 5.20340
1.40590E+07 5.21163
1.41180E+07 5.21987
1.41770E+07 5.22811
1.42360E+07 5.23636
1.42950E+07 5.24461
1.43540E+07 5.25287
1.44130E+07 5.26114
1.44720E+07 5.26940
1.45310E+07 5.27767
1.45899E+07 5.28595
1.46489E+07 5.29423
1.47079E+07 5.30252
1.47669E+07 5.31081
1.48259E+07 5.31910
1.48849E+07 5.32740
1.49439E+07 5.33571
1.50029E+07 5.34401
1.50619E+07 5.35233
1.51209E+07 5.36064
1.51799E+07 5.36896
1.52389E+07 5.37729
1.52979E+07 5.38561
1.53569E+07 5.39394
1.54159E+07 5.40228
1.54749E+07 5.41062
1.55338E+07 5.41896
1.55928E+07 5.42731
1.56518E+07 5.43566
1.57108E+07 5.44402
1.57698E+07 5.45237
1.58288E+07 5.46074
1.58878E+07 5.46910
1.59439E+07 5.47669
1.60000E+07 5.48427
1.60625E+07 5.48949
1.61250E+07 5.49469
1.61875E+07 5.49990
1.62500E+07 5.50510
1.63125E+07 5.51031
1.63182E+07 5.51078
1.63750E+07 5.51550
1.64375E+07 5.52070
1.65000E+07 5.52589
1.65625E+07 5.53108
1.66250E+07 5.53626
1.66875E+07 5.54144
1.67500E+07 5.54662
1.68125E+07 5.55180
1.68750E+07 5.55697
1.69375E+07 5.56214
1.70000E+07 5.56731
1.70625E+07 5.57247
1.71250E+07 5.57763
1.71875E+07 5.58279
1.72500E+07 5.58795
1.73125E+07 5.59310
1.73750E+07 5.59825
1.74375E+07 5.60340
1.75000E+07 5.60854
1.75625E+07 5.61368
1.76250E+07 5.61882
1.76875E+07 5.62395
1.77500E+07 5.62908
1.78125E+07 5.63421
1.78750E+07 5.63934
1.79375E+07 5.64446
1.80000E+07 5.64958
1.81250E+07 5.65065
1.82500E+07 5.65171
1.83750E+07 5.65279
1.85000E+07 5.65387
1.86250E+07 5.65496
1.87500E+07 5.65605
1.88750E+07 5.65715
1.90000E+07 5.65825
1.91250E+07 5.65936
1.92500E+07 5.66048
1.93750E+07 5.66160
1.95000E+07 5.66273
1.96250E+07 5.66386
1.97500E+07 5.66500
1.98750E+07 5.66614
2.00000E+07 5.66729
2.00000E+07 5.62720
2.10000E+07 5.59926
2.18772E+07 5.55730
2.20000E+07 5.55010
2.20946E+07 5.54437
2.21132E+07 5.54322
2.22000E+07 5.53784
2.30000E+07 5.48329
2.40000E+07 5.40300
2.48556E+07 5.32758
2.50000E+07 5.31446
2.52494E+07 5.29142
2.57565E+07 5.24277
2.60000E+07 5.21840
2.70000E+07 5.11690
2.80000E+07 5.01460
2.88833E+07 4.92350
2.90000E+07 4.91161
2.92244E+07 4.88896
3.00000E+07 4.81360
3.05725E+07 4.76140
3.10000E+07 4.72401
3.20000E+07 4.64133
3.24517E+07 4.60597
3.30000E+07 4.56453
3.31444E+07 4.55386
3.40000E+07 4.49269
3.44454E+07 4.46210
3.50000E+07 4.42510
3.60000E+07 4.36571
3.70000E+07 4.31744
3.71516E+07 4.31097
3.75219E+07 4.29602
3.80000E+07 4.27839
3.83234E+07 4.26746
3.90000E+07 4.24696
4.00000E+07 4.22180
4.07970E+07 4.20634
4.10000E+07 4.20316
4.10947E+07 4.20177
4.17326E+07 4.19407
4.20000E+07 4.19168
4.30000E+07 4.18684
4.40000E+07 4.18821
4.50000E+07 4.19540
4.51464E+07 4.19687
4.54984E+07 4.20043
4.60000E+07 4.20570
4.70000E+07 4.21736
4.80000E+07 4.23139
4.90000E+07 4.24867
4.94264E+07 4.25723
5.00000E+07 4.27000
5.03013E+07 4.27710
5.10000E+07 4.29347
5.20000E+07 4.31671
5.30000E+07 4.33974
5.38232E+07 4.35856
5.40000E+07 4.36259
5.47652E+07 4.37998
5.50000E+07 4.38530
5.60000E+07 4.40790
5.70000E+07 4.43035
5.73588E+07 4.43835
5.80000E+07 4.45254
5.90000E+07 4.47439
5.92923E+07 4.48070
6.00000E+07 4.49580
6.10000E+07 4.51590
6.13481E+07 4.52244
6.20000E+07 4.53413
6.23867E+07 4.54076
6.30000E+07 4.55087
6.40000E+07 4.56649
6.50000E+07 4.58130
6.60000E+07 4.59477
6.69307E+07 4.60559
6.70000E+07 4.60634
6.80000E+07 4.61624
6.90000E+07 4.62472
7.00000E+07 4.63200
7.10000E+07 4.63798
7.18938E+07 4.64207
7.20000E+07 4.64248
7.30000E+07 4.64558
7.40000E+07 4.64736
7.50000E+07 4.64790
7.60000E+07 4.64727
7.70000E+07 4.64552
7.70439E+07 4.64542
7.80000E+07 4.64265
7.90000E+07 4.63867
7.98750E+07 4.63429
8.00000E+07 4.63360
8.10000E+07 4.62756
8.20000E+07 4.62067
8.30000E+07 4.61291
8.40000E+07 4.60426
8.49880E+07 4.59482
8.50000E+07 4.59470
8.60000E+07 4.58439
8.70000E+07 4.57345
8.80000E+07 4.56188
8.90000E+07 4.54963
9.00000E+07 4.53670
9.10000E+07 4.52318
9.20000E+07 4.50919
9.30000E+07 4.49478
9.40000E+07 4.47997
9.50000E+07 4.46480
9.60000E+07 4.44926
9.70000E+07 4.43330
9.80000E+07 4.41696
9.90000E+07 4.40022
1.00000E+08 4.38310
1.02000E+08 4.34821
1.04000E+08 4.31275
1.06000E+08 4.27676
1.08000E+08 4.24023
1.10000E+08 4.20320
1.12000E+08 4.16593
1.14000E+08 4.12864
1.16000E+08 4.09128
1.18000E+08 4.05381
1.20000E+08 4.01620
1.22000E+08 3.97886
1.24000E+08 3.94210
1.26000E+08 3.90574
1.28000E+08 3.86962
1.30000E+08 3.83360
1.32000E+08 3.79796
1.34000E+08 3.76301
1.36000E+08 3.72869
1.38000E+08 3.69494
1.40000E+08 3.66170
1.42000E+08 3.62906
1.44000E+08 3.59707
1.46000E+08 3.56569
1.48000E+08 3.53485
1.50000E+08 3.50450
