Hg-200(n,tot) ENDFB-8.0
Energy(eV) XS(b)
1.00000E-05 133.311
1.03125E-05 131.321
1.06250E-05 129.421
1.09375E-05 127.603
1.12500E-05 125.862
1.15625E-05 124.192
1.18750E-05 122.590
1.21875E-05 121.050
1.25000E-05 119.569
1.28125E-05 118.142
1.31250E-05 116.768
1.34375E-05 115.442
1.37500E-05 114.162
1.43750E-05 111.730
1.50000E-05 109.452
1.56250E-05 107.315
1.62500E-05 105.303
1.68750E-05 103.405
1.75000E-05 101.612
1.81250E-05 99.9124
1.87500E-05 98.3001
1.93750E-05 96.7674
2.00000E-05 95.3082
2.09375E-05 93.2448
2.18750E-05 91.3174
2.28125E-05 89.5119
2.37500E-05 87.8161
2.46875E-05 86.2194
2.56250E-05 84.7126
2.65625E-05 83.2878
2.75000E-05 81.9377
2.84375E-05 80.6562
2.93750E-05 79.4378
3.03125E-05 78.2774
3.12500E-05 77.1708
3.21875E-05 76.1139
3.31250E-05 75.1031
3.40625E-05 74.1353
3.50000E-05 73.2075
3.59375E-05 72.3171
3.68750E-05 71.4617
3.78125E-05 70.6391
3.87500E-05 69.8473
3.96875E-05 69.0844
4.06250E-05 68.3488
4.25000E-05 66.9532
4.43750E-05 65.6494
4.62500E-05 64.4281
4.81250E-05 63.2809
5.00000E-05 62.2008
5.15625E-05 61.3475
5.31250E-05 60.5334
5.46875E-05 59.7556
5.62500E-05 59.0115
5.78125E-05 58.2989
5.93750E-05 57.6156
6.09375E-05 56.9597
6.25000E-05 56.3294
6.40625E-05 55.7233
6.56250E-05 55.1397
6.71875E-05 54.5775
6.87500E-05 54.0353
7.18750E-05 53.0066
7.50000E-05 52.0455
7.81250E-05 51.1453
8.12500E-05 50.2998
8.43750E-05 49.5038
8.75000E-05 48.7530
9.06250E-05 48.0432
9.37500E-05 47.3709
9.68750E-05 46.7332
0.000100000 46.1271
0.000103125 45.5502
0.000106250 45.0004
0.000109375 44.4757
0.000112500 43.9742
0.000115625 43.4943
0.000118750 43.0346
0.000121875 42.5938
0.000125000 42.1706
0.000128125 41.7639
0.000131250 41.3728
0.000134375 40.9963
0.000137500 40.6335
0.000143750 39.9460
0.000150000 39.3048
0.000156250 38.7050
0.000162500 38.1426
0.000168750 37.6139
0.000175000 37.1158
0.000181250 36.6456
0.000187500 36.2009
0.000193750 35.7794
0.000200000 35.3794
0.000209375 34.8159
0.000218750 34.2918
0.000228125 33.8029
0.000237500 33.3456
0.000246875 32.9167
0.000256250 32.5134
0.000265625 32.1335
0.000275000 31.7748
0.000284375 31.4355
0.000293750 31.1139
0.000303125 30.8087
0.000312500 30.5184
0.000321875 30.2420
0.000331250 29.9785
0.000340625 29.7268
0.000350000 29.4862
0.000359375 29.2559
0.000368750 29.0352
0.000378125 28.8234
0.000387500 28.6201
0.000396875 28.4246
0.000406250 28.2365
0.000425000 27.8808
0.000443750 27.5498
0.000462500 27.2408
0.000481250 26.9516
0.000500000 26.6802
0.000515625 26.4664
0.000531250 26.2628
0.000546875 26.0688
0.000562500 25.8836
0.000578125 25.7066
0.000593750 25.5371
0.000609375 25.3748
0.000625000 25.2191
0.000640625 25.0695
0.000656250 24.9258
0.000671875 24.7875
0.000687500 24.6543
0.000718750 24.4021
0.000750000 24.1670
0.000781250 23.9472
0.000812500 23.7411
0.000843750 23.5474
0.000875000 23.3650
0.000906250 23.1927
0.000937500 23.0298
0.000968750 22.8753
0.00100000 22.7286
0.00103125 22.5891
0.00106250 22.4562
0.00109375 22.3295
0.00112500 22.2084
0.00115625 22.0925
0.00118750 21.9816
0.00121875 21.8752
0.00125000 21.7731
0.00128125 21.6749
0.00131250 21.5805
0.00134375 21.4897
0.00137500 21.4021
0.00143750 21.2361
0.00150000 21.0812
0.00156250 20.9362
0.00162500 20.8002
0.00168750 20.6722
0.00175000 20.5515
0.00181250 20.4374
0.00187500 20.3293
0.00193750 20.2269
0.00200000 20.1295
0.00209375 19.9921
0.00218750 19.8640
0.00228125 19.7443
0.00237500 19.6321
0.00246875 19.5267
0.00256250 19.4274
0.00265625 19.3336
0.00275000 19.2449
0.00284375 19.1608
0.00293750 19.0809
0.00303125 19.0050
0.00312500 18.9326
0.00321875 18.8635
0.00331250 18.7975
0.00340625 18.7344
0.00350000 18.6739
0.00359375 18.6159
0.00368750 18.5603
0.00378125 18.5067
0.00387500 18.4553
0.00396875 18.4057
0.00406250 18.3579
0.00425000 18.2673
0.00443750 18.1827
0.00462500 18.1035
0.00481250 18.0291
0.00500000 17.9591
0.00515625 17.9038
0.00531250 17.8510
0.00546875 17.8006
0.00562500 17.7524
0.00578125 17.7062
0.00593750 17.6619
0.00609375 17.6194
0.00625000 17.5785
0.00640625 17.5392
0.00656250 17.5014
0.00671875 17.4649
0.00687500 17.4297
0.00718750 17.3629
0.00750000 17.3004
0.00781250 17.2418
0.00812500 17.1867
0.00843750 17.1348
0.00875000 17.0857
0.00906250 17.0393
0.00937500 16.9953
0.00968750 16.9535
0.0100000 16.9137
0.0103125 16.8758
0.0106250 16.8396
0.0109375 16.8050
0.0112500 16.7719
0.0115625 16.7402
0.0118750 16.7098
0.0121875 16.6805
0.0125000 16.6524
0.0128125 16.6254
0.0131250 16.5994
0.0134375 16.5743
0.0137500 16.5500
0.0143750 16.5040
0.0150000 16.4610
0.0156250 16.4206
0.0162500 16.3826
0.0168750 16.3468
0.0175000 16.3129
0.0181250 16.2809
0.0187500 16.2505
0.0193750 16.2216
0.0200000 16.1941
0.0206625 16.1663
0.0213250 16.1399
0.0219875 16.1147
0.0226500 16.0906
0.0233125 16.0676
0.0239750 16.0456
0.0246375 16.0244
0.0253000 16.0041
0.0264578 15.9706
0.0276156 15.9392
0.0287734 15.9097
0.0299313 15.8820
0.0310891 15.8559
0.0322469 15.8312
0.0334047 15.8079
0.0345625 15.7857
0.0355274 15.7681
0.0364922 15.7512
0.0374570 15.7349
0.0384219 15.7193
0.0393867 15.7043
0.0403516 15.6898
0.0413164 15.6758
0.0422813 15.6623
0.0442109 15.6367
0.0461406 15.6127
0.0480703 15.5902
0.0500000 15.5690
0.0515625 15.5527
0.0531250 15.5372
0.0546875 15.5224
0.0562500 15.5082
0.0578125 15.4945
0.0593750 15.4814
0.0609375 15.4689
0.0625000 15.4568
0.0640625 15.4451
0.0656250 15.4339
0.0671875 15.4231
0.0687500 15.4127
0.0718750 15.3928
0.0750000 15.3742
0.0781250 15.3568
0.0812500 15.3403
0.0843750 15.3248
0.0875000 15.3102
0.0906250 15.2963
0.0937500 15.2831
0.0968750 15.2706
0.100000 15.2586
0.103125 15.2472
0.106250 15.2363
0.109375 15.2259
0.112500 15.2160
0.115625 15.2064
0.118750 15.1972
0.121875 15.1884
0.125000 15.1799
0.128125 15.1718
0.131250 15.1639
0.134375 15.1563
0.137500 15.1490
0.143750 15.1351
0.150000 15.1220
0.156250 15.1097
0.162500 15.0982
0.168750 15.0873
0.175000 15.0770
0.181250 15.0672
0.187500 15.0580
0.193750 15.0491
0.200000 15.0407
0.209375 15.0289
0.218750 15.0178
0.228125 15.0073
0.237500 14.9975
0.246875 14.9883
0.256250 14.9796
0.265625 14.9713
0.275000 14.9635
0.284375 14.9560
0.293750 14.9489
0.303125 14.9422
0.312500 14.9357
0.321875 14.9296
0.331250 14.9237
0.340625 14.9180
0.350000 14.9126
0.359375 14.9074
0.368750 14.9024
0.378125 14.8975
0.387500 14.8929
0.396875 14.8884
0.406250 14.8841
0.425000 14.8758
0.443750 14.8681
0.462500 14.8609
0.500000 14.8476
0.531250 14.8376
0.562500 14.8285
0.593750 14.8201
0.625000 14.8123
0.687500 14.7983
0.750000 14.7860
0.812500 14.7752
0.875000 14.7655
0.937500 14.7568
1.00000 14.7488
1.06250 14.7416
1.12500 14.7349
1.18750 14.7288
1.25000 14.7230
1.37500 14.7127
1.50000 14.7037
1.62500 14.6956
1.75000 14.6883
1.87500 14.6817
2.00000 14.6757
2.18750 14.6675
2.37500 14.6602
2.56250 14.6536
2.75000 14.6476
2.93750 14.6421
3.12500 14.6370
3.31250 14.6323
3.50000 14.6278
3.87500 14.6197
4.25000 14.6124
4.62500 14.6058
5.00000 14.5997
5.31250 14.5950
5.62500 14.5905
5.93750 14.5863
6.25000 14.5822
6.87500 14.5746
7.50000 14.5676
8.12500 14.5610
8.75000 14.5548
9.37500 14.5489
10.0000 14.5432
10.6250 14.5378
11.2500 14.5326
11.8750 14.5275
12.5000 14.5226
13.7500 14.5131
15.0000 14.5040
16.2500 14.4952
17.5000 14.4867
18.7500 14.4785
20.0000 14.4704
21.8750 14.4586
23.7500 14.4472
25.6250 14.4360
27.5000 14.4250
29.3750 14.4142
31.2500 14.4036
33.1250 14.3931
35.0000 14.3828
36.8750 14.3726
38.7500 14.3625
42.5000 14.3425
46.2500 14.3230
50.0000 14.3037
53.1250 14.2879
56.2500 14.2722
59.3750 14.2567
62.5000 14.2413
68.7500 14.2110
75.0000 14.1812
78.1250 14.1664
82.8125 14.1445
87.5000 14.1228
93.7500 14.0943
100.000 14.0661
106.250 14.0382
112.500 14.0107
118.750 13.9834
125.000 13.9565
131.250 13.9298
137.500 13.9034
150.000 13.8512
162.500 13.8000
175.000 13.7497
187.500 13.7000
200.000 13.6511
209.375 13.6148
218.750 13.5788
237.500 13.5078
256.250 13.4378
275.000 13.3687
293.750 13.3004
312.500 13.2326
331.250 13.1652
350.000 13.0982
368.750 13.0313
387.500 12.9644
406.250 12.8975
425.000 12.8303
453.125 12.7288
481.250 12.6261
500.000 12.5567
531.250 12.4388
562.500 12.3177
593.750 12.1925
625.000 12.0624
640.625 11.9952
656.250 11.9263
671.875 11.8557
687.500 11.7831
703.125 11.7085
718.750 11.6315
734.375 11.5521
750.000 11.4699
765.625 11.3848
781.250 11.2965
796.875 11.2046
812.500 11.1089
828.125 11.0090
843.750 10.9045
859.375 10.7948
875.000 10.6797
889.649 10.5660
904.297 10.4462
918.945 10.3200
933.594 10.1864
940.918 10.1174
948.242 10.0457
962.891 9.89548
970.215 9.81676
977.539 9.73544
984.863 9.65136
992.188 9.56432
1000.00 9.46799
1011.26 9.32222
1022.52 9.16778
1028.15 9.08736
1033.78 9.00396
1039.41 8.91904
1045.04 8.82981
1050.67 8.73936
1056.30 8.64422
1061.93 8.54707
1067.56 8.44600
1073.20 8.34224
1078.83 8.23409
1084.46 8.12199
1090.09 8.00565
1096.97 7.85698
1103.85 7.70152
1110.73 7.53839
1117.61 7.36656
1124.49 7.18637
1131.37 6.99607
1134.82 6.89741
1138.26 6.79537
1145.14 6.58402
1151.39 6.38058
1154.52 6.27527
1157.65 6.16644
1160.78 6.05565
1163.91 5.94114
1170.16 5.70356
1176.42 5.45175
1179.55 5.32108
1182.67 5.18579
1185.80 5.04791
1188.93 4.90518
1192.06 4.75942
1195.18 4.60893
1198.63 4.43825
1202.07 4.26244
1205.51 4.08127
1208.95 3.89460
1212.39 3.70261
1215.83 3.50509
1219.27 3.30230
1222.71 3.09463
1226.15 2.88205
1229.59 2.66545
1233.03 2.44552
1234.75 2.33465
1236.47 2.22341
1238.19 2.11197
1239.91 2.00063
1241.63 1.88972
1243.35 1.77948
1245.08 1.67021
1246.80 1.56274
1248.52 1.45729
1250.24 1.35435
1253.05 1.19355
1254.46 1.11784
1255.87 1.04616
1257.27 0.978921
1257.98 0.947124
1258.68 0.916865
1259.39 0.888174
1260.09 0.861162
1260.79 0.835952
1261.50 0.812713
1262.04 0.796033
1262.59 0.780712
1263.14 0.766755
1263.69 0.754304
1264.23 0.743433
1264.78 0.734279
1265.33 0.726902
1265.88 0.721400
1266.27 0.718675
1266.66 0.717005
1267.05 0.716432
1267.44 0.717001
1267.83 0.718757
1268.22 0.721746
1268.42 0.723723
1268.61 0.726016
1268.81 0.728656
1269.00 0.731624
1269.23 0.735481
1269.34 0.737597
1269.45 0.739813
1269.57 0.742171
1269.68 0.744631
1269.79 0.747238
1269.90 0.749947
1270.02 0.752912
1270.14 0.756015
1270.21 0.757912
1270.27 0.759829
1270.34 0.761824
1270.41 0.763839
1270.48 0.765934
1270.55 0.768048
1270.69 0.772458
1270.82 0.777073
1270.96 0.781895
1271.10 0.786928
1271.23 0.792175
1271.37 0.797638
1271.51 0.803278
1271.70 0.811793
1271.90 0.820725
1272.09 0.830175
1272.29 0.840053
1272.68 0.861335
1273.07 0.884653
1273.46 0.910096
1273.85 0.937754
1274.24 0.967722
1274.63 1.00010
1274.85 1.01896
1275.06 1.03860
1275.28 1.05903
1275.49 1.08028
1275.71 1.10235
1275.92 1.12528
1276.14 1.14907
1276.35 1.17376
1276.57 1.19935
1276.78 1.22588
1277.00 1.25336
1277.21 1.28181
1277.43 1.31127
1277.64 1.34174
1277.86 1.37327
1278.07 1.40586
1278.29 1.43971
1278.51 1.47453
1278.72 1.51050
1278.94 1.54764
1279.15 1.58599
1279.37 1.62557
1279.58 1.66642
1279.80 1.70856
1280.23 1.79685
1280.66 1.89069
1281.09 1.99038
1281.52 2.09618
1281.95 2.20869
1282.38 2.32769
1282.81 2.45379
1283.24 2.58734
1283.67 2.72872
1284.10 2.87834
1284.53 3.03663
1284.96 3.20403
1285.39 3.38145
1285.82 3.56856
1286.25 3.76632
1286.68 3.97528
1287.11 4.19606
1287.54 4.42930
1287.97 4.67567
1288.40 4.93592
1288.87 5.23715
1289.34 5.55625
1289.81 5.89499
1290.27 6.25463
1290.74 6.63748
1291.21 7.04358
1291.68 7.47519
1292.15 7.93345
1292.54 8.33693
1292.93 8.76117
1293.32 9.20746
1293.72 9.67708
1294.11 10.1714
1294.50 10.6918
1294.89 11.2398
1295.28 11.8170
1295.67 12.4251
1296.06 13.0661
1296.45 13.7417
1296.84 14.4540
1297.23 15.2048
1297.63 15.9964
1298.02 16.8318
1298.41 17.7122
1298.84 18.7439
1299.27 19.8388
1299.70 21.0033
1300.13 22.2426
1300.56 23.5622
1300.99 24.9682
1301.42 26.4672
1301.85 28.0665
1302.28 29.7741
1302.71 31.5987
1303.14 33.5497
1303.57 35.6377
1304.00 37.8743
1304.43 40.2720
1304.86 42.8450
1305.29 45.6086
1305.72 48.5872
1306.15 51.7861
1306.58 55.2328
1307.01 58.9509
1307.44 62.9664
1307.87 67.3086
1308.30 72.0100
1308.73 77.1072
1309.16 82.6544
1309.59 88.6722
1310.02 95.2247
1310.45 102.371
1310.88 110.177
1311.31 118.717
1311.74 128.078
1312.17 138.356
1312.60 149.662
1312.81 155.739
1313.03 162.122
1313.24 168.830
1313.46 175.882
1313.67 183.299
1313.89 191.105
1314.10 199.324
1314.32 207.982
1314.53 217.107
1314.75 226.730
1314.96 236.882
1315.18 247.599
1315.39 258.916
1315.61 270.874
1315.82 283.515
1316.04 296.884
1316.25 311.030
1316.47 326.003
1316.68 341.860
1316.90 358.657
1317.11 376.457
1317.33 395.326
1317.54 415.332
1317.76 436.549
1317.97 459.053
1318.19 482.922
1318.40 508.239
1318.62 535.088
1318.83 563.554
1319.05 593.722
1319.28 627.362
1319.50 662.907
1319.73 700.588
1319.95 740.482
1320.18 782.652
1320.40 827.143
1320.63 873.974
1320.85 923.135
1321.08 974.573
1321.30 1028.19
1321.75 1141.26
1322.20 1260.23
1322.65 1381.69
1322.94 1460.18
1323.24 1536.13
1323.53 1607.78
1323.83 1673.03
1324.12 1730.45
1324.41 1778.07
1324.71 1814.44
1325.00 1838.41
1325.30 1849.62
1325.54 1848.72
1325.79 1839.05
1326.03 1821.07
1326.28 1795.53
1326.52 1763.01
1326.76 1724.51
1327.01 1681.00
1327.25 1633.65
1327.74 1530.30
1328.23 1421.73
1328.71 1312.80
1329.20 1207.75
1329.64 1117.26
1329.87 1074.27
1330.09 1033.07
1330.31 993.319
1330.53 955.392
1330.75 918.935
1330.97 884.256
1331.20 851.007
1331.42 819.303
1331.64 789.095
1331.86 760.454
1332.08 733.062
1332.30 707.106
1332.53 682.291
1332.75 658.781
1332.97 636.007
1333.20 614.346
1333.42 593.739
1333.65 574.129
1333.87 555.463
1334.10 537.689
1334.32 520.758
1334.55 504.623
1335.00 474.569
1335.45 447.201
1335.90 422.233
1336.35 399.457
1336.80 378.545
1337.25 359.351
1337.70 341.699
1338.15 325.432
1338.60 310.413
1339.05 296.520
1339.50 283.646
1339.95 271.693
1340.29 263.028
1340.64 254.829
1340.99 247.067
1341.34 239.734
1341.68 232.757
1342.03 226.128
1342.38 219.818
1342.73 213.825
1343.42 202.635
1344.12 192.465
1344.81 183.181
1345.51 174.682
1345.96 169.555
1346.41 164.699
1346.86 160.094
1347.31 155.724
1347.76 151.571
1348.21 147.622
1349.11 140.282
1350.01 133.607
1350.91 127.517
1351.81 121.944
1352.71 116.828
1353.61 112.120
1354.51 107.775
1355.41 103.756
1356.31 100.028
1357.21 96.5646
1358.11 93.3390
1359.01 90.3302
1359.91 87.5293
1360.81 84.9035
1361.71 82.4304
1362.61 80.1052
1363.51 77.9175
1364.41 75.8554
1365.31 73.9088
1366.21 72.0694
1367.11 70.3287
1368.01 68.6790
1368.91 67.1142
1369.81 65.6282
1370.71 64.2150
1371.61 62.8700
1372.51 61.5887
1373.41 60.3665
1374.31 59.2011
1376.11 57.0205
1377.91 55.0229
1379.71 53.1871
1381.51 51.4951
1383.31 49.9310
1385.11 48.4816
1386.91 47.1350
1388.71 45.8817
1389.93 45.0747
1391.16 44.3048
1393.61 42.8649
1396.07 41.5442
1397.30 40.9253
1398.52 40.3361
1400.98 39.2146
1403.43 38.1772
1405.89 37.2151
1408.34 36.3205
1410.14 35.7050
1411.94 35.1182
1413.74 34.5578
1415.54 34.0262
1417.34 33.5187
1419.14 33.0321
1420.94 32.5686
1422.74 32.1259
1424.54 31.6998
1426.34 31.2922
1429.94 30.5265
1433.54 29.8195
1437.14 29.1638
1440.74 28.5564
1444.34 27.9901
1447.94 27.4616
1451.54 26.9683
1455.14 26.5049
1458.74 26.0703
1462.34 25.6615
1465.94 25.2758
1469.21 24.9442
1472.48 24.6316
1475.75 24.3304
1479.03 24.0466
1482.30 23.7719
1485.57 23.5126
1492.12 23.0243
1498.66 22.5787
1501.93 22.3683
1505.21 22.1680
1508.48 21.9731
1511.75 21.7874
1518.29 21.4345
1525.49 21.0766
1529.09 20.9065
1532.69 20.7441
1539.89 20.4351
1547.09 20.1483
1554.29 19.8792
1561.49 19.6281
1568.69 19.3922
1575.89 19.1698
1580.80 19.0258
1585.71 18.8874
1590.62 18.7542
1595.53 18.6259
1605.34 18.3828
1610.25 18.2675
1615.16 18.1571
1624.98 17.9446
1634.80 17.7453
1644.61 17.5579
1654.43 17.3814
1661.63 17.2590
1668.83 17.1407
1676.03 17.0261
1683.23 16.9169
1697.63 16.7089
1704.83 16.6105
1712.02 16.5155
1726.42 16.3333
1740.82 16.1626
1748.02 16.0805
1755.22 16.0013
1769.62 15.8480
1778.78 15.7547
1787.95 15.6644
1806.27 15.4912
1824.60 15.3271
1842.92 15.1708
1852.09 15.0954
1861.25 15.0224
1879.57 14.8789
1897.90 14.7404
1916.23 14.6065
1937.17 14.4581
1958.11 14.3136
1979.06 14.1723
2000.00 14.0333
2021.99 13.8890
2043.99 13.7457
2068.73 13.5845
2093.47 13.4223
2105.84 13.3406
2118.21 13.2580
2130.58 13.1749
2142.95 13.0903
2155.32 13.0052
2167.69 12.9180
2180.06 12.8299
2192.43 12.7398
2204.80 12.6483
2217.17 12.5542
2229.55 12.4579
2241.92 12.3589
2257.04 12.2336
2272.16 12.1037
2287.28 11.9684
2302.39 11.8264
2317.51 11.6780
2332.63 11.5212
2340.19 11.4399
2347.75 11.3555
2362.87 11.1803
2374.56 11.0368
2386.24 10.8856
2397.92 10.7261
2409.61 10.5572
2415.45 10.4692
2421.29 10.3780
2427.13 10.2847
2432.97 10.1884
2438.82 10.0885
2444.66 9.98519
2450.50 9.87824
2456.34 9.76746
2463.90 9.61775
2471.46 9.46098
2479.02 9.29624
2486.58 9.12248
2494.14 8.93978
2501.70 8.74636
2505.48 8.64580
2509.26 8.54172
2516.82 8.32534
2523.35 8.12712
2529.88 7.91791
2533.14 7.80955
2536.40 7.69709
2539.67 7.58235
2542.93 7.46372
2549.46 7.21649
2555.99 6.95358
2562.52 6.67470
2565.79 6.52838
2569.05 6.37737
2572.83 6.19627
2576.61 6.00834
2580.39 5.81316
2584.17 5.61031
2587.95 5.39965
2591.73 5.18062
2595.51 4.95299
2599.29 4.71661
2603.07 4.47086
2606.85 4.21585
2610.63 3.95138
2612.52 3.81557
2614.41 3.67739
2616.30 3.53703
2618.19 3.39439
2620.08 3.24951
2621.97 3.10269
2623.86 2.95393
2625.75 2.80336
2627.64 2.65133
2629.53 2.49813
2631.76 2.31574
2634.00 2.13277
2636.23 1.94998
2638.46 1.76862
2640.70 1.58990
2642.93 1.41570
2645.16 1.24803
2646.28 1.16750
2647.40 1.08975
2648.43 1.02063
2649.46 0.954525
2650.49 0.892056
2651.01 0.862298
2651.52 0.833674
2652.04 0.806140
2652.55 0.779879
2653.07 0.754867
2653.58 0.731283
2654.10 0.709124
2654.61 0.688568
2655.13 0.669661
2655.64 0.652498
2656.16 0.637159
2656.67 0.623832
2657.19 0.612608
2657.71 0.603670
2658.22 0.597117
2658.74 0.593112
2659.25 0.591787
2659.51 0.592181
2659.77 0.593306
2660.10 0.595898
2660.27 0.597687
2660.43 0.599800
2660.60 0.602270
2660.77 0.605074
2660.93 0.608252
2661.10 0.611774
2661.21 0.614239
2661.31 0.616860
2661.49 0.621401
2661.66 0.626357
2661.83 0.631736
2662.00 0.637510
2662.14 0.642561
2662.28 0.647908
2662.42 0.653556
2662.56 0.659466
2662.84 0.672258
2663.12 0.686324
2663.40 0.701762
2663.68 0.718503
2663.96 0.736646
2664.23 0.756235
2664.71 0.792890
2665.18 0.834003
2665.65 0.880014
2665.89 0.904859
2666.12 0.931008
2666.36 0.958619
2666.60 0.987497
2666.83 1.01780
2667.07 1.04956
2667.31 1.08282
2667.54 1.11763
2667.78 1.15403
2668.01 1.19208
2668.25 1.23197
2668.49 1.27344
2668.72 1.31689
2668.96 1.36199
2669.20 1.40918
2669.43 1.45814
2669.67 1.50909
2669.90 1.56212
2670.14 1.61750
2670.38 1.67485
2670.61 1.73446
2670.85 1.79639
2671.09 1.86099
2671.32 1.92780
2671.56 1.99714
2671.79 2.06910
2672.03 2.14408
2672.27 2.22154
2672.50 2.30185
2672.74 2.38513
2672.98 2.47182
2673.21 2.56130
2673.68 2.75006
2674.16 2.95305
2674.63 3.17030
2675.10 3.40315
2675.57 3.65264
2676.05 3.92043
2676.52 4.20658
2676.99 4.51355
2677.46 4.84142
2677.94 5.19303
2678.41 5.56850
2678.88 5.97111
2679.35 6.40102
2679.83 6.86203
2680.30 7.35435
2680.77 7.88241
2681.24 8.44651
2681.72 9.05179
2682.19 9.69866
2682.66 10.3931
2683.13 11.1358
2683.61 11.9336
2684.08 12.7874
2684.55 13.7055
2685.02 14.6888
2685.50 15.7472
2685.97 16.8820
2686.44 18.1047
2686.91 19.4174
2687.39 20.8336
2687.86 22.3560
2688.33 24.0007
2688.80 25.7715
2689.28 27.6877
2689.75 29.7542
2690.22 31.9942
2690.69 34.4143
2691.17 37.0426
2691.64 39.8878
2692.11 42.9843
2692.58 46.3435
2693.06 50.0075
2693.53 53.9915
2694.00 58.3473
2694.47 63.0952
2694.95 68.2992
2695.42 73.9863
2695.89 80.2360
2696.36 87.0839
2696.60 90.7745
2696.84 94.6295
2697.07 98.6743
2697.31 102.920
2697.54 107.377
2697.78 112.058
2698.02 116.976
2698.25 122.145
2698.49 127.601
2698.73 133.316
2698.96 139.352
2699.20 145.677
2699.44 152.362
2699.67 159.370
2699.91 166.747
2700.14 174.515
2700.38 182.731
2700.62 191.349
2700.85 200.426
2701.09 209.987
2701.33 220.100
2701.56 230.707
2701.80 241.877
2702.03 253.635
2702.29 266.979
2702.54 281.071
2702.80 295.942
2703.05 311.625
2703.30 328.148
2703.56 345.537
2703.81 363.812
2704.06 382.912
2704.32 402.995
2704.57 423.988
2704.83 445.881
2705.08 468.558
2705.59 516.547
2706.09 567.236
2707.07 669.301
2707.56 719.971
2708.05 768.331
2708.29 791.167
2708.54 812.635
2708.78 832.598
2709.02 850.832
2709.27 867.132
2709.51 881.313
2709.76 893.220
2710.00 902.730
2710.39 912.773
2710.78 916.312
2711.10 914.466
2711.42 908.596
2711.74 898.936
2712.05 885.891
2712.37 869.780
2712.69 851.140
2713.00 830.375
2713.32 807.933
2713.96 759.604
2714.59 709.161
2715.23 658.844
2715.86 610.319
2716.26 581.208
2716.66 553.406
2717.05 526.866
2717.45 501.767
2717.85 477.989
2718.25 455.634
2718.64 434.602
2719.04 414.841
2719.32 401.684
2719.60 389.105
2719.88 377.082
2720.15 365.632
2720.43 354.650
2720.71 344.153
2721.27 324.553
2721.83 306.583
2722.38 290.146
2722.94 275.044
2723.50 261.200
2723.88 252.310
2724.27 243.933
2724.65 235.993
2725.03 228.500
2725.42 221.385
2725.80 214.661
2726.18 208.282
2726.57 202.226
2726.95 196.459
2727.33 190.990
2727.72 185.786
2728.10 180.830
2728.48 176.096
2728.87 171.593
2729.63 163.191
2730.40 155.507
2731.17 148.471
2731.93 142.011
2732.70 136.072
2733.47 130.586
2734.23 125.512
2735.00 120.810
2735.77 116.448
2736.36 113.281
2736.95 110.288
2737.54 107.447
2738.14 104.758
2738.73 102.201
2739.32 99.7727
2739.91 97.4577
2740.51 95.2496
2741.69 91.1285
2742.88 87.3677
2744.06 83.9248
2745.24 80.7659
2746.01 78.8546
2746.78 77.0406
2747.55 75.3169
2748.31 73.6794
2749.08 72.1183
2749.84 70.6323
2750.61 69.2128
2751.38 67.8592
2752.91 65.3248
2754.44 63.0038
2755.98 60.8703
2757.51 58.9033
2759.04 57.0838
2760.58 55.3985
2762.11 53.8326
2763.64 52.3745
2765.18 51.0129
2766.71 49.7405
2768.24 48.5485
2769.78 47.4333
2771.31 46.3846
2772.84 45.3932
2774.38 44.4567
2775.91 43.5735
2777.44 42.7373
2778.98 41.9451
2780.51 41.1942
2782.04 40.4812
2783.58 39.8023
2785.11 39.1567
2786.64 38.5418
2788.18 37.9547
2789.71 37.3938
2791.24 36.8584
2792.78 36.3459
2794.31 35.8550
2797.38 34.9336
2800.44 34.0842
2803.51 33.2992
2806.58 32.5721
2809.64 31.8959
2812.71 31.2664
2815.78 30.6783
2818.84 30.1281
2821.07 29.7495
2823.30 29.3880
2825.53 29.0423
2827.76 28.7115
2829.99 28.3943
2832.22 28.0913
2836.68 27.5203
2841.15 26.9917
2845.61 26.5021
2850.07 26.0472
2854.53 25.6233
2857.59 25.3493
2860.66 25.0867
2863.73 24.8347
2866.79 24.5950
2872.93 24.1438
2875.99 23.9322
2879.06 23.7294
2882.13 23.5333
2885.19 23.3452
2891.32 22.9899
2897.46 22.6598
2903.59 22.3514
2910.28 22.0390
2916.97 21.7473
2923.66 21.4757
2930.35 21.2210
2937.04 20.9826
2943.73 20.7580
2950.43 20.5483
2957.12 20.3479
2963.25 20.1759
2969.38 20.0113
2975.52 19.8533
2981.65 19.7044
2993.91 19.4245
3006.18 19.1694
3018.45 18.9333
3030.71 18.7163
3042.98 18.5151
3055.25 18.3273
3067.51 18.1531
3079.78 17.9895
3092.04 17.8361
3104.31 17.6922
3116.58 17.5561
3128.84 17.4278
3141.11 17.3063
3153.38 17.1908
3174.56 17.0049
3195.75 16.8339
3216.94 16.6751
3238.12 16.5281
3259.31 16.3906
3280.50 16.2616
3301.69 16.1400
3322.87 16.0253
3347.41 15.9007
3371.94 15.7828
3396.47 15.6712
3421.00 15.5655
3445.54 15.4645
3470.07 15.3682
3519.13 15.1868
3565.97 15.0262
3612.80 14.8742
3659.64 14.7301
3706.47 14.5916
3753.31 14.4575
3800.14 14.3271
3846.98 14.1987
3893.81 14.0715
3940.64 13.9447
3987.48 13.8170
4034.31 13.6878
4081.15 13.5555
4127.98 13.4193
4174.82 13.2781
4221.65 13.1300
4268.49 12.9740
4317.55 12.7988
4342.09 12.7061
4366.62 12.6093
4391.15 12.5082
4415.68 12.4018
4440.22 12.2899
4464.75 12.1719
4485.94 12.0637
4507.12 11.9496
4528.31 11.8289
4549.50 11.7009
4570.68 11.5647
4591.87 11.4183
4613.06 11.2616
4634.25 11.0924
4658.78 10.8784
4671.04 10.7633
4683.31 10.6419
4695.58 10.5142
4707.84 10.3790
4720.11 10.2357
4732.37 10.0841
4744.08 9.92961
4755.79 9.76568
4767.50 9.59145
4779.21 9.40456
4790.92 9.20444
4802.63 8.99026
4814.34 8.75878
4826.04 8.50952
4832.18 8.37031
4838.31 8.22507
4844.44 8.07326
4850.58 7.91429
4856.71 7.74800
4862.84 7.57351
4868.98 7.39037
4875.11 7.19813
4881.24 6.99563
4887.38 6.78265
4893.51 6.55815
4899.64 6.32102
4905.77 6.07089
4911.91 5.80617
4914.97 5.66824
4918.04 5.52605
4921.11 5.37993
4924.17 5.22975
4928.08 5.03192
4931.98 4.82662
4935.88 4.61367
4939.79 4.39363
4943.69 4.16475
4947.59 3.92760
4951.49 3.68211
4955.40 3.42840
4958.46 3.22330
4961.53 3.01341
4964.60 2.79904
4967.66 2.58073
4970.73 2.35898
4973.80 2.13484
4976.86 1.90937
4978.40 1.79670
4979.93 1.68437
4981.95 1.53723
4983.97 1.39205
4985.99 1.24972
4988.01 1.11127
4990.04 0.977936
4991.05 0.913836
4992.06 0.851823
4993.07 0.792007
4994.08 0.734773
4995.09 0.680298
4996.10 0.629054
4997.07 0.582969
4998.05 0.540704
4999.03 0.502589
4999.51 0.485247
5000.00 0.469158
5000.62 0.450529
5001.24 0.434092
5001.86 0.419993
5002.48 0.408413
5003.10 0.399502
5003.72 0.393484
5004.03 0.391614
5004.34 0.390540
5004.65 0.390288
5004.96 0.390884
5005.19 0.391925
5005.43 0.393480
5005.66 0.395576
5005.90 0.398208
5006.02 0.399821
5006.15 0.401576
5006.35 0.404748
5006.54 0.408321
5006.72 0.411810
5006.89 0.415609
5007.06 0.419769
5007.24 0.424247
5007.41 0.429102
5007.58 0.434285
5007.93 0.445737
5008.18 0.454863
5008.43 0.464776
5008.92 0.487047
5009.42 0.512722
5009.91 0.541922
5010.41 0.574960
5010.90 0.611908
5011.40 0.653134
5011.90 0.698703
5012.44 0.754386
5012.99 0.815968
5013.53 0.883912
5014.08 0.958605
5014.62 1.04062
5014.90 1.08446
5015.17 1.13010
5015.44 1.17792
5015.71 1.22765
5015.99 1.27971
5016.26 1.33378
5016.53 1.39034
5016.80 1.44925
5017.08 1.51059
5017.35 1.57421
5017.62 1.64063
5017.89 1.70947
5018.17 1.78130
5018.44 1.85568
5018.71 1.93327
5018.98 2.01357
5019.26 2.09727
5019.53 2.18386
5019.80 2.27408
5020.07 2.36738
5020.62 2.56497
5021.16 2.77798
5021.71 3.00663
5022.25 3.25235
5022.80 3.51629
5023.34 3.79970
5023.89 4.10390
5024.43 4.43033
5024.98 4.78054
5025.53 5.15690
5026.07 5.55984
5026.62 5.99197
5027.16 6.45540
5027.71 6.95241
5028.25 7.48546
5028.80 8.05722
5029.34 8.67060
5029.89 9.33000
5030.43 10.0364
5030.98 10.7948
5031.52 11.6091
5032.07 12.4855
5032.61 13.4255
5033.16 14.4360
5033.70 15.5227
5034.25 16.6940
5034.79 17.9527
5035.34 19.3083
5035.88 20.7689
5036.43 22.3438
5036.97 24.0427
5037.52 25.8765
5038.06 27.8573
5038.61 30.0023
5039.15 32.3182
5039.70 34.8247
5040.24 37.5393
5040.79 40.4870
5041.34 43.6785
5041.88 47.1422
5042.43 50.9041
5042.97 55.0003
5043.52 59.4472
5044.06 64.2859
5044.61 69.5540
5045.15 75.2923
5045.70 81.5451
5046.24 88.3604
5046.79 95.7897
5047.35 104.246
5047.92 113.494
5048.49 123.605
5049.06 134.649
5049.63 146.697
5050.19 159.817
5050.76 174.070
5051.33 189.474
5051.73 201.005
5052.12 213.104
5052.52 225.829
5052.92 239.104
5053.32 252.976
5053.71 267.341
5054.51 297.494
5055.30 329.004
5056.10 361.041
5056.89 392.513
5057.29 407.615
5057.69 422.078
5058.27 441.623
5058.84 458.904
5059.42 473.443
5060.00 484.851
5060.43 491.189
5060.87 495.543
5061.30 497.895
5061.74 498.274
5062.17 496.752
5062.60 493.435
5063.04 488.464
5063.47 482.017
5063.90 474.243
5064.34 465.364
5065.20 444.963
5066.07 422.239
5066.94 398.421
5067.81 374.471
5068.67 351.079
5069.12 339.346
5069.57 327.958
5070.02 316.898
5070.47 306.237
5070.92 295.941
5071.36 286.064
5071.81 276.583
5072.26 267.496
5072.71 258.777
5073.16 250.458
5073.60 242.507
5074.05 234.912
5074.50 227.643
5074.95 220.721
5075.40 214.113
5075.85 207.806
5076.30 201.707
5076.75 195.901
5077.21 190.348
5077.66 185.059
5078.11 179.997
5078.57 175.174
5079.02 170.565
5079.47 166.159
5080.38 157.906
5081.29 150.346
5082.19 143.407
5083.10 137.034
5084.01 131.156
5084.91 125.730
5085.82 120.712
5086.73 116.067
5087.63 111.751
5088.54 107.741
5089.45 104.001
5090.35 100.515
5091.09 97.8314
5091.84 95.2904
5092.58 92.8832
5093.32 90.5993
5094.06 88.4282
5094.80 86.3612
5095.55 84.3917
5096.29 82.5170
5097.03 80.7266
5097.77 79.0177
5099.26 75.8248
5100.74 72.9023
5102.22 70.2210
5103.13 68.6874
5104.04 67.2279
5104.94 65.8376
5105.85 64.5133
5106.76 63.2480
5107.66 62.0393
5109.48 59.7793
5111.29 57.7058
5113.10 55.7998
5114.92 54.0407
5116.73 52.4147
5118.71 50.7745
5120.69 49.2606
5122.67 47.8589
5124.64 46.5577
5126.62 45.3465
5128.60 44.2184
5130.58 43.1682
5132.56 42.1818
5134.37 41.3297
5136.18 40.5251
5138.00 39.7635
5139.81 39.0429
5141.62 38.3591
5143.44 37.7100
5145.25 37.0928
5147.06 36.5057
5148.88 35.9458
5150.69 35.4122
5152.51 34.9025
5154.32 34.4156
5157.95 33.5037
5161.57 32.6663
5165.20 31.8950
5168.83 31.1822
5172.45 30.5216
5176.08 29.9080
5179.71 29.3363
5183.33 28.8026
5186.96 28.3032
5190.59 27.8351
5193.56 27.4732
5196.52 27.1290
5199.49 26.8011
5202.46 26.4910
5208.39 25.9077
5214.33 25.3736
5220.26 24.8828
5226.20 24.4303
5232.13 24.0120
5238.07 23.6244
5245.32 23.1881
5252.57 22.7866
5259.83 22.4165
5267.08 22.0750
5274.34 21.7574
5281.59 21.4625
5288.84 21.1875
5296.10 20.9299
5304.67 20.6469
5313.24 20.3836
5321.82 20.1383
5330.39 19.9095
5338.96 19.6948
5347.53 19.4952
5356.11 19.3051
5364.68 19.1261
5379.19 18.8471
5393.69 18.5913
5408.20 18.3567
5422.71 18.1417
5437.22 17.9418
5451.72 17.7570
5466.23 17.5848
5480.74 17.4234
5495.25 17.2730
5509.76 17.1311
5538.77 16.8714
5567.79 16.6385
5596.80 16.4278
5625.82 16.2366
5654.83 16.0599
5683.85 15.8965
5712.86 15.7452
5741.88 15.6028
5770.89 15.4694
5828.92 15.2230
5865.85 15.0785
5902.78 14.9413
5939.71 14.8102
5976.64 14.6844
6050.49 14.4455
6124.35 14.2176
6187.65 14.0283
6250.96 13.8412
6308.99 13.6701
6367.02 13.4975
6425.05 13.3219
6483.08 13.1413
6541.11 12.9548
6599.14 12.7595
6657.17 12.5538
6715.20 12.3364
6773.23 12.1027
6831.26 11.8505
6889.30 11.5759
6947.33 11.2743
6976.34 11.1109
7005.36 10.9390
7034.37 10.7571
7063.39 10.5634
7092.40 10.3582
7121.42 10.1383
7150.43 9.90298
7179.45 9.65139
7197.91 9.48040
7216.38 9.30070
7234.84 9.11186
7253.30 8.91474
7271.77 8.70525
7290.23 8.48398
7308.70 8.25013
7327.16 8.00238
7341.67 7.79658
7356.18 7.58115
7370.68 7.35493
7385.19 7.11658
7399.70 6.86653
7414.21 6.60251
7428.71 6.32419
7443.22 6.03124
7455.09 5.77881
7466.96 5.51466
7478.83 5.23836
7490.70 4.94944
7502.57 4.64740
7514.44 4.33180
7526.31 4.00267
7538.18 3.65877
7545.43 3.44167
7552.69 3.21962
7559.94 2.99278
7567.20 2.76145
7574.45 2.52630
7581.70 2.28789
7588.96 2.04724
7596.21 1.80566
7601.49 1.63025
7606.76 1.45606
7612.04 1.28401
7617.31 1.11539
7622.59 0.951412
7625.23 0.871705
7627.86 0.794074
7630.50 0.718619
7633.14 0.645679
7635.78 0.575598
7638.41 0.508680
7640.23 0.464723
7642.04 0.422747
7643.86 0.382811
7645.67 0.345116
7647.48 0.309806
7649.30 0.277119
7651.11 0.247233
7652.92 0.220410
7654.24 0.202951
7655.56 0.187334
7656.88 0.173664
7658.20 0.162039
7659.52 0.152566
7660.18 0.148680
7660.84 0.145395
7661.50 0.142721
7662.16 0.140681
7662.81 0.139286
7663.47 0.138552
7663.89 0.138438
7664.30 0.138595
7664.71 0.139028
7665.12 0.139743
7665.47 0.140578
7665.82 0.141621
7666.17 0.142880
7666.52 0.144351
7667.22 0.147958
7667.92 0.152458
7668.63 0.157891
7669.33 0.164284
7670.03 0.171671
7670.73 0.180071
7671.96 0.197498
7673.20 0.218306
7674.44 0.242685
7675.67 0.270779
7676.91 0.302844
7678.15 0.339102
7679.38 0.379839
7680.62 0.425276
7681.53 0.461740
7682.43 0.500960
7683.34 0.543045
7684.25 0.588055
7685.15 0.636210
7686.06 0.687582
7686.97 0.742301
7687.87 0.800434
7688.78 0.862248
7689.69 0.927825
7690.59 0.997319
7691.50 1.07080
7692.41 1.14860
7693.31 1.23081
7694.22 1.31761
7695.13 1.40910
7695.87 1.48774
7696.61 1.56987
7697.35 1.65560
7698.09 1.74503
7698.84 1.83824
7699.58 1.93534
7700.32 2.03646
7701.06 2.14160
7701.80 2.25121
7702.55 2.36531
7703.29 2.48405
7704.03 2.60742
7704.77 2.73592
7705.51 2.86957
7707.00 3.15282
7707.90 3.33717
7708.81 3.53041
7709.72 3.73292
7710.62 3.94486
7711.53 4.16712
7712.44 4.39993
7713.34 4.64373
7714.25 4.89874
7715.16 5.16602
7716.06 5.44583
7716.97 5.73875
7717.88 6.04501
7718.78 6.36591
7719.69 6.70178
7720.60 7.05329
7721.50 7.42075
7722.41 7.80572
7723.32 8.20861
7724.22 8.63025
7725.13 9.07102
7726.04 9.53282
7726.94 10.0161
7727.85 10.5220
7728.76 11.0509
7729.66 11.6051
7730.57 12.1852
7731.48 12.7926
7732.38 13.4277
7733.29 14.0935
7734.20 14.7906
7735.11 15.5207
7736.01 16.2844
7736.92 17.0852
7737.83 17.9241
7738.73 18.8030
7739.64 19.7229
7740.55 20.6878
7741.45 21.6990
7742.36 22.7590
7743.27 23.8688
7744.17 25.0336
7745.08 26.2548
7745.99 27.5355
7746.89 28.8771
7747.80 30.2858
7748.71 31.7617
7749.61 33.3119
7750.52 34.9364
7751.43 36.6429
7752.33 38.4336
7753.24 40.3129
7754.15 42.2830
7755.05 44.3529
7755.96 46.5256
7756.87 48.8061
7757.77 51.1971
7758.68 53.7093
7759.59 56.3460
7760.49 59.1133
7761.40 62.0138
7762.31 65.0604
7763.21 68.2529
7764.12 71.6049
7765.03 75.1157
7765.94 78.8124
7766.85 82.6867
7767.76 86.7450
7768.67 90.9934
7769.58 95.4378
7770.49 100.085
7771.40 104.944
7772.30 110.017
7773.21 115.324
7774.12 120.860
7775.94 132.602
7777.76 145.248
7779.58 158.781
7780.86 168.791
7782.14 179.183
7784.69 200.959
7787.24 223.637
7789.79 246.524
7791.07 257.780
7792.34 268.730
7793.62 279.249
7794.90 289.201
7796.17 298.454
7797.45 306.882
7798.72 314.374
7800.00 320.832
7801.86 328.258
7803.73 333.185
7805.59 335.594
7807.45 335.566
7808.85 334.052
7810.24 331.371
7811.64 327.642
7813.04 322.996
7814.44 317.567
7815.83 311.488
7818.63 297.863
7821.42 283.067
7824.21 267.898
7827.01 252.785
7828.40 245.386
7829.80 238.143
7831.82 228.010
7833.83 218.307
7835.85 209.062
7837.86 200.294
7839.87 191.994
7841.89 184.160
7843.90 176.779
7845.92 169.835
7847.93 163.300
7849.95 157.157
7851.96 151.382
7853.98 145.955
7855.99 140.849
7858.01 136.045
7860.02 131.525
7862.04 127.282
7864.05 123.280
7866.07 119.494
7868.08 115.917
7870.10 112.540
7872.11 109.345
7874.13 106.322
7876.14 103.458
7878.15 100.745
7880.17 98.1685
7882.18 95.7225
7884.20 93.3980
7886.21 91.1877
7888.23 89.0826
7890.24 87.0781
7892.26 85.1657
7894.27 83.3416
7896.29 81.5989
7898.30 79.9333
7902.33 76.8164
7906.36 73.9566
7910.39 71.3269
7914.42 68.9011
7918.45 66.6591
7922.48 64.5816
7926.51 62.6521
7931.27 60.5431
7936.03 58.6001
7940.79 56.8053
7945.55 55.1433
7950.32 53.6006
7955.08 52.1755
7959.84 50.8343
7964.60 49.5823
7968.63 48.5890
7972.66 47.6465
7976.69 46.7500
7980.72 45.9030
7988.78 44.3284
7996.84 42.9032
8004.90 41.6017
8012.96 40.4139
8021.01 39.3243
8029.07 38.3200
8037.13 37.3948
8045.19 36.5371
8053.25 35.7409
8061.31 35.0011
8069.37 34.3098
8077.43 33.6644
8085.49 33.0600
8093.54 32.4921
8106.00 31.6808
8118.45 30.9404
8130.91 30.2657
8143.36 29.6407
8155.82 29.0641
8168.27 28.5308
8180.73 28.0360
8193.18 27.5760
8209.30 27.0281
8225.41 26.5235
8241.53 26.0589
8257.65 25.6316
8273.77 25.2339
8289.88 24.8658
8306.00 24.5229
8322.12 24.2018
8339.70 23.8766
8357.29 23.5720
8392.45 23.0220
8427.62 22.5374
8462.78 22.1075
8492.09 21.7853
8521.39 21.4899
8550.70 21.2177
8565.35 21.0903
8572.67 21.0282
8574.51 21.0124
8574.96 21.0079
8575.42 21.0022
8575.88 20.9938
8576.11 20.9877
8576.34 20.9795
8576.57 20.9685
8576.79 20.9537
8577.02 20.9339
8577.25 20.9078
8577.48 20.8738
8577.71 20.8304
8577.94 20.7761
8578.17 20.7095
8578.40 20.6296
8578.63 20.5360
8578.86 20.4285
8579.08 20.3080
8579.54 20.0343
8580.00 19.7354
8580.00 18.4942
9290.00 18.1453
10000.0 17.7973
10703.1 17.5831
11406.3 17.3848
12812.5 17.0285
14218.8 16.7153
15625.0 16.4368
17031.3 16.1863
18437.5 15.9591
19843.8 15.7515
21250.0 15.5605
22656.3 15.3838
24062.5 15.2197
26875.0 14.9229
29687.5 14.6606
32500.0 14.4260
35312.5 14.2142
38125.0 14.0214
40937.5 13.8447
43750.0 13.6818
49375.0 13.3901
55000.0 13.1351
60625.0 12.9092
66250.0 12.7067
71875.0 12.5235
77500.0 12.3565
83125.0 12.2032
88750.0 12.0616
100000 11.8079
110000 11.4698
120000 11.1696
130000 10.9004
140000 10.6570
150000 10.4352
160000 10.2319
170000 10.0446
180000 9.87111
190000 9.70976
200000 9.55913
220000 9.28545
240000 9.04242
260000 8.82449
280000 8.62738
300000 8.44784
320000 8.28329
340000 8.13165
369756 7.92617
369800 7.92589
382350 7.84566
394900 7.76883
420000 7.62443
442500 7.45060
465000 7.29434
487500 7.14388
510000 7.00759
532500 6.87147
555000 6.74726
577500 6.63373
600000 6.52980
650000 6.30908
700000 6.11971
750000 5.95620
800000 5.81428
875989 5.66619
951978 5.53794
952020 5.53787
976010 5.49944
1.00000E+06 5.46220
1.03449E+06 5.44772
1.03449E+06 5.44772
1.06142E+06 5.43679
1.06250E+06 5.43636
1.08836E+06 5.42615
1.12500E+06 5.41213
1.14224E+06 5.40572
1.25000E+06 5.36785
1.26040E+06 5.37458
1.26043E+06 5.37461
1.29037E+06 5.39373
1.32032E+06 5.41249
1.38021E+06 5.44896
1.42368E+06 5.47461
1.48398E+06 5.50877
1.50000E+06 5.51806
1.52280E+06 5.54878
1.52284E+06 5.54883
1.52284E+06 5.54884
1.55898E+06 5.59697
1.57822E+06 5.62232
1.57822E+06 5.62232
1.58164E+06 5.62682
1.59512E+06 5.64445
1.60144E+06 5.65268
1.61249E+06 5.66704
1.61653E+06 5.67228
1.63913E+06 5.70141
1.64676E+06 5.71120
1.64968E+06 5.71494
1.65126E+06 5.71695
1.65143E+06 5.71717
1.66737E+06 5.73749
1.66740E+06 5.73753
1.67161E+06 5.74287
1.67582E+06 5.74820
1.68423E+06 5.75884
1.69347E+06 5.77047
1.70108E+06 5.78000
1.70894E+06 5.78981
1.71530E+06 5.79776
1.71531E+06 5.79778
1.72122E+06 5.80515
1.72697E+06 5.81230
1.72934E+06 5.81524
1.73726E+06 5.82505
1.73963E+06 5.82797
1.73963E+06 5.82798
1.74305E+06 5.83219
1.75000E+06 5.84071
1.75052E+06 5.84135
1.75903E+06 5.85192
1.76754E+06 5.86247
1.78456E+06 5.88352
1.78860E+06 5.88843
1.79264E+06 5.89334
1.80072E+06 5.90314
1.81956E+06 5.92559
1.82484E+06 5.93182
1.83368E+06 5.94215
1.83370E+06 5.94218
1.85511E+06 5.96882
1.85511E+06 5.96882
1.85765E+06 5.97197
1.86080E+06 5.97587
1.86084E+06 5.97592
1.86617E+06 5.98251
1.87273E+06 5.99048
1.87929E+06 5.99846
1.89240E+06 6.01441
1.89741E+06 6.02009
1.90241E+06 6.02577
1.91243E+06 6.03716
1.93245E+06 6.06004
1.95248E+06 6.08303
1.97250E+06 6.10613
1.97250E+06 6.10613
1.97738E+06 6.11138
1.98225E+06 6.11664
1.98426E+06 6.11879
1.99213E+06 6.12706
2.00000E+06 6.13541
2.00743E+06 6.14516
2.01486E+06 6.15489
2.02972E+06 6.17430
2.04458E+06 6.19364
2.05944E+06 6.21291
2.06557E+06 6.22078
2.07170E+06 6.22864
2.07823E+06 6.23699
2.08476E+06 6.24532
2.08476E+06 6.24532
2.08979E+06 6.25170
2.09481E+06 6.25806
2.10486E+06 6.27076
2.12496E+06 6.29601
2.12497E+06 6.29602
2.12718E+06 6.29878
2.13241E+06 6.30528
2.13763E+06 6.31176
2.13773E+06 6.31189
2.13863E+06 6.31300
2.13863E+06 6.31300
2.14627E+06 6.32260
2.14627E+06 6.32260
2.15461E+06 6.33304
2.15462E+06 6.33305
2.16225E+06 6.34260
2.16225E+06 6.34260
2.16230E+06 6.34266
2.18142E+06 6.36658
2.20054E+06 6.39018
2.20055E+06 6.39019
2.22527E+06 6.42318
2.25000E+06 6.45566
2.28125E+06 6.49453
2.31250E+06 6.53266
2.37500E+06 6.60677
2.43750E+06 6.67815
2.50000E+06 6.74692
2.56160E+06 6.80056
2.62320E+06 6.85223
2.68660E+06 6.90281
2.75000E+06 6.95150
2.85130E+06 7.03717
2.92565E+06 7.09666
3.00000E+06 7.15386
3.06250E+06 7.17148
3.12500E+06 7.18827
3.18750E+06 7.20425
3.25000E+06 7.21945
3.31250E+06 7.23391
3.37500E+06 7.24764
3.43750E+06 7.26068
3.50000E+06 7.27305
3.56250E+06 7.28832
3.62500E+06 7.30296
3.68750E+06 7.31698
3.75000E+06 7.33040
3.87500E+06 7.35523
4.00000E+06 7.37790
4.06250E+06 7.35703
4.12500E+06 7.33641
4.18750E+06 7.31603
4.25000E+06 7.29588
4.31250E+06 7.27596
4.37500E+06 7.25625
4.43750E+06 7.23675
4.50000E+06 7.21745
4.56250E+06 7.19859
4.62500E+06 7.17994
4.75000E+06 7.14319
4.87500E+06 7.10716
5.00000E+06 7.07181
5.06250E+06 7.02975
5.12500E+06 6.98844
5.18750E+06 6.94783
5.25000E+06 6.90791
5.31250E+06 6.86867
5.37500E+06 6.83007
5.43750E+06 6.79211
5.50000E+06 6.75475
5.50222E+06 6.75344
5.56444E+06 6.71710
5.57981E+06 6.70821
5.62667E+06 6.68132
5.68889E+06 6.64609
5.75111E+06 6.61140
5.87556E+06 6.54358
6.00000E+06 6.47774
6.06250E+06 6.43371
6.12500E+06 6.39055
6.18750E+06 6.34823
6.25000E+06 6.30673
6.31250E+06 6.26601
6.37500E+06 6.22606
6.43750E+06 6.18686
6.50000E+06 6.14838
6.56250E+06 6.11060
6.62500E+06 6.07350
6.68750E+06 6.03706
6.75000E+06 6.00127
6.81250E+06 5.96610
6.87500E+06 5.93153
6.93750E+06 5.89757
7.00000E+06 5.86417
7.09226E+06 5.81413
7.18452E+06 5.76534
7.27677E+06 5.71773
7.36903E+06 5.67128
7.46129E+06 5.62593
7.55355E+06 5.58165
7.64580E+06 5.53839
7.73806E+06 5.49611
7.81565E+06 5.46069
7.86903E+06 5.43671
7.93452E+06 5.40772
8.00000E+06 5.37918
8.06919E+06 5.36375
8.12953E+06 5.34818
8.18987E+06 5.33307
8.22839E+06 5.32366
8.25020E+06 5.31840
8.31054E+06 5.30418
8.37088E+06 5.29039
8.43122E+06 5.27702
8.49155E+06 5.26407
8.55189E+06 5.25153
8.61223E+06 5.23940
8.67257E+06 5.22767
8.73290E+06 5.21633
8.79324E+06 5.20538
8.85358E+06 5.19480
8.91392E+06 5.18460
8.97425E+06 5.17478
9.03459E+06 5.16531
9.09493E+06 5.15156
9.15527E+06 5.13823
9.21561E+06 5.12534
9.27594E+06 5.11286
9.33628E+06 5.10078
9.39662E+06 5.08912
9.45696E+06 5.07785
9.51730E+06 5.06697
9.57763E+06 5.05649
9.63797E+06 5.04638
9.69831E+06 5.03664
9.75865E+06 5.02727
9.81899E+06 5.01827
9.87932E+06 5.00962
9.93966E+06 5.00133
1.00000E+07 4.99338
1.00313E+07 4.99309
1.00625E+07 4.99283
1.00938E+07 4.99261
1.01250E+07 4.99241
1.01563E+07 4.99226
1.01875E+07 4.99213
1.02188E+07 4.99204
1.02500E+07 4.99199
1.02813E+07 4.99196
1.03125E+07 4.99197
1.03750E+07 4.99209
1.04375E+07 4.99233
1.05000E+07 4.99271
1.05625E+07 4.99321
1.06250E+07 4.99383
1.06875E+07 4.99458
1.07500E+07 4.99544
1.08125E+07 4.99643
1.08750E+07 4.99754
1.09375E+07 4.99876
1.10000E+07 5.00010
1.10625E+07 4.99961
1.11250E+07 4.99924
1.11875E+07 4.99900
1.12500E+07 4.99887
1.13125E+07 4.99887
1.13750E+07 4.99898
1.14375E+07 4.99920
1.15000E+07 4.99955
1.15625E+07 5.00000
1.16250E+07 5.00056
1.16875E+07 5.00124
1.17500E+07 5.00202
1.18125E+07 5.00292
1.18750E+07 5.00392
1.19375E+07 5.00503
1.20000E+07 5.00624
1.20625E+07 5.01366
1.21250E+07 5.02109
1.21875E+07 5.02853
1.22500E+07 5.03598
1.23125E+07 5.04343
1.23750E+07 5.05089
1.24375E+07 5.05835
1.25000E+07 5.06582
1.25625E+07 5.07330
1.26250E+07 5.08079
1.26875E+07 5.08828
1.27500E+07 5.09578
1.28125E+07 5.10328
1.28750E+07 5.11079
1.29375E+07 5.11830
1.30000E+07 5.12582
1.30625E+07 5.13335
1.31250E+07 5.14088
1.31875E+07 5.14842
1.32500E+07 5.15596
1.33125E+07 5.16351
1.33750E+07 5.17106
1.34375E+07 5.17862
1.35000E+07 5.18618
1.35625E+07 5.19375
1.36250E+07 5.20132
1.36875E+07 5.20890
1.37500E+07 5.21648
1.38125E+07 5.22407
1.38750E+07 5.23166
1.39375E+07 5.23926
1.40000E+07 5.24686
1.40470E+07 5.25406
1.40939E+07 5.26126
1.41409E+07 5.26846
1.41879E+07 5.27566
1.42348E+07 5.28285
1.42818E+07 5.29004
1.43287E+07 5.29723
1.43757E+07 5.30441
1.44227E+07 5.31160
1.44696E+07 5.31878
1.45166E+07 5.32595
1.45636E+07 5.33313
1.46105E+07 5.34030
1.46575E+07 5.34747
1.47044E+07 5.35464
1.47514E+07 5.36181
1.47514E+07 5.36181
1.48295E+07 5.37336
1.49075E+07 5.38489
1.49856E+07 5.39642
1.50636E+07 5.40794
1.51416E+07 5.41945
1.51653E+07 5.42294
1.52197E+07 5.43095
1.52977E+07 5.44244
1.53757E+07 5.45392
1.54538E+07 5.46539
1.55318E+07 5.47686
1.56098E+07 5.48832
1.56879E+07 5.49976
1.57659E+07 5.51120
1.58439E+07 5.52263
1.59220E+07 5.53405
1.60000E+07 5.54547
1.61250E+07 5.55574
1.62500E+07 5.56598
1.63750E+07 5.57619
1.65000E+07 5.58637
1.66250E+07 5.59651
1.67500E+07 5.60662
1.68750E+07 5.61670
1.70000E+07 5.62674
1.71250E+07 5.63676
1.72500E+07 5.64675
1.73750E+07 5.65670
1.75000E+07 5.66663
1.76250E+07 5.67652
1.77500E+07 5.68639
1.78750E+07 5.69623
1.80000E+07 5.70604
1.81250E+07 5.70861
1.82500E+07 5.71118
1.83750E+07 5.71376
1.85000E+07 5.71634
1.86250E+07 5.71894
1.87500E+07 5.72154
1.88750E+07 5.72414
1.90000E+07 5.72675
1.95000E+07 5.72389
1.97500E+07 5.72250
2.00000E+07 5.72112
2.00000E+07 5.69060
2.02338E+07 5.68877
2.10000E+07 5.67421
2.14922E+07 5.65796
2.17904E+07 5.64551
2.20000E+07 5.63560
2.30000E+07 5.57813
2.32940E+07 5.55828
2.40000E+07 5.50530
2.50000E+07 5.42221
2.56510E+07 5.36312
2.60000E+07 5.32920
2.64644E+07 5.28298
2.70000E+07 5.22947
2.80000E+07 5.12690
2.80773E+07 5.11877
2.81691E+07 5.10914
2.90000E+07 5.02319
3.00000E+07 4.92470
3.01136E+07 4.91396
3.10000E+07 4.83282
3.20000E+07 4.74648
3.30000E+07 4.66505
3.36807E+07 4.61214
3.40000E+07 4.58798
3.45816E+07 4.54498
3.50000E+07 4.51480
3.60000E+07 4.44993
3.65817E+07 4.41755
3.67945E+07 4.40657
3.70000E+07 4.39638
3.79789E+07 4.35286
3.80000E+07 4.35200
3.90000E+07 4.31498
3.90117E+07 4.31459
4.00000E+07 4.28380
4.00049E+07 4.28366
4.09327E+07 4.26090
4.10000E+07 4.25953
4.20000E+07 4.24347
4.30000E+07 4.23474
4.32684E+07 4.23354
4.33289E+07 4.23333
4.40000E+07 4.23257
4.50000E+07 4.23630
4.59328E+07 4.24284
4.60000E+07 4.24337
4.70000E+07 4.25231
4.80000E+07 4.26412
4.90000E+07 4.27969
4.91745E+07 4.28285
5.00000E+07 4.29980
5.10000E+07 4.32238
5.20000E+07 4.34492
5.22247E+07 4.34999
5.23113E+07 4.35195
5.30000E+07 4.36752
5.40000E+07 4.39025
5.50000E+07 4.41320
5.53605E+07 4.42154
5.58675E+07 4.43330
5.60000E+07 4.43638
5.70000E+07 4.45957
5.80000E+07 4.48254
5.89940E+07 4.50491
5.90000E+07 4.50505
5.93350E+07 4.51245
6.00000E+07 4.52690
6.10000E+07 4.54759
6.20000E+07 4.56687
6.25620E+07 4.57718
6.30000E+07 4.58498
6.40000E+07 4.60209
6.50000E+07 4.61840
6.60000E+07 4.63327
6.70000E+07 4.64614
6.80000E+07 4.65732
6.84331E+07 4.66171
6.90000E+07 4.66709
7.00000E+07 4.67570
7.10000E+07 4.68302
7.18420E+07 4.68799
7.20000E+07 4.68880
7.30000E+07 4.69315
7.40000E+07 4.69616
7.50000E+07 4.69790
7.56075E+07 4.69837
7.60000E+07 4.69844
7.70000E+07 4.69780
7.80000E+07 4.69598
7.90000E+07 4.69301
7.95350E+07 4.69095
8.00000E+07 4.68890
8.10000E+07 4.68378
8.20000E+07 4.67776
8.30000E+07 4.67083
8.40000E+07 4.66298
8.50000E+07 4.65420
8.60000E+07 4.64465
8.70000E+07 4.63443
8.80000E+07 4.62353
8.90000E+07 4.61189
9.00000E+07 4.59950
9.10000E+07 4.58645
9.20000E+07 4.57288
9.30000E+07 4.55885
9.40000E+07 4.54441
9.50000E+07 4.52960
9.60000E+07 4.51441
9.70000E+07 4.49881
9.80000E+07 4.48279
9.90000E+07 4.46635
1.00000E+08 4.44950
1.02000E+08 4.41503
1.04000E+08 4.37987
1.06000E+08 4.34405
1.08000E+08 4.30762
1.10000E+08 4.27060
1.12000E+08 4.23328
1.14000E+08 4.19589
1.16000E+08 4.15839
1.18000E+08 4.12073
1.20000E+08 4.08290
1.22000E+08 4.04532
1.24000E+08 4.00830
1.26000E+08 3.97163
1.28000E+08 3.93515
1.30000E+08 3.89870
1.32000E+08 3.86259
1.34000E+08 3.82715
1.36000E+08 3.79233
1.38000E+08 3.75806
1.40000E+08 3.72430
1.42000E+08 3.69113
1.44000E+08 3.65863
1.46000E+08 3.62673
1.48000E+08 3.59537
1.50000E+08 3.56450
