Bi-209(n,tot) ENDFB-8.0
Energy(eV) XS(b)
1.00000E-05 39.7878
1.03125E-05 39.2103
1.06250E-05 38.6588
1.09375E-05 38.1315
1.12500E-05 37.6268
1.15625E-05 37.1430
1.18750E-05 36.6788
1.21875E-05 36.2329
1.25000E-05 35.8042
1.28125E-05 35.3916
1.31250E-05 34.9941
1.34375E-05 34.6109
1.37500E-05 34.2411
1.43750E-05 33.5388
1.50000E-05 32.8819
1.56250E-05 32.2657
1.62500E-05 31.6864
1.68750E-05 31.1403
1.75000E-05 30.6246
1.81250E-05 30.1365
1.87500E-05 29.6738
1.93750E-05 29.2343
2.00000E-05 28.8162
2.09375E-05 28.2256
2.18750E-05 27.6747
2.28125E-05 27.1593
2.37500E-05 26.6758
2.46875E-05 26.2211
2.56250E-05 25.7926
2.65625E-05 25.3879
2.75000E-05 25.0049
2.84375E-05 24.6418
2.93750E-05 24.2971
3.03125E-05 23.9692
3.12500E-05 23.6568
3.21875E-05 23.3589
3.31250E-05 23.0743
3.40625E-05 22.8022
3.50000E-05 22.5417
3.59375E-05 22.2919
3.68750E-05 22.0523
3.78125E-05 21.8222
3.87500E-05 21.6009
3.96875E-05 21.3880
4.06250E-05 21.1830
4.25000E-05 20.7947
4.43750E-05 20.4329
4.62500E-05 20.0948
4.81250E-05 19.7780
5.00000E-05 19.4804
5.15625E-05 19.2459
5.31250E-05 19.0226
5.46875E-05 18.8097
5.62500E-05 18.6064
5.78125E-05 18.4121
5.93750E-05 18.2262
6.09375E-05 18.0481
6.25000E-05 17.8774
6.40625E-05 17.7134
6.56250E-05 17.5559
6.71875E-05 17.4045
6.87500E-05 17.2587
7.18750E-05 16.9830
7.50000E-05 16.7264
7.81250E-05 16.4870
8.12500E-05 16.2631
8.43750E-05 16.0531
8.75000E-05 15.8558
9.06250E-05 15.6699
9.37500E-05 15.4946
9.68750E-05 15.3289
0.000100000 15.1721
0.000103125 15.0233
0.000106250 14.8821
0.000109375 14.7478
0.000112500 14.6200
0.000115625 14.4981
0.000118750 14.3817
0.000121875 14.2706
0.000125000 14.1643
0.000128125 14.0625
0.000131250 13.9650
0.000134375 13.8714
0.000137500 13.7816
0.000143750 13.6122
0.000150000 13.4554
0.000156250 13.3098
0.000162500 13.1741
0.000168750 13.0475
0.000175000 12.9289
0.000181250 12.8178
0.000187500 12.7134
0.000193750 12.6151
0.000200000 12.5224
0.000209375 12.3928
0.000218750 12.2735
0.000228125 12.1632
0.000237500 12.0609
0.000246875 11.9659
0.000256250 11.8773
0.000265625 11.7946
0.000275000 11.7171
0.000284375 11.6445
0.000293750 11.5762
0.000303125 11.5120
0.000312500 11.4513
0.000321875 11.3940
0.000331250 11.3398
0.000340625 11.2885
0.000350000 11.2397
0.000359375 11.1934
0.000368750 11.1493
0.000378125 11.1074
0.000387500 11.0673
0.000396875 11.0291
0.000406250 10.9926
0.000425000 10.9242
0.000443750 10.8614
0.000462500 10.8035
0.000481250 10.7500
0.000500000 10.7004
0.000515625 10.6617
0.000531250 10.6252
0.000546875 10.5907
0.000562500 10.5581
0.000578125 10.5272
0.000593750 10.4979
0.000609375 10.4700
0.000625000 10.4435
0.000640625 10.4182
0.000656250 10.3942
0.000671875 10.3712
0.000687500 10.3492
0.000718750 10.3080
0.000750000 10.2702
0.000781250 10.2353
0.000812500 10.2030
0.000843750 10.1730
0.000875000 10.1451
0.000906250 10.1191
0.000937500 10.0947
0.000968750 10.0719
0.00100000 10.0505
0.00103125 10.0303
0.00106250 10.0113
0.00109375 9.99329
0.00112500 9.97628
0.00115625 9.96016
0.00118750 9.94486
0.00121875 9.93032
0.00125000 9.91648
0.00128125 9.90329
0.00131250 9.89071
0.00134375 9.87869
0.00137500 9.86720
0.00143750 9.84567
0.00150000 9.82587
0.00156250 9.80759
0.00162500 9.79066
0.00168750 9.77495
0.00175000 9.76031
0.00181250 9.74664
0.00187500 9.73384
0.00193750 9.72184
0.00200000 9.71056
0.00209375 9.69485
0.00218750 9.68042
0.00228125 9.66714
0.00237500 9.65485
0.00246875 9.64346
0.00256250 9.63286
0.00265625 9.62298
0.00275000 9.61374
0.00284375 9.60508
0.00293750 9.59694
0.00303125 9.58929
0.00312500 9.58207
0.00321875 9.57525
0.00331250 9.56880
0.00340625 9.56268
0.00350000 9.55688
0.00359375 9.55136
0.00368750 9.54611
0.00378125 9.54110
0.00387500 9.53632
0.00396875 9.53176
0.00406250 9.52740
0.00425000 9.51921
0.00443750 9.51168
0.00462500 9.50473
0.00481250 9.49828
0.00500000 9.49230
0.00515625 9.48762
0.00531250 9.48320
0.00546875 9.47902
0.00562500 9.47505
0.00578125 9.47129
0.00593750 9.46771
0.00609375 9.46430
0.00625000 9.46106
0.00640625 9.45796
0.00656250 9.45500
0.00671875 9.45216
0.00687500 9.44945
0.00718750 9.44436
0.00750000 9.43966
0.00781250 9.43531
0.00812500 9.43127
0.00843750 9.42751
0.00875000 9.42400
0.00906250 9.42071
0.00937500 9.41763
0.00968750 9.41473
0.0100000 9.41200
0.0103125 9.40942
0.0106250 9.40698
0.0109375 9.40467
0.0112500 9.40247
0.0115625 9.40039
0.0118750 9.39841
0.0121875 9.39652
0.0125000 9.39471
0.0128125 9.39299
0.0131250 9.39134
0.0134375 9.38977
0.0137500 9.38825
0.0143750 9.38541
0.0150000 9.38278
0.0156250 9.38035
0.0162500 9.37809
0.0168750 9.37597
0.0175000 9.37400
0.0181250 9.37215
0.0187500 9.37041
0.0193750 9.36877
0.0200000 9.36723
0.0206625 9.36568
0.0213250 9.36422
0.0219875 9.36284
0.0226500 9.36154
0.0233125 9.36030
0.0239750 9.35912
0.0246375 9.35800
0.0253000 9.35693
0.0264578 9.35518
0.0276156 9.35355
0.0287734 9.35205
0.0299313 9.35065
0.0310891 9.34934
0.0322469 9.34812
0.0334047 9.34697
0.0345625 9.34589
0.0355274 9.34504
0.0364922 9.34423
0.0374570 9.34345
0.0384219 9.34271
0.0393867 9.34200
0.0403516 9.34132
0.0413164 9.34067
0.0422813 9.34005
0.0442109 9.33887
0.0461406 9.33778
0.0480703 9.33676
0.0500000 9.33582
0.0515625 9.33510
0.0531250 9.33441
0.0546875 9.33377
0.0562500 9.33315
0.0578125 9.33256
0.0593750 9.33200
0.0609375 9.33146
0.0625000 9.33095
0.0640625 9.33046
0.0656250 9.32998
0.0671875 9.32953
0.0687500 9.32910
0.0718750 9.32828
0.0750000 9.32752
0.0781250 9.32681
0.0812500 9.32614
0.0843750 9.32552
0.0875000 9.32494
0.0906250 9.32439
0.0937500 9.32388
0.0968750 9.32339
0.100000 9.32293
0.103125 9.32249
0.106250 9.32207
0.109375 9.32168
0.112500 9.32130
0.115625 9.32094
0.118750 9.32059
0.121875 9.32026
0.125000 9.31995
0.128125 9.31965
0.131250 9.31936
0.134375 9.31908
0.137500 9.31881
0.143750 9.31830
0.150000 9.31783
0.156250 9.31739
0.162500 9.31697
0.168750 9.31659
0.175000 9.31622
0.181250 9.31588
0.187500 9.31555
0.193750 9.31525
0.200000 9.31495
0.209375 9.31454
0.218750 9.31416
0.228125 9.31381
0.237500 9.31347
0.246875 9.31316
0.256250 9.31286
0.265625 9.31259
0.275000 9.31232
0.284375 9.31207
0.293750 9.31184
0.303125 9.31161
0.312500 9.31140
0.321875 9.31120
0.331250 9.31100
0.340625 9.31082
0.350000 9.31064
0.359375 9.31047
0.368750 9.31030
0.387500 9.30999
0.406250 9.30970
0.425000 9.30943
0.443750 9.30918
0.462500 9.30895
0.500000 9.30852
0.531250 9.30819
0.562500 9.30789
0.593750 9.30762
0.625000 9.30737
0.687500 9.30691
0.750000 9.30650
0.812500 9.30614
0.875000 9.30581
0.937500 9.30552
1.00000 9.30524
1.06250 9.30499
1.12500 9.30475
1.18750 9.30453
1.25000 9.30433
1.37500 9.30394
1.50000 9.30360
1.62500 9.30328
1.75000 9.30298
1.87500 9.30270
2.00000 9.30244
2.18750 9.30208
2.37500 9.30173
2.56250 9.30141
2.75000 9.30110
2.93750 9.30081
3.12500 9.30052
3.31250 9.30025
3.50000 9.29998
3.87500 9.29947
4.25000 9.29898
4.62500 9.29851
5.00000 9.29805
5.31250 9.29768
5.62500 9.29731
5.93750 9.29695
6.25000 9.29659
6.87500 9.29589
7.50000 9.29521
8.12500 9.29453
8.75000 9.29386
9.37500 9.29320
10.0000 9.29255
10.6250 9.29190
11.2500 9.29125
11.8750 9.29061
12.5000 9.28997
13.7500 9.28869
15.0000 9.28743
16.2500 9.28616
17.5000 9.28490
18.7500 9.28365
20.0000 9.28239
21.8750 9.28050
23.7500 9.27862
25.6250 9.27673
27.5000 9.27485
29.3750 9.27295
31.2500 9.27106
33.1250 9.26916
35.0000 9.26725
38.7500 9.26342
42.5000 9.25957
46.2500 9.25569
50.0000 9.25179
53.1250 9.24851
56.2500 9.24521
62.5000 9.23856
68.7500 9.23182
75.0000 9.22499
81.2500 9.21807
87.5000 9.21105
93.7500 9.20393
100.000 9.19671
112.500 9.18196
125.000 9.16677
137.500 9.15112
150.000 9.13497
162.500 9.11830
175.000 9.10109
187.500 9.08330
200.000 9.06489
218.750 9.03605
237.500 9.00561
256.250 8.97342
275.000 8.93929
293.750 8.90303
312.500 8.86442
331.250 8.82318
350.000 8.77901
368.750 8.73157
387.500 8.68044
406.250 8.62511
425.000 8.56502
443.750 8.49948
462.500 8.42765
481.250 8.34851
500.000 8.26083
510.465 8.20751
520.929 8.15072
531.394 8.09014
541.859 8.02537
552.324 7.95594
562.788 7.88133
573.253 7.80108
583.718 7.71396
590.113 7.65690
596.508 7.59698
602.903 7.53380
609.298 7.46687
615.693 7.39635
622.088 7.32138
628.483 7.24183
634.878 7.15754
640.692 7.07575
646.506 6.98905
652.319 6.89715
658.133 6.79943
663.947 6.69473
669.761 6.58299
675.574 6.46374
681.388 6.33616
684.586 6.26172
687.783 6.18436
690.981 6.10383
694.178 6.01985
697.376 5.93251
700.573 5.84137
703.771 5.74637
706.968 5.64748
710.166 5.54417
713.363 5.43668
716.561 5.32472
719.758 5.20808
722.956 5.08711
726.154 4.96155
727.752 4.89724
729.351 4.83178
730.950 4.76550
732.549 4.69839
734.438 4.61800
736.328 4.53680
738.217 4.45513
740.106 4.37323
741.996 4.29164
743.885 4.21099
745.775 4.13207
747.664 4.05587
749.118 3.99991
750.571 3.94704
752.025 3.89811
753.478 3.85421
754.931 3.81665
756.385 3.78696
757.838 3.76703
759.292 3.75924
760.600 3.76505
761.908 3.78564
763.216 3.82417
764.524 3.88446
765.178 3.92409
765.832 3.97124
766.486 4.02630
767.140 4.08992
767.794 4.16248
768.448 4.24688
769.102 4.34370
769.756 4.45400
770.556 4.60938
771.355 4.79036
772.155 5.00061
772.954 5.24444
773.753 5.52686
774.153 5.68435
774.553 5.85378
774.952 6.03605
775.352 6.23216
775.752 6.44317
776.152 6.67026
776.769 7.05584
777.387 7.48820
778.005 7.97347
778.622 8.51865
778.931 8.81612
779.240 9.13123
779.549 9.46524
779.858 9.81961
780.167 10.1966
780.475 10.5977
780.784 11.0246
781.093 11.4787
781.493 12.1103
781.893 12.7958
782.292 13.5405
782.692 14.3504
783.092 15.2323
783.491 16.1938
783.891 17.2435
784.291 18.3907
784.690 19.6471
785.090 21.0250
785.490 22.5385
785.889 24.2042
786.289 26.0407
786.689 28.0697
787.089 30.3163
787.288 31.5298
787.488 32.8089
787.688 34.1586
787.888 35.5824
788.088 37.0869
788.288 38.6760
788.487 40.3574
788.687 42.1360
788.887 44.0208
789.087 46.0175
789.287 48.1366
789.487 50.3853
789.687 52.7758
789.886 55.3170
790.086 58.0233
790.286 60.9054
790.486 63.9790
790.686 67.2598
790.940 71.7643
791.194 76.6720
791.449 82.0288
791.703 87.8867
791.958 94.3138
792.212 101.376
792.466 109.158
792.721 117.745
792.920 125.130
793.120 133.132
793.320 141.827
793.520 151.279
793.720 161.581
793.920 172.818
794.120 185.109
794.319 198.561
794.519 213.327
794.719 229.547
794.919 247.415
795.119 267.113
795.319 288.888
795.419 300.624
795.518 312.976
795.618 325.980
795.718 339.677
795.818 354.107
795.918 369.315
796.018 385.363
796.118 402.269
796.218 420.099
796.318 438.906
796.418 458.765
796.518 479.696
796.618 501.774
796.717 525.060
796.817 549.639
796.917 575.521
797.017 602.790
797.117 631.501
797.217 661.707
797.317 693.455
797.417 726.784
797.517 761.725
797.626 801.934
797.736 844.067
797.845 888.177
797.955 934.124
798.174 1031.27
798.393 1134.14
798.831 1347.17
799.050 1449.90
799.160 1498.25
799.269 1543.75
799.452 1611.51
799.543 1640.79
799.635 1666.56
799.726 1688.56
799.817 1706.49
799.909 1720.17
800.000 1729.47
800.146 1735.04
800.265 1731.12
800.384 1719.85
800.502 1701.59
800.621 1676.82
800.740 1646.16
800.859 1610.35
800.977 1570.13
801.096 1526.30
801.334 1430.82
801.571 1329.77
801.808 1227.86
802.046 1128.77
802.173 1077.83
802.300 1028.68
802.426 981.408
802.553 936.208
802.680 893.066
802.807 852.067
802.934 813.131
803.061 776.281
803.188 741.400
803.314 708.472
803.441 677.363
803.568 648.037
803.695 620.358
803.822 594.278
803.949 569.666
804.075 546.475
804.208 523.595
804.341 502.080
804.474 481.824
804.606 462.744
804.739 444.761
804.872 427.802
805.004 411.798
805.137 396.684
805.270 382.402
805.403 368.896
805.535 356.114
805.668 344.009
805.801 332.536
805.933 321.654
806.066 311.325
806.199 301.515
806.464 283.312
806.730 266.824
806.995 251.843
807.260 238.194
807.526 225.725
807.791 214.307
808.057 203.826
808.322 194.182
808.636 183.744
808.949 174.233
809.263 165.541
809.577 157.581
809.890 150.271
810.204 143.542
810.518 137.327
810.831 131.574
811.097 127.030
811.362 122.762
811.628 118.747
811.893 114.965
812.159 111.399
812.424 108.031
812.689 104.848
812.955 101.835
813.220 98.9796
813.486 96.2722
813.751 93.7015
814.016 91.2584
814.547 86.7210
815.078 82.5999
815.609 78.8434
816.140 75.4096
816.671 72.2601
817.201 69.3643
817.732 66.6938
818.263 64.2257
818.794 61.9390
819.325 59.8154
819.759 58.1879
820.193 56.6524
820.628 55.2032
821.062 53.8339
821.496 52.5343
821.931 51.2985
822.365 50.1240
822.799 49.0073
823.234 47.9442
823.668 46.9318
824.537 45.0449
825.405 43.3232
826.274 41.7470
826.805 40.8479
827.335 39.9936
827.866 39.1806
828.397 38.4066
828.928 37.6686
829.459 36.9645
830.520 35.6494
831.582 34.4457
832.644 33.3404
833.706 32.3225
834.767 31.3826
835.925 30.4362
837.084 29.5635
838.242 28.7564
839.400 28.0082
840.558 27.3128
841.716 26.6651
842.874 26.0640
844.032 25.4981
845.094 25.0113
846.156 24.5512
847.218 24.1156
848.279 23.7046
849.341 23.3148
850.402 22.9442
852.526 22.2588
854.649 21.6365
856.772 21.0705
858.896 20.5532
861.019 20.0783
863.142 19.6419
865.266 19.2387
867.389 18.8654
869.512 18.5193
871.636 18.1968
873.759 17.8962
875.882 17.6153
878.006 17.3519
881.287 16.9764
884.569 16.6346
887.850 16.3237
891.132 16.0364
894.413 15.7719
897.695 15.5277
900.976 15.3015
904.258 15.0914
908.504 14.8415
912.751 14.6118
916.998 14.4007
921.244 14.2066
925.491 14.0264
929.737 13.8596
933.984 13.7045
938.231 13.5594
942.863 13.4124
947.496 13.2750
956.762 13.0269
966.027 12.8086
975.292 12.6150
981.469 12.4975
987.646 12.3881
1000.00 12.1906
1008.79 12.0650
1017.58 11.9502
1026.37 11.8443
1035.16 11.7463
1052.74 11.5707
1070.31 11.4177
1091.80 11.2557
1113.28 11.1148
1134.77 10.9907
1156.25 10.8802
1179.69 10.7723
1203.13 10.6751
1226.56 10.5870
1250.00 10.5053
1292.97 10.3710
1335.94 10.2509
1378.91 10.1407
1421.88 10.0376
1484.38 9.89511
1500.00 9.86025
1542.97 9.76476
1585.94 9.66851
1628.91 9.56986
1671.88 9.46709
1710.94 9.36826
1750.00 9.26296
1791.02 9.14272
1832.03 9.01031
1873.05 8.86207
1914.06 8.69340
1935.55 8.59477
1957.03 8.48780
1978.52 8.37127
2000.00 8.24366
2021.17 8.10507
2042.33 7.95207
2063.49 7.78261
2074.08 7.69110
2084.66 7.59431
2097.59 7.46865
2110.52 7.33462
2123.46 7.19211
2136.39 7.04137
2148.74 6.89076
2154.91 6.81373
2161.08 6.73611
2167.26 6.65860
2173.43 6.58207
2179.60 6.50798
2185.77 6.43781
2191.07 6.38294
2196.36 6.33506
2201.65 6.29698
2206.94 6.27250
2213.41 6.26875
2216.64 6.28135
2219.87 6.30651
2223.11 6.34665
2226.34 6.40544
2229.57 6.48680
2232.81 6.59557
2235.31 6.70274
2237.80 6.83379
2240.30 6.99317
2242.80 7.18600
2245.30 7.41877
2247.80 7.69588
2249.05 7.85636
2250.30 8.03252
2251.55 8.22584
2252.79 8.43804
2254.41 8.74399
2256.03 9.08963
2257.65 9.48051
2259.26 9.92283
2260.88 10.4247
2262.49 10.9945
2264.11 11.6434
2264.92 12.0010
2265.73 12.3831
2267.20 13.1478
2267.93 13.5671
2268.67 14.0135
2269.40 14.4891
2270.14 14.9960
2270.87 15.5368
2271.61 16.1134
2272.34 16.7301
2273.08 17.3894
2273.81 18.0948
2274.55 18.8502
2275.28 19.6591
2276.02 20.5247
2276.75 21.4527
2277.49 22.4506
2278.29 23.6404
2279.10 24.9303
2279.91 26.3338
2280.72 27.8589
2281.53 29.5228
2282.34 31.3363
2283.14 33.3183
2283.95 35.4879
2284.76 37.8699
2285.57 40.4832
2286.38 43.3624
2287.19 46.5325
2288.00 50.0383
2288.80 53.9131
2289.61 58.2093
2290.02 60.5323
2290.42 62.9821
2290.82 65.5733
2291.23 68.3019
2291.63 71.1837
2292.04 74.2287
2292.44 77.4476
2292.84 80.8521
2293.25 84.4545
2293.65 88.2680
2294.06 92.3170
2294.46 96.5966
2294.87 101.132
2295.27 105.942
2295.67 111.042
2296.08 116.453
2296.48 122.194
2296.89 128.287
2297.28 134.654
2297.68 141.405
2298.08 148.563
2298.48 156.151
2298.88 164.190
2299.27 172.705
2299.67 181.717
2300.07 191.223
2300.47 201.290
2300.86 211.911
2301.26 223.100
2301.66 234.836
2302.06 247.180
2302.46 260.100
2303.25 287.563
2304.09 318.882
2304.94 351.814
2305.78 385.347
2306.63 418.126
2307.05 433.751
2307.47 448.540
2307.89 462.247
2308.31 474.634
2308.74 485.474
2309.16 494.568
2309.58 501.747
2310.00 506.877
2310.56 510.442
2311.13 510.218
2311.58 507.322
2312.04 502.152
2312.50 494.898
2312.95 485.793
2313.41 475.096
2313.87 463.075
2314.78 436.159
2316.61 377.621
2317.52 348.721
2317.98 334.779
2318.44 321.270
2319.14 301.544
2319.84 283.058
2320.53 265.796
2321.23 249.795
2321.93 234.968
2322.63 221.299
2323.33 208.695
2324.03 197.082
2324.72 186.486
2325.41 176.716
2326.10 167.702
2326.79 159.378
2327.48 151.687
2328.17 144.571
2328.86 137.981
2329.55 131.878
2330.49 124.242
2331.44 117.325
2332.38 111.047
2333.32 105.342
2334.26 100.130
2335.20 95.3518
2336.15 90.9692
2337.09 86.9413
2337.78 84.1907
2338.47 81.5981
2339.85 76.8406
2341.23 72.5863
2342.62 68.7691
2344.00 65.3258
2345.38 62.2128
2346.76 59.3848
2348.14 56.8109
2349.52 54.4577
2350.91 52.3016
2352.29 50.3206
2353.67 48.4971
2355.05 46.8119
2356.43 45.2531
2357.81 43.8060
2359.19 42.4616
2361.46 40.4553
2363.72 38.6666
2365.98 37.0534
2368.24 35.5948
2370.50 34.2723
2372.76 33.0688
2375.02 31.9698
2377.28 30.9634
2380.05 29.8429
2382.81 28.8281
2385.57 27.9054
2388.33 27.0637
2391.10 26.2923
2393.86 25.5841
2399.39 24.3287
2405.42 23.1613
2411.45 22.1623
2417.47 21.2991
2423.50 20.5479
2429.03 19.9395
2434.56 19.3940
2440.08 18.9038
2445.61 18.4627
2451.14 18.0608
2456.66 17.6958
2467.72 17.0549
2478.77 16.5124
2489.82 16.0470
2500.88 15.6433
2511.93 15.2902
2530.01 14.8008
2548.10 14.3941
2566.19 14.0510
2584.28 13.7579
2606.38 13.4541
2628.49 13.1962
2650.59 12.9742
2672.70 12.7813
2696.82 12.5978
2720.93 12.4371
2769.16 12.1687
2813.38 11.9695
2857.59 11.8027
2901.80 11.6607
2946.01 11.5381
2990.23 11.4312
3034.44 11.3366
3078.65 11.2522
3122.86 11.1762
3163.06 11.1134
3203.25 11.0554
3225.36 11.0254
3247.46 10.9967
3258.52 10.9827
3269.57 10.9690
3280.62 10.9556
3291.67 10.9424
3300.72 10.9319
3305.24 10.9267
3309.76 10.9216
3314.28 10.9165
3316.54 10.9140
3318.80 10.9116
3321.07 10.9092
3323.33 10.9069
3325.59 10.9046
3327.85 10.9025
3329.36 10.9012
3330.86 10.9000
3332.37 10.8989
3333.88 10.8981
3335.38 10.8976
3336.14 10.8976
3336.89 10.8978
3337.65 10.8982
3338.40 10.8989
3339.15 10.9001
3339.91 10.9018
3340.47 10.9038
3341.04 10.9065
3341.60 10.9102
3342.17 10.9154
3342.73 10.9230
3343.02 10.9281
3343.30 10.9345
3343.58 10.9428
3343.86 10.9541
3344.00 10.9616
3344.15 10.9710
3344.29 10.9832
3344.43 10.9995
3344.55 11.0193
3344.68 11.0463
3344.81 11.0835
3344.93 11.1348
3344.99 11.1679
3345.06 11.2069
3345.12 11.2529
3345.18 11.3061
3345.24 11.3696
3345.31 11.4441
3345.37 11.5312
3345.43 11.6309
3345.50 11.7486
3345.56 11.8848
3345.62 12.0419
3345.68 12.2223
3345.75 12.4286
3345.81 12.6636
3345.87 12.9299
3345.94 13.2253
3346.00 13.5620
3346.06 13.9381
3346.12 14.3562
3346.19 14.8106
3346.25 15.3181
3346.31 15.8731
3346.38 16.4767
3346.44 17.1186
3346.49 17.6708
3346.54 18.2414
3346.59 18.8405
3346.63 19.4671
3346.68 20.1200
3346.73 20.7974
3346.83 22.2176
3346.93 23.7078
3347.03 25.2428
3347.22 28.3217
3347.31 29.5741
3347.39 30.7482
3347.47 31.8493
3347.55 32.8285
3347.64 33.7170
3347.72 34.4428
3347.77 34.7453
3347.81 34.9933
3347.87 35.2684
3347.92 35.3919
3347.96 35.4666
3348.00 35.4920
3348.04 35.4754
3348.08 35.4081
3348.12 35.2794
3348.18 35.0249
3348.23 34.7591
3348.28 34.4443
3348.36 33.7286
3348.45 32.8649
3348.53 31.9034
3348.61 30.8494
3348.69 29.7121
3348.77 28.5127
3348.96 25.4580
3349.06 23.9364
3349.16 22.4546
3349.25 21.0378
3349.30 20.3534
3349.35 19.7062
3349.40 19.0709
3349.45 18.4747
3349.50 17.8940
3349.54 17.3531
3349.60 16.7681
3349.65 16.2204
3349.71 15.7099
3349.76 15.2361
3349.82 14.7984
3349.87 14.3955
3349.93 14.0263
3349.98 13.6893
3350.04 13.3829
3350.09 13.1054
3350.15 12.8549
3350.20 12.6297
3350.26 12.4279
3350.31 12.2478
3350.37 12.0874
3350.42 11.9476
3350.53 11.7104
3350.64 11.5269
3350.75 11.3864
3350.86 11.2797
3350.97 11.1991
3351.08 11.1386
3351.19 11.0931
3351.30 11.0591
3351.44 11.0278
3351.57 11.0054
3351.71 10.9887
3351.84 10.9760
3351.98 10.9659
3352.11 10.9578
3352.38 10.9452
3352.66 10.9356
3352.93 10.9281
3353.20 10.9218
3353.47 10.9166
3354.01 10.9082
3354.55 10.9019
3355.09 10.8969
3355.63 10.8928
3356.24 10.8891
3356.85 10.8860
3357.46 10.8833
3358.07 10.8811
3359.28 10.8773
3360.50 10.8742
3361.72 10.8715
3362.93 10.8692
3364.15 10.8671
3365.37 10.8651
3367.26 10.8623
3369.15 10.8597
3371.05 10.8573
3372.94 10.8549
3374.84 10.8527
3376.73 10.8504
3380.51 10.8462
3384.30 10.8420
3388.09 10.8379
3391.87 10.8339
3395.66 10.8299
3401.34 10.8241
3407.02 10.8183
3418.38 10.8069
3429.74 10.7958
3441.10 10.7849
3463.82 10.7635
3486.54 10.7427
3521.16 10.7122
3590.40 10.6544
3659.64 10.6003
3798.12 10.5004
3971.22 10.3848
4118.36 10.2891
4191.92 10.2404
4265.49 10.1899
4291.46 10.1715
4317.42 10.1528
4340.14 10.1360
4351.50 10.1274
4362.86 10.1188
4374.22 10.1100
4385.58 10.1012
4396.94 10.0923
4402.62 10.0879
4408.30 10.0834
4412.09 10.0805
4415.87 10.0776
4419.66 10.0747
4423.44 10.0720
4427.23 10.0694
4429.12 10.0682
4431.02 10.0671
4432.91 10.0661
4434.80 10.0653
4436.70 10.0648
4438.59 10.0647
4439.88 10.0649
4441.16 10.0655
4442.45 10.0667
4443.73 10.0687
4445.01 10.0720
4445.66 10.0743
4446.30 10.0773
4446.94 10.0810
4447.58 10.0859
4448.23 10.0924
4448.87 10.1012
4449.38 10.1104
4449.88 10.1226
4450.39 10.1391
4450.64 10.1499
4450.90 10.1629
4451.15 10.1792
4451.41 10.2005
4451.66 10.2299
4451.79 10.2493
4451.91 10.2730
4452.04 10.3030
4452.17 10.3411
4452.29 10.3902
4452.42 10.4533
4452.55 10.5361
4452.67 10.6443
4452.80 10.7853
4452.93 10.9669
4453.02 11.1259
4453.10 11.3154
4453.19 11.5402
4453.28 11.8022
4453.37 12.1130
4453.46 12.4758
4453.55 12.8965
4453.64 13.3754
4453.73 13.9293
4453.81 14.5587
4453.90 15.2687
4453.99 16.0539
4454.08 16.9353
4454.17 17.9062
4454.26 18.9665
4454.35 20.1009
4454.43 21.2742
4454.52 22.5182
4454.60 23.8253
4454.69 25.1694
4454.85 27.9836
4455.02 30.8454
4455.12 32.3907
4455.21 33.8826
4455.30 35.2951
4455.39 36.5884
4455.49 37.7657
4455.58 38.7886
4455.64 39.3917
4455.71 39.8982
4455.80 40.4724
4455.87 40.7812
4455.95 40.9623
4456.00 40.9961
4456.08 40.9259
4456.14 40.7555
4456.22 40.4062
4456.31 39.8049
4456.38 39.2082
4456.45 38.5148
4456.56 37.2596
4456.67 35.8106
4456.76 34.4521
4456.85 33.0221
4457.03 30.0029
4457.21 26.9112
4457.30 25.4061
4457.40 23.9465
4457.49 22.5319
4457.58 21.2053
4457.67 19.9600
4457.76 18.8026
4457.86 17.6811
4457.95 16.6736
4458.05 15.7582
4458.14 14.9514
4458.24 14.2317
4458.33 13.6083
4458.43 13.0615
4458.52 12.5956
4458.62 12.1932
4458.72 11.8552
4458.81 11.5673
4458.91 11.3286
4459.00 11.1276
4459.10 10.9627
4459.19 10.8264
4459.29 10.7141
4459.39 10.6174
4459.49 10.5388
4459.59 10.4748
4459.69 10.4233
4459.79 10.3807
4459.89 10.3460
4460.08 10.2931
4460.28 10.2555
4460.48 10.2280
4460.68 10.2067
4460.88 10.1898
4461.28 10.1639
4461.68 10.1448
4462.08 10.1299
4462.47 10.1181
4463.07 10.1041
4463.67 10.0935
4464.27 10.0851
4464.86 10.0783
4465.46 10.0727
4466.06 10.0680
4467.25 10.0605
4468.45 10.0547
4469.64 10.0502
4470.84 10.0464
4472.03 10.0432
4473.69 10.0395
4475.35 10.0363
4477.01 10.0334
4478.67 10.0309
4480.33 10.0285
4481.99 10.0263
4485.31 10.0222
4488.63 10.0183
4491.95 10.0147
4495.27 10.0111
4498.59 10.0077
4503.90 10.0022
4509.22 9.99683
4514.53 9.99148
4519.84 9.98613
4530.46 9.97538
4541.09 9.96449
4562.33 9.94207
4583.58 9.91866
4592.08 9.90896
4619.70 9.87592
4647.32 9.84015
4674.94 9.80132
4702.56 9.75867
4749.30 9.67508
4772.67 9.62650
4796.04 9.57206
4819.41 9.51029
4842.78 9.43942
4866.15 9.35706
4889.52 9.25973
4912.89 9.14218
4924.58 9.07365
4936.26 8.99700
4947.95 8.91055
4959.63 8.81227
4971.32 8.69949
4983.00 8.56859
4991.50 8.45926
5000.00 8.33549
5007.25 8.21585
5014.50 8.08089
5021.75 7.92765
5028.99 7.75162
5033.68 7.62323
5038.37 7.48143
5043.06 7.32408
5047.75 7.14862
5052.23 6.96141
5056.71 6.75171
5061.19 6.51578
5065.66 6.24970
5070.35 5.93324
5072.70 5.75921
5075.04 5.57426
5077.60 5.36022
5080.16 5.13494
5082.72 4.90192
5085.27 4.66898
5086.87 4.52983
5088.47 4.40286
5090.07 4.29810
5090.87 4.25869
5091.67 4.23136
5092.52 4.21930
5093.11 4.22390
5093.70 4.24139
5094.28 4.27431
5094.87 4.32573
5095.46 4.39953
5096.04 4.49996
5096.63 4.63264
5096.92 4.71312
5097.21 4.80430
5097.61 4.94804
5098.01 5.11693
5098.41 5.31465
5098.81 5.54493
5099.21 5.81399
5099.41 5.96470
5099.61 6.12730
5099.81 6.30269
5100.01 6.49188
5100.21 6.69595
5100.41 6.91493
5100.71 7.27025
5101.00 7.66618
5101.29 8.10900
5101.58 8.60460
5101.88 9.15974
5102.17 9.78218
5102.32 10.1226
5102.46 10.4809
5102.61 10.8633
5102.76 11.2662
5102.90 11.6965
5103.05 12.1533
5103.20 12.6383
5103.34 13.1501
5103.49 13.6976
5103.64 14.2756
5103.78 14.8946
5103.93 15.5488
5104.08 16.2500
5104.22 16.9918
5104.37 17.7876
5104.52 18.6303
5104.66 19.5353
5104.81 20.4946
5104.96 21.5260
5105.10 22.6203
5105.22 23.5267
5105.33 24.4731
5105.44 25.4699
5105.55 26.5202
5105.67 27.6373
5105.78 28.8049
5105.89 30.0361
5106.01 31.3348
5106.12 32.7173
5106.23 34.1637
5106.35 35.6902
5106.46 37.3014
5106.57 39.0177
5106.69 40.8142
5106.80 42.7108
5106.91 44.7130
5107.06 47.4851
5107.21 50.4377
5107.35 53.6245
5107.50 57.0156
5107.65 60.6709
5107.79 64.5540
5107.94 68.7311
5108.09 73.1573
5108.24 78.2047
5108.40 83.5560
5108.55 89.2886
5108.71 95.3342
5108.86 101.772
5109.02 108.514
5109.17 115.639
5109.33 123.037
5109.57 135.322
5109.82 148.206
5110.31 174.977
5110.55 188.338
5110.80 201.264
5111.04 213.408
5111.29 224.378
5111.47 231.484
5111.64 237.704
5111.82 242.939
5112.00 247.109
5112.13 249.512
5112.27 251.264
5112.40 252.359
5112.54 252.796
5112.68 252.548
5112.83 251.564
5112.97 249.877
5113.11 247.544
5113.26 244.581
5113.40 241.054
5113.69 232.580
5113.98 222.550
5114.27 211.525
5114.56 199.927
5114.85 188.152
5115.05 180.191
5115.24 172.380
5115.44 164.784
5115.64 157.487
5115.83 150.452
5116.03 143.771
5116.23 137.391
5116.42 131.381
5116.62 125.678
5116.82 120.307
5117.01 115.256
5117.21 110.536
5117.41 106.084
5117.60 101.930
5117.80 98.0128
5118.00 94.3579
5118.35 88.2530
5118.71 82.8235
5119.07 77.9566
5119.43 73.6065
5119.78 69.6851
5120.14 66.1591
5120.50 62.9695
5120.86 60.0756
5121.25 57.1898
5121.64 54.5794
5122.03 52.2102
5122.43 50.0528
5122.82 48.0823
5123.21 46.2770
5123.61 44.6186
5124.00 43.0909
5124.43 41.5563
5124.86 40.1454
5125.29 38.8448
5125.72 37.6429
5126.14 36.5296
5126.57 35.4958
5127.43 33.6365
5128.22 32.1389
5129.00 30.8093
5129.79 29.6209
5130.58 28.5533
5131.36 27.5899
5132.15 26.7166
5132.93 25.9220
5133.72 25.1961
5134.51 24.5300
5135.29 23.9183
5136.87 22.8321
5138.44 21.8977
5140.01 21.0869
5141.15 20.5614
5142.30 20.0825
5144.59 19.2432
5146.87 18.5299
5149.16 17.9172
5152.30 17.2045
5155.45 16.6090
5158.59 16.1044
5161.74 15.6715
5164.88 15.2963
5168.03 14.9681
5171.17 14.6786
5174.32 14.4219
5180.61 13.9854
5186.90 13.6285
5193.19 13.3315
5199.48 13.0806
5205.77 12.8658
5212.06 12.6799
5218.35 12.5173
5224.64 12.3739
5233.79 12.1932
5242.94 12.0392
5252.09 11.9058
5261.23 11.7894
5273.81 11.6515
5286.39 11.5339
5298.97 11.4323
5311.55 11.3436
5326.42 11.2523
5341.29 11.1727
5371.02 11.0406
5396.18 10.9497
5421.34 10.8729
5446.50 10.8069
5471.66 10.7494
5501.40 10.6903
5531.13 10.6386
5590.60 10.5519
5640.92 10.4914
5691.24 10.4392
5741.56 10.3934
5791.88 10.3526
5892.52 10.2820
5993.15 10.2216
6048.05 10.1919
6091.51 10.1696
6134.96 10.1482
6156.69 10.1378
6178.42 10.1276
6200.15 10.1176
6211.02 10.1126
6221.88 10.1077
6232.74 10.1029
6238.18 10.1005
6243.61 10.0981
6249.04 10.0957
6251.76 10.0946
6254.47 10.0934
6257.19 10.0923
6259.91 10.0912
6262.62 10.0902
6263.98 10.0897
6265.34 10.0893
6266.91 10.0888
6268.48 10.0885
6270.06 10.0882
6271.63 10.0881
6272.41 10.0881
6273.20 10.0883
6273.99 10.0885
6274.77 10.0889
6275.56 10.0895
6276.35 10.0903
6277.13 10.0916
6277.92 10.0934
6278.49 10.0953
6279.06 10.0978
6279.63 10.1014
6279.92 10.1039
6280.21 10.1069
6280.49 10.1110
6280.78 10.1167
6280.92 10.1205
6281.06 10.1253
6281.21 10.1314
6281.35 10.1393
6281.49 10.1495
6281.64 10.1630
6281.78 10.1807
6281.92 10.2042
6282.06 10.2351
6282.21 10.2756
6282.35 10.3284
6282.49 10.3963
6282.63 10.4776
6282.76 10.5794
6282.89 10.7054
6283.03 10.8599
6283.16 11.0471
6283.30 11.2714
6283.43 11.5368
6283.56 11.8470
6283.70 12.2049
6283.83 12.6121
6283.97 13.0691
6284.10 13.5743
6284.23 14.1245
6284.37 14.7140
6284.50 15.3350
6284.64 15.9774
6284.82 16.8910
6285.01 17.7830
6285.20 18.6096
6285.29 18.9844
6285.39 19.3229
6285.53 19.7693
6285.67 20.1124
6285.75 20.2482
6285.83 20.3498
6285.91 20.4217
6285.97 20.4455
6286.00 20.4486
6286.07 20.4353
6286.14 20.3869
6286.25 20.2566
6286.35 20.0699
6286.45 19.8278
6286.58 19.4592
6286.70 19.0251
6286.82 18.5338
6286.95 17.9975
6287.13 17.1478
6287.31 16.2720
6287.49 15.4018
6287.67 14.5686
6287.85 13.7965
6288.03 13.1024
6288.22 12.4957
6288.40 11.9793
6288.57 11.5656
6288.74 11.2272
6288.92 10.9562
6289.09 10.7433
6289.27 10.5792
6289.35 10.5126
6289.44 10.4549
6289.53 10.4051
6289.61 10.3622
6289.70 10.3254
6289.79 10.2942
6289.90 10.2593
6290.02 10.2311
6290.14 10.2084
6290.25 10.1902
6290.35 10.1779
6290.44 10.1678
6290.63 10.1521
6290.82 10.1408
6291.01 10.1325
6291.19 10.1262
6291.38 10.1214
6291.76 10.1142
6292.14 10.1091
6292.51 10.1051
6292.89 10.1018
6293.27 10.0991
6294.02 10.0949
6294.77 10.0917
6295.53 10.0892
6296.28 10.0871
6297.27 10.0850
6298.25 10.0832
6299.24 10.0817
6300.22 10.0805
6301.21 10.0793
6302.19 10.0784
6304.16 10.0766
6306.14 10.0751
6308.11 10.0738
6310.08 10.0725
6312.05 10.0714
6314.02 10.0703
6315.99 10.0693
6319.93 10.0673
6323.87 10.0654
6327.81 10.0636
6331.76 10.0618
6335.70 10.0601
6343.58 10.0566
6351.47 10.0533
6359.35 10.0500
6375.11 10.0436
6387.17 10.0388
6399.23 10.0341
6411.29 10.0295
6423.34 10.0251
6435.40 10.0209
6441.43 10.0190
6447.46 10.0172
6453.49 10.0156
6459.51 10.0143
6465.54 10.0133
6471.57 10.0129
6475.05 10.0130
6478.53 10.0135
6482.01 10.0146
6485.48 10.0163
6488.96 10.0191
6492.44 10.0234
6495.92 10.0301
6497.66 10.0347
6499.40 10.0406
6500.85 10.0467
6502.29 10.0542
6503.74 10.0635
6505.19 10.0754
6506.64 10.0906
6508.09 10.1107
6509.54 10.1375
6510.99 10.1744
6512.27 10.2199
6512.90 10.2493
6513.54 10.2847
6514.18 10.3279
6514.82 10.3813
6515.45 10.4486
6516.09 10.5350
6516.73 10.6493
6517.37 10.8056
6517.69 10.9069
6518.00 11.0301
6518.32 11.1830
6518.64 11.3764
6518.84 11.5293
6519.05 11.7128
6519.25 11.9356
6519.45 12.2094
6519.66 12.5493
6519.86 12.9747
6519.96 13.2282
6520.06 13.5099
6520.16 13.8260
6520.26 14.1807
6520.41 14.7663
6520.55 15.4550
6520.70 16.2620
6520.77 16.7180
6520.84 17.2031
6520.92 17.7327
6520.99 18.2942
6521.06 18.9051
6521.13 19.5504
6521.21 20.2497
6521.28 20.9852
6521.35 21.7788
6521.42 22.6096
6521.50 23.5896
6521.58 24.6301
6521.66 25.7311
6521.74 26.8770
6521.90 29.3550
6522.06 32.0460
6522.21 34.7899
6522.37 37.6634
6522.67 43.5967
6522.83 46.6839
6522.99 49.6207
6523.15 52.3558
6523.31 54.7681
6523.47 56.8400
6523.55 57.6945
6523.63 58.4217
6523.72 59.0846
6523.82 59.5661
6523.91 59.8603
6524.00 59.9636
6524.10 59.8577
6524.20 59.5263
6524.30 58.9743
6524.40 58.2102
6524.50 57.2556
6524.60 56.1175
6524.70 54.8118
6524.80 53.3717
6524.90 51.6870
6525.00 49.8972
6525.21 46.0344
6525.63 37.9141
6525.76 35.3947
6525.90 32.9680
6526.03 30.6609
6526.16 28.5095
6526.27 26.9061
6526.37 25.4173
6526.48 24.0168
6526.58 22.7319
6526.69 21.5368
6526.79 20.4520
6526.89 19.4621
6527.00 18.5628
6527.08 17.9219
6527.16 17.3305
6527.24 16.7857
6527.32 16.2908
6527.40 15.8306
6527.48 15.4090
6527.56 15.0230
6527.64 14.6743
6527.81 14.0571
6527.97 13.5459
6528.13 13.1198
6528.29 12.7642
6528.41 12.5303
6528.54 12.3274
6528.78 11.9910
6529.03 11.7279
6529.28 11.5186
6529.52 11.3489
6529.77 11.2090
6530.26 10.9924
6530.68 10.8541
6531.10 10.7441
6531.52 10.6547
6531.93 10.5810
6532.77 10.4668
6533.60 10.3832
6534.44 10.3200
6535.28 10.2709
6536.11 10.2318
6536.95 10.2002
6537.78 10.1743
6538.62 10.1527
6540.29 10.1191
6541.50 10.1005
6542.72 10.0852
6543.93 10.0725
6545.15 10.0618
6547.73 10.0442
6550.31 10.0311
6552.89 10.0212
6555.47 10.0133
6558.06 10.0068
6560.64 10.0015
6563.22 9.99692
6565.80 9.99300
6569.90 9.98781
6574.00 9.98336
6578.10 9.97954
6582.20 9.97617
6586.31 9.97314
6590.41 9.97036
6598.61 9.96537
6606.81 9.96095
6615.01 9.95681
6623.21 9.95293
6631.41 9.94923
6642.95 9.94425
6654.50 9.93946
6677.58 9.93023
6700.67 9.92130
6723.75 9.91259
6769.92 9.89552
6816.09 9.87877
6835.53 9.87179
6913.29 9.84414
6991.05 9.81680
7146.57 9.76257
7360.40 9.68791
7574.24 9.61199
8001.92 9.45221
8351.83 9.30863
8526.79 9.23092
8701.75 9.14826
8755.21 9.12183
8808.67 9.09479
8835.40 9.08104
8862.13 9.06711
8888.86 9.05301
8915.59 9.03877
8924.09 9.03421
8932.60 9.02966
8941.10 9.02512
8949.61 9.02063
8953.86 9.01840
8958.11 9.01622
8962.36 9.01409
8966.62 9.01205
8970.87 9.01013
8975.12 9.00840
8979.37 9.00697
8981.50 9.00644
8983.63 9.00610
8985.90 9.00600
8988.18 9.00631
8990.46 9.00720
8992.74 9.00895
8993.88 9.01029
8995.02 9.01208
8996.16 9.01446
8997.29 9.01762
8998.43 9.02184
8999.57 9.02752
9000.71 9.03529
9001.85 9.04614
9002.61 9.05588
9003.37 9.06855
9004.13 9.08545
9004.89 9.10869
9005.27 9.12383
9005.65 9.14229
9006.03 9.16537
9006.41 9.19512
9006.79 9.23551
9007.17 9.29328
9007.36 9.33248
9007.55 9.38152
9007.74 9.44363
9007.93 9.52254
9008.08 9.60199
9008.23 9.69938
9008.38 9.81882
9008.53 9.96519
9008.69 10.1441
9008.84 10.3621
9008.99 10.6264
9009.14 10.9427
9009.29 11.3237
9009.44 11.7767
9009.60 12.3107
9009.75 12.9347
9009.90 13.6572
9010.05 14.4853
9010.20 15.4248
9010.36 16.4714
9010.49 17.4873
9010.62 18.5895
9010.75 19.7738
9010.89 21.0335
9011.02 22.3594
9011.15 23.7396
9011.42 26.6018
9011.70 29.6758
9011.85 31.1458
9011.99 32.5369
9012.17 34.1419
9012.35 35.5180
9012.45 36.1947
9012.56 36.7625
9012.71 37.3944
9012.84 37.7347
9013.00 37.8962
9013.01 37.8964
9013.03 37.8934
9013.05 37.8854
9013.09 37.8542
9013.18 37.7314
9013.27 37.5148
9013.35 37.2150
9013.45 36.7992
9013.54 36.2979
9013.67 35.4744
9013.80 34.5087
9013.99 32.8759
9014.18 31.0515
9014.93 23.0139
9015.11 21.1970
9015.29 19.5093
9015.47 17.9626
9015.56 17.2467
9015.65 16.5704
9015.75 15.9274
9015.84 15.3318
9015.93 14.7761
9016.02 14.2594
9016.11 13.7809
9016.20 13.3393
9016.29 12.9332
9016.38 12.5610
9016.48 12.1566
9016.59 11.7985
9016.70 11.4769
9016.81 11.1943
9016.91 10.9425
9017.02 10.7228
9017.13 10.5299
9017.23 10.3610
9017.45 10.0837
9017.66 9.87453
9017.88 9.71587
9018.09 9.59653
9018.31 9.50545
9018.52 9.43562
9018.74 9.38133
9018.95 9.33857
9019.17 9.30391
9019.38 9.27553
9019.81 9.23132
9020.22 9.19937
9020.63 9.17410
9021.05 9.15348
9021.46 9.13630
9022.28 9.10933
9023.11 9.08917
9023.93 9.07358
9024.75 9.06118
9025.58 9.05111
9026.40 9.04276
9027.64 9.03265
9028.87 9.02467
9030.11 9.01821
9031.35 9.01287
9032.58 9.00834
9033.82 9.00443
9036.29 8.99800
9038.76 8.99288
9041.24 8.98864
9043.71 8.98503
9046.18 8.98185
9049.07 8.97858
9051.95 8.97561
9057.72 8.97031
9063.49 8.96560
9069.26 8.96129
9075.02 8.95715
9080.79 8.95321
9086.56 8.94937
9092.33 8.94561
9102.77 8.93901
9107.99 8.93579
9113.21 8.93265
9118.43 8.92962
9123.64 8.92677
9126.25 8.92547
9128.86 8.92432
9131.47 8.92339
9134.08 8.92283
9135.59 8.92276
9137.10 8.92297
9138.62 8.92362
9140.13 8.92493
9140.88 8.92595
9141.64 8.92729
9142.39 8.92907
9143.15 8.93142
9143.90 8.93456
9144.66 8.93879
9145.41 8.94465
9146.17 8.95304
9146.75 8.96239
9147.04 8.96857
9147.34 8.97628
9147.63 8.98628
9147.92 8.99977
9148.21 9.01880
9148.50 9.04661
9148.65 9.06547
9148.80 9.08878
9148.94 9.11768
9149.09 9.15359
9149.23 9.19820
9149.38 9.25354
9149.53 9.32199
9149.67 9.40634
9149.82 9.50977
9149.96 9.63586
9150.11 9.78855
9150.26 9.97214
9150.40 10.1911
9150.55 10.4502
9150.69 10.7540
9150.84 11.1043
9150.95 11.3991
9151.05 11.7212
9151.16 12.0777
9151.27 12.4629
9151.38 12.8844
9151.48 13.3344
9151.59 13.8161
9151.70 14.3284
9151.91 15.4434
9152.13 16.6541
9152.56 19.2221
9152.88 21.1255
9153.05 21.9956
9153.21 22.7789
9153.37 23.4524
9153.53 23.9954
9153.63 24.2423
9153.72 24.4376
9153.82 24.5801
9153.93 24.6758
9154.00 24.6942
9154.11 24.6629
9154.20 24.5740
9154.33 24.3672
9154.51 23.8913
9154.70 23.2284
9154.89 22.4054
9155.11 21.2699
9155.32 20.0205
9155.76 17.3921
9156.03 15.8325
9156.17 15.1035
9156.30 14.4155
9156.44 13.7685
9156.58 13.1752
9156.71 12.6326
9156.85 12.1410
9156.98 11.6966
9157.12 11.3043
9157.25 10.9584
9157.39 10.6558
9157.52 10.3913
9157.66 10.1654
9157.79 9.97220
9157.93 9.80811
9158.13 9.60848
9158.33 9.45568
9158.54 9.33996
9158.74 9.25336
9158.94 9.18821
9159.14 9.13951
9159.35 9.10299
9159.55 9.07549
9159.75 9.05432
9159.96 9.03783
9160.16 9.02473
9160.36 9.01415
9160.77 8.99784
9161.17 8.98579
9161.58 8.97631
9161.98 8.96860
9162.79 8.95667
9163.33 8.95050
9163.88 8.94534
9164.89 8.93762
9165.90 8.93168
9166.92 8.92695
9167.93 8.92309
9168.95 8.91986
9169.96 8.91710
9171.99 8.91261
9174.02 8.90900
9176.04 8.90597
9178.07 8.90334
9180.10 8.90100
9182.80 8.89820
9185.51 8.89568
9188.21 8.89332
9190.92 8.89108
9196.32 8.88690
9201.73 8.88295
9207.14 8.87917
9212.55 8.87549
9223.36 8.86829
9236.34 8.85986
9249.32 8.85148
9275.28 8.83482
9301.24 8.81812
9327.19 8.80130
9422.37 8.73796
9469.96 8.70516
9517.55 8.67154
9547.83 8.64967
9578.12 8.62743
9593.26 8.61617
9608.40 8.60482
9623.54 8.59339
9638.68 8.58187
9645.17 8.57692
9651.66 8.57196
9658.15 8.56699
9664.64 8.56204
9671.13 8.55711
9674.38 8.55466
9677.62 8.55224
9680.87 8.54985
9684.11 8.54750
9685.73 8.54636
9687.36 8.54525
9688.98 8.54418
9690.60 8.54317
9691.95 8.54240
9693.30 8.54170
9694.66 8.54113
9696.01 8.54076
9696.68 8.54069
9697.36 8.54072
9698.04 8.54089
9698.71 8.54124
9699.39 8.54188
9700.06 8.54293
9700.40 8.54370
9700.74 8.54471
9701.08 8.54610
9701.42 8.54809
9701.67 8.55023
9701.92 8.55324
9702.18 8.55764
9702.43 8.56412
9702.56 8.56851
9702.68 8.57388
9702.81 8.58046
9702.94 8.58846
9703.06 8.59830
9703.19 8.61031
9703.32 8.62489
9703.44 8.64240
9703.57 8.66366
9703.70 8.68917
9703.82 8.71960
9703.95 8.75542
9704.08 8.79798
9704.20 8.84788
9704.33 8.90603
9704.46 8.97276
9704.58 9.05003
9704.71 9.13823
9704.96 9.34965
9705.22 9.61384
9705.47 9.93113
9705.66 10.1982
9705.84 10.4914
9706.03 10.8070
9706.22 11.1392
9706.59 11.8238
9706.77 12.1576
9706.96 12.4721
9707.11 12.7071
9707.26 12.9164
9707.42 13.0948
9707.57 13.2375
9707.69 13.3267
9707.82 13.3863
9707.96 13.4179
9708.00 13.4196
9708.12 13.4071
9708.30 13.3398
9708.41 13.2658
9708.52 13.1702
9708.75 12.9184
9708.99 12.5784
9709.23 12.1847
9709.47 11.7563
9709.70 11.3187
9709.96 10.8651
9710.21 10.4418
9710.46 10.0603
9710.71 9.72868
9710.95 9.46201
9711.19 9.24314
9711.42 9.06677
9711.66 8.92937
9711.78 8.87274
9711.90 8.82396
9712.02 8.78178
9712.14 8.74551
9712.26 8.71422
9712.38 8.68780
9712.50 8.66539
9712.62 8.64644
9712.74 8.63034
9712.86 8.61695
9712.97 8.60571
9713.09 8.59631
9713.21 8.58837
9713.33 8.58180
9713.45 8.57629
9713.57 8.57166
9713.81 8.56444
9714.05 8.55924
9714.29 8.55537
9714.52 8.55241
9714.93 8.54870
9715.33 8.54596
9715.73 8.54380
9716.13 8.54201
9716.94 8.53917
9717.74 8.53700
9718.54 8.53527
9719.35 8.53386
9720.15 8.53268
9720.95 8.53169
9722.56 8.53013
9724.17 8.52901
9725.78 8.52825
9727.38 8.52783
9728.99 8.52775
9731.10 8.52821
9733.21 8.52947
9735.32 8.53175
9737.43 8.53543
9739.54 8.54116
9741.65 8.54994
9742.70 8.55599
9743.76 8.56353
9744.81 8.57303
9745.87 8.58516
9746.72 8.59761
9747.57 8.61320
9748.43 8.63298
9749.28 8.65852
9750.14 8.69222
9750.99 8.73803
9751.84 8.80286
9752.27 8.84615
9752.70 8.90003
9753.10 8.96463
9753.50 9.04870
9753.90 9.16210
9754.30 9.32064
9754.51 9.42491
9754.71 9.55155
9754.91 9.70624
9755.11 9.89598
9755.31 10.1291
9755.51 10.4155
9755.71 10.7664
9755.91 11.1921
9756.10 11.6766
9756.29 12.2498
9756.38 12.5777
9756.48 12.9292
9756.57 13.3090
9756.67 13.7183
9756.76 14.1630
9756.85 14.6345
9756.95 15.1383
9757.04 15.6746
9757.23 16.8457
9757.42 18.1460
9757.53 18.9869
9757.64 19.8692
9757.87 21.7431
9758.10 23.7285
9758.32 25.7631
9758.60 28.2503
9758.87 30.5783
9759.05 31.9170
9759.23 33.0975
9759.36 33.8899
9759.50 34.5447
9759.60 34.9186
9759.69 35.2158
9759.79 35.4377
9759.88 35.5822
9760.00 35.6521
9760.10 35.6180
9760.19 35.5033
9760.29 35.3066
9760.39 35.0339
9760.55 34.4101
9760.71 33.5923
9760.87 32.6016
9761.03 31.4631
9761.17 30.3821
9761.31 29.2299
9761.59 26.7873
9761.97 23.3718
9762.16 21.7204
9762.35 20.1492
9762.51 18.8981
9762.67 17.7317
9762.83 16.6566
9762.99 15.6762
9763.15 14.7912
9763.31 13.9997
9763.47 13.2981
9763.63 12.6845
9763.79 12.1672
9763.94 11.7183
9764.09 11.3257
9764.25 10.9884
9764.40 10.6958
9764.55 10.4459
9764.71 10.2302
9764.86 10.0466
9765.02 9.88820
9765.17 9.75324
9765.48 9.53656
9765.78 9.37447
9766.09 9.25097
9766.44 9.14278
9766.79 9.05906
9767.14 8.99244
9767.49 8.93811
9768.20 8.85471
9768.90 8.79371
9769.60 8.74715
9770.30 8.71064
9771.00 8.68133
9771.70 8.65740
9772.41 8.63747
9773.11 8.62067
9774.51 8.59402
9775.91 8.57393
9777.32 8.55835
9778.72 8.54587
9780.12 8.53561
9781.53 8.52702
9782.93 8.51972
9784.80 8.51150
9786.67 8.50460
9788.55 8.49869
9790.42 8.49356
9794.16 8.48488
9797.90 8.47762
9801.64 8.47135
9805.39 8.46578
9809.13 8.46070
9812.87 8.45599
9820.36 8.44728
9827.84 8.43921
9835.33 8.43154
9842.81 8.42413
9850.30 8.41690
9869.01 8.39926
9887.72 8.38189
9906.44 8.36459
9925.15 8.34725
9962.58 8.31222
10000.0 8.27655
10092.3 8.18513
10184.5 8.08795
10369.0 7.87330
10568.9 7.60411
10668.8 7.45274
10768.8 7.28876
10853.3 7.13925
10937.9 6.97982
11022.4 6.81074
11107.0 6.63323
11172.4 6.49213
11237.7 6.35086
11303.0 6.21423
11368.4 6.09124
11422.2 6.01088
11476.0 5.96347
11518.3 5.96444
11539.4 5.98246
11560.6 6.01676
11581.7 6.06872
11602.9 6.14507
11624.0 6.24983
11645.1 6.38779
11661.5 6.52480
11677.8 6.69263
11694.2 6.89690
11710.5 7.14411
11718.7 7.28545
11726.8 7.44276
11735.0 7.61145
11743.2 7.79639
11751.3 8.00199
11759.5 8.22760
11767.7 8.47518
11775.8 8.74657
11786.4 9.13872
11797.0 9.57988
11807.5 10.0780
11818.1 10.6424
11828.7 11.2778
11839.2 11.9989
11844.5 12.3935
11849.8 12.8155
11855.1 13.2636
11860.4 13.7383
11865.7 14.2485
11871.0 14.7897
11876.2 15.3646
11881.5 15.9798
11886.8 16.6373
11892.1 17.3322
11897.4 18.0781
11902.7 18.8743
11908.0 19.7194
11913.2 20.6207
11918.5 21.5889
11923.8 22.6131
11929.1 23.7065
11934.4 24.8777
11939.7 26.1227
11944.9 27.4421
11950.5 28.9196
11956.0 30.4915
11961.5 32.1613
11967.0 33.9419
11972.5 35.8492
11978.0 37.8551
11983.5 39.9833
11989.0 42.2488
11994.5 44.6295
12000.0 47.1302
12005.5 49.7743
12011.0 52.5207
12016.5 55.3831
12022.0 58.3578
12033.0 64.5444
12049.3 74.0378
12057.4 78.7524
12065.5 83.2945
12073.6 87.5549
12081.8 91.4018
12089.9 94.7312
12098.0 97.4395
12104.1 99.0103
12110.2 100.174
12116.3 100.957
12122.4 101.333
12128.5 101.284
12134.6 100.869
12140.7 100.136
12146.8 99.0933
12152.9 97.7591
12159.0 96.2031
12171.1 92.5789
12183.3 88.4420
12195.5 84.1139
12207.7 79.7279
12219.9 75.4285
12237.7 69.4877
12246.6 66.7050
12255.4 64.0629
12264.3 61.5598
12273.2 59.1970
12282.1 56.9722
12291.0 54.8772
12299.7 52.9581
12308.3 51.1533
12317.0 49.4559
12325.7 47.8609
12343.0 44.9465
12360.3 42.3637
12376.8 40.1745
12393.4 38.2059
12409.9 36.4441
12426.4 34.8498
12443.0 33.4076
12459.5 32.1081
12476.0 30.9219
12492.6 29.8378
12509.9 28.8063
12527.2 27.8608
12544.5 26.9943
12561.9 26.2012
12579.2 25.4669
12596.5 24.7911
12631.1 23.5824
12668.9 22.4495
12706.7 21.4728
12744.5 20.6232
12782.3 19.8784
12817.0 19.2744
12851.6 18.7286
12886.2 18.2353
12920.9 17.7905
12955.5 17.3823
12990.2 17.0106
13059.5 16.3521
13128.7 15.7894
13198.0 15.3005
13267.3 14.8706
13336.6 14.4888
13450.0 13.9472
13563.4 13.4810
13676.7 13.0704
13790.1 12.7006
13941.3 12.2519
14092.5 11.8323
14199.5 11.5417
14306.6 11.2486
14413.7 10.9455
14520.8 10.6231
14590.1 10.3986
14659.4 10.1573
14728.7 9.89440
14797.9 9.60380
14842.0 9.40022
14886.1 9.18049
14930.2 8.94028
14974.3 8.67698
15009.0 8.45097
15043.6 8.20618
15078.2 7.94068
15112.9 7.65262
15144.4 7.37011
15175.9 7.06982
15207.4 6.75544
15238.9 6.43896
15256.2 6.27258
15273.5 6.12093
15290.8 5.99613
15299.5 5.94945
15308.1 5.91725
15314.4 5.90541
15321.9 5.90702
15329.4 5.92940
15336.9 5.97726
15344.4 6.05653
15351.8 6.17488
15359.3 6.34200
15363.1 6.44705
15366.8 6.56642
15370.5 6.70642
15374.3 6.86750
15378.6 7.08319
15382.9 7.33436
15387.3 7.62594
15391.6 7.96360
15395.9 8.35384
15400.3 8.80414
15402.4 9.05506
15404.6 9.32313
15406.8 9.61209
15408.9 9.92065
15411.1 10.2531
15413.3 10.6097
15415.4 10.9921
15417.6 11.4002
15419.8 11.8396
15421.9 12.3083
15424.1 12.8129
15426.2 13.3509
15428.4 13.9298
15430.6 14.5470
15432.7 15.2107
15434.9 15.9179
15437.1 16.6780
15439.2 17.4872
15441.4 18.3563
15443.6 19.2807
15445.3 20.0568
15447.0 20.8689
15448.7 21.7284
15450.4 22.6264
15453.8 24.5629
15455.5 25.6016
15457.2 26.6924
15460.6 29.0410
15464.0 31.6169
15467.4 34.4174
15470.8 37.4304
15473.3 39.7393
15475.7 42.1592
15478.2 44.6830
15480.6 47.3010
15485.5 52.7641
15490.4 58.3916
15495.3 64.0083
15500.2 69.3620
15502.7 71.8594
15505.1 74.1943
15507.6 76.3371
15510.0 78.2545
15512.2 79.7989
15514.5 81.1318
15516.7 82.2440
15518.9 83.1269
15521.1 83.7882
15523.4 84.2260
15525.6 84.4470
15527.8 84.4617
15530.5 84.2235
15533.2 83.7293
15535.9 83.0070
15538.5 82.0895
15543.9 79.7656
15549.2 76.9648
15560.0 70.8093
15565.3 67.6552
15570.7 64.5845
15575.7 61.8128
15580.7 59.1787
15585.8 56.6951
15590.8 54.3666
15595.8 52.1919
15600.8 50.1662
15605.9 48.2823
15610.9 46.5350
15615.9 44.9085
15621.0 43.3972
15626.0 41.9925
15631.0 40.6857
15636.0 39.4689
15641.1 38.3349
15651.1 36.2898
15661.2 34.4984
15671.2 32.9242
15681.3 31.5312
15691.3 30.2963
15701.4 29.1936
15711.5 28.2023
15721.5 27.3083
15731.6 26.5017
15741.6 25.7668
15751.7 25.0986
15761.7 24.4868
15771.8 23.9252
15791.9 22.9312
15812.0 22.0800
15832.1 21.3431
15852.2 20.6997
15879.7 19.9441
15907.1 19.3024
15934.5 18.7476
15961.9 18.2656
16002.2 17.6628
16042.4 17.1566
16082.6 16.7248
16122.8 16.3525
16166.7 16.0007
16210.6 15.6945
16298.4 15.1868
16378.8 14.8128
16459.2 14.5016
16539.7 14.2378
16620.1 14.0111
16700.6 13.8140
16781.0 13.6403
16861.5 13.4856
16941.9 13.3466
17044.3 13.1888
17146.7 13.0477
17186.9 12.9962
17227.1 12.9466
17267.4 12.8987
17287.5 12.8754
17307.6 12.8525
17322.2 12.8361
17336.8 12.8201
17344.6 12.8117
17352.4 12.8036
17360.2 12.7956
17367.9 12.7880
17375.7 12.7810
17383.5 12.7747
17387.4 12.7722
17391.2 12.7701
17395.1 12.7688
17399.0 12.7685
17402.0 12.7693
17405.0 12.7713
17407.9 12.7751
17410.9 12.7813
17413.9 12.7915
17415.4 12.7989
17416.8 12.8082
17418.3 12.8201
17419.8 12.8354
17421.3 12.8554
17422.8 12.8820
17423.8 12.9046
17424.7 12.9323
17425.7 12.9669
17426.7 13.0110
17427.6 13.0681
17428.6 13.1443
17429.6 13.2494
17430.1 13.3188
17430.5 13.4019
17431.0 13.5077
17431.5 13.6402
17432.0 13.8175
17432.5 14.0512
17433.0 14.3800
17433.2 14.5866
17433.5 14.8313
17433.7 15.1348
17433.9 15.4817
17434.2 15.8925
17434.4 16.3778
17434.7 17.0004
17434.9 17.7380
17435.2 18.6053
17435.5 19.5740
17435.7 20.7327
17436.0 22.0539
17436.2 23.5410
17436.5 25.1255
17436.8 27.2145
17437.1 29.4816
17437.4 31.8831
17437.7 34.3598
17438.0 37.1645
17438.4 39.8468
17438.7 42.1397
17438.8 43.1661
17439.0 44.0399
17439.2 44.9135
17439.3 45.6506
17439.5 46.2397
17439.7 46.6508
17439.8 46.9286
17440.0 47.0385
17440.2 46.9788
17440.3 46.7686
17440.5 46.4122
17440.7 45.9150
17440.9 44.8254
17441.2 43.4233
17441.4 41.7585
17441.7 39.8873
17442.1 36.4182
17442.6 32.8951
17442.9 30.4862
17443.2 28.1919
17443.5 26.0603
17443.6 25.0662
17443.8 24.1237
17444.0 22.6169
17444.3 21.3221
17444.5 20.1331
17444.8 19.1350
17445.0 18.2375
17445.3 17.4978
17445.6 16.8431
17445.8 16.3106
17446.1 15.8606
17446.3 15.4952
17446.5 15.1856
17446.8 14.9231
17447.0 14.6916
17447.3 14.5031
17447.7 14.2036
17448.2 13.9760
17448.7 13.8059
17449.2 13.6698
17449.7 13.5627
17450.6 13.4052
17451.5 13.2919
17452.5 13.2050
17453.4 13.1377
17454.3 13.0832
17455.2 13.0392
17456.2 13.0023
17457.1 12.9716
17458.2 12.9404
17459.3 12.9144
17461.5 12.8732
17463.7 12.8423
17466.0 12.8183
17468.2 12.7991
17470.4 12.7833
17473.4 12.7662
17476.3 12.7521
17479.3 12.7403
17482.2 12.7302
17485.2 12.7213
17488.2 12.7135
17494.1 12.6999
17497.8 12.6924
17501.5 12.6855
17508.9 12.6730
17516.3 12.6618
17523.7 12.6515
17532.6 12.6399
17541.5 12.6288
17550.3 12.6182
17559.2 12.6078
17577.0 12.5877
17594.8 12.5680
17612.5 12.5483
17630.3 12.5284
17665.8 12.4868
17689.5 12.4561
17713.2 12.4210
17725.0 12.4005
17736.9 12.3770
17745.7 12.3564
17754.6 12.3322
17760.5 12.3133
17766.5 12.2911
17773.1 12.2608
17776.5 12.2427
17779.8 12.2221
17783.1 12.1983
17786.4 12.1703
17789.8 12.1367
17793.1 12.0954
17794.8 12.0707
17796.4 12.0429
17798.1 12.0109
17799.8 11.9739
17801.4 11.9303
17803.1 11.8785
17804.8 11.8151
17805.6 11.7780
17806.4 11.7363
17807.3 11.6859
17808.2 11.6276
17809.1 11.5594
17809.9 11.4784
17810.4 11.4318
17810.8 11.3804
17811.3 11.3236
17811.7 11.2609
17812.1 11.1920
17812.4 11.1554
17812.6 11.1176
17812.8 11.0789
17813.0 11.0398
17813.2 11.0009
17813.5 10.9649
17813.7 10.9295
17813.9 10.8979
17814.1 10.8722
17814.3 10.8548
17814.6 10.8484
17814.8 10.8567
17815.0 10.8833
17815.2 10.9327
17815.4 11.0096
17815.7 11.1189
17815.9 11.2659
17816.1 11.4556
17816.3 11.6927
17816.5 11.9812
17816.8 12.3244
17817.0 12.7243
17817.2 13.1812
17817.4 13.6939
17817.6 14.2588
17817.9 14.8707
17818.1 15.5218
17818.3 16.2024
17818.7 17.6042
17819.2 19.0267
17819.4 19.6253
17819.6 20.1747
17819.8 20.6852
17820.0 21.0270
17820.1 21.1876
17820.3 21.5552
17820.5 21.7270
17820.7 21.8478
17820.9 21.9356
17821.2 21.8862
17821.5 21.7054
17821.7 21.4204
17822.0 21.0277
17822.3 20.5759
17822.8 19.5778
17823.3 18.5208
17823.8 17.5124
17824.0 17.0499
17824.3 16.6225
17824.5 16.2333
17824.8 15.8830
17825.0 15.5712
17825.3 15.2959
17825.5 15.0547
17825.8 14.8443
17826.0 14.6615
17826.3 14.5029
17826.5 14.3652
17826.8 14.2455
17827.0 14.1409
17827.3 14.0493
17827.5 13.9684
17827.8 13.8966
17828.0 13.8324
17828.2 13.7768
17828.7 13.6762
17829.2 13.5917
17829.7 13.5191
17830.2 13.4559
17831.2 13.3502
17832.2 13.2657
17833.2 13.1949
17834.2 13.1352
17835.2 13.0841
17836.2 13.0401
17837.2 13.0011
17838.2 12.9666
17840.2 12.9083
17842.2 12.8609
17844.2 12.8217
17846.2 12.7882
17848.2 12.7595
17850.2 12.7344
17852.2 12.7124
17854.9 12.6868
17857.5 12.6646
17860.2 12.6452
17862.8 12.6280
17867.1 12.6042
17871.4 12.5839
17875.6 12.5663
17879.9 12.5507
17884.1 12.5370
17891.6 12.5159
17899.0 12.4980
17906.5 12.4823
17913.9 12.4684
17931.0 12.4411
17954.4 12.4104
17977.8 12.3845
18001.2 12.3616
18024.6 12.3408
18092.7 12.2874
18126.8 12.2633
18199.2 12.2159
18271.5 12.1722
18416.3 12.0925
18705.8 11.9535
18961.2 11.8474
19216.7 11.7528
19472.1 11.6670
19727.5 11.5884
20000.0 11.5113
20147.7 11.4719
20295.5 11.4339
20369.3 11.4153
20443.2 11.3971
20517.1 11.3791
20590.9 11.3614
20641.3 11.3495
20666.5 11.3436
20691.6 11.3377
20716.8 11.3320
20729.4 11.3291
20742.0 11.3263
20754.6 11.3235
20767.2 11.3208
20779.8 11.3182
20786.1 11.3169
20792.4 11.3157
20797.8 11.3148
20803.3 11.3140
20808.7 11.3133
20814.2 11.3129
20819.7 11.3129
20822.4 11.3132
20825.1 11.3137
20827.8 11.3146
20830.6 11.3161
20833.3 11.3182
20836.0 11.3216
20837.8 11.3248
20839.6 11.3292
20841.4 11.3354
20843.2 11.3441
20844.1 11.3499
20844.9 11.3570
20845.8 11.3658
20846.7 11.3769
20847.6 11.3913
20848.5 11.4104
20849.4 11.4369
20849.8 11.4545
20850.3 11.4759
20850.6 11.4975
20851.0 11.5234
20851.4 11.5568
20851.7 11.5982
20852.1 11.6535
20852.4 11.7240
20852.8 11.8169
20853.1 11.9396
20853.5 12.1068
20853.8 12.3209
20854.2 12.6083
20854.5 12.9680
20854.7 13.1890
20854.9 13.4371
20855.1 13.7143
20855.2 14.0045
20855.4 14.3432
20855.6 14.6940
20855.8 15.0990
20855.9 15.5136
20856.2 16.1517
20856.4 16.8498
20856.7 17.6036
20856.9 18.3723
20857.4 20.0474
20857.8 21.7792
20858.3 23.3739
20858.5 24.1239
20858.7 24.7791
20859.0 25.5257
20859.3 26.0952
20859.5 26.4361
20859.8 26.6462
20860.0 26.7406
20860.0 26.7415
20860.1 26.7392
20860.1 26.7306
20860.2 26.6995
20860.4 26.5681
20860.6 26.2934
20860.9 25.8989
20861.1 25.2725
20861.4 24.5376
20861.7 23.6668
20862.0 22.7501
20862.5 20.8004
20863.1 18.6908
20863.4 17.6922
20863.7 16.7988
20864.0 15.9607
20864.3 15.2398
20864.6 14.6079
20864.9 14.0627
20865.0 13.7501
20865.2 13.4846
20865.6 13.0353
20866.0 12.6729
20866.3 12.4003
20866.7 12.1860
20867.0 12.0278
20867.4 11.9074
20867.8 11.8157
20868.1 11.7436
20868.5 11.6892
20868.9 11.6463
20869.2 11.6118
20869.6 11.5829
20869.9 11.5595
20870.7 11.5226
20871.4 11.4943
20872.1 11.4720
20872.9 11.4540
20873.6 11.4394
20875.0 11.4164
20876.5 11.3995
20878.0 11.3859
20879.6 11.3754
20881.1 11.3671
20882.6 11.3604
20884.2 11.3549
20885.7 11.3504
20888.8 11.3433
20891.9 11.3380
20895.0 11.3341
20898.1 11.3310
20901.1 11.3288
20907.0 11.3258
20912.8 11.3241
20918.6 11.3234
20924.4 11.3236
20930.9 11.3248
20937.4 11.3271
20944.0 11.3307
20950.5 11.3357
20957.0 11.3426
20963.5 11.3518
20970.1 11.3642
20976.6 11.3810
20983.5 11.4057
20990.4 11.4408
20993.8 11.4641
20997.3 11.4925
21000.7 11.5274
21004.2 11.5711
21008.2 11.6371
21012.2 11.7263
21016.2 11.8507
21018.2 11.9321
21020.1 12.0304
21022.1 12.1520
21024.1 12.3039
21026.1 12.4971
21028.1 12.7459
21029.8 13.0081
21031.4 13.3438
21032.2 13.5493
21033.0 13.7828
21033.8 14.0565
21034.7 14.3717
21035.7 14.8378
21036.2 15.1099
21036.7 15.4132
21037.2 15.7525
21037.7 16.1335
21038.2 16.5629
21038.7 17.0487
21039.1 17.5535
21039.6 18.1096
21040.0 18.7514
21040.5 19.4621
21040.9 20.2860
21041.4 21.2010
21041.8 22.2385
21042.3 23.4140
21042.5 24.1323
21042.8 24.9004
21043.0 25.7207
21043.3 26.5951
21043.5 27.5255
21043.8 28.5130
21044.3 30.6162
21044.8 32.9865
21045.3 35.5640
21045.8 38.3105
21046.3 41.1080
21047.0 45.5231
21047.4 47.6096
21047.8 49.5648
21048.2 51.3341
21048.6 52.8642
21048.9 54.1068
21049.3 55.0205
21049.7 55.5442
21050.0 55.7460
21050.1 55.7438
21050.5 55.4961
21050.9 54.8935
21051.2 53.9570
21051.6 52.7551
21052.0 51.2596
21052.3 49.5945
21052.7 47.7152
21053.1 45.7703
21054.4 38.1271
21054.8 36.2919
21055.1 34.5301
21055.4 32.8555
21055.8 31.3221
21056.1 29.8004
21056.5 28.3888
21056.8 27.0866
21057.2 25.9236
21057.5 24.8266
21057.9 23.8257
21058.2 22.9141
21058.5 22.1077
21058.9 21.3520
21059.2 20.6651
21059.6 20.0406
21059.9 19.4878
21060.3 18.9687
21060.6 18.4953
21061.3 17.6778
21061.9 17.1010
21062.5 16.5979
21063.0 16.1570
21063.6 15.7752
21064.2 15.4310
21064.7 15.1251
21065.9 14.6114
21066.6 14.3438
21067.3 14.1107
21068.6 13.7162
21070.0 13.3999
21071.4 13.1441
21072.6 12.9582
21073.8 12.7992
21076.2 12.5441
21078.6 12.3482
21081.0 12.1957
21084.3 12.0350
21087.6 11.9135
21090.8 11.8195
21094.1 11.7452
21096.9 11.6932
21099.7 11.6496
21105.2 11.5802
21110.8 11.5281
21116.3 11.4878
21121.9 11.4561
21127.4 11.4302
21133.0 11.4089
21138.5 11.3910
21146.1 11.3710
21153.6 11.3546
21161.2 11.3410
21168.8 11.3295
21183.9 11.3109
21199.0 11.2965
21215.2 11.2841
21231.3 11.2739
21247.5 11.2651
21263.6 11.2575
21279.7 11.2506
21295.9 11.2443
21328.2 11.2332
21362.5 11.2226
21396.8 11.2131
21431.1 11.2042
21465.4 11.1957
21534.0 11.1797
21602.6 11.1646
21683.3 11.1476
21764.0 11.1312
21941.6 11.0964
22119.1 11.0628
22296.7 11.0302
22474.2 10.9981
22538.8 10.9866
22732.5 10.9523
22829.3 10.9351
22926.2 10.9180
22963.5 10.9113
23000.9 10.9045
23019.5 10.9010
23038.2 10.8974
23047.5 10.8956
23056.8 10.8937
23061.5 10.8927
23066.2 10.8917
23070.8 10.8907
23075.5 10.8896
23079.0 10.8888
23082.6 10.8879
23086.1 10.8870
23089.6 10.8861
23091.4 10.8856
23093.2 10.8850
23094.9 10.8845
23096.7 10.8839
23098.5 10.8834
23100.2 10.8828
23102.0 10.8822
23103.7 10.8816
23104.9 10.8812
23106.1 10.8809
23107.3 10.8807
23107.9 10.8806
23108.5 10.8807
23109.1 10.8809
23109.7 10.8815
23110.0 10.8821
23110.3 10.8829
23110.6 10.8841
23110.9 10.8858
23111.2 10.8883
23111.5 10.8920
23111.8 10.8972
23112.1 10.9047
23112.4 10.9151
23112.7 10.9297
23113.0 10.9495
23113.3 10.9753
23113.6 11.0053
23113.8 11.0416
23114.1 11.0867
23114.3 11.1420
23114.6 11.2120
23114.9 11.2929
23115.1 11.3886
23115.4 11.5003
23115.6 11.6347
23115.9 11.7820
23116.4 12.1299
23116.9 12.5516
23117.4 13.0122
23118.2 13.7577
23118.6 14.0993
23119.0 14.3800
23119.3 14.5533
23119.6 14.6737
23119.8 14.7312
23120.0 14.7435
23120.1 14.7407
23120.4 14.7110
23120.6 14.6370
23120.9 14.5235
23121.2 14.3218
23121.6 14.0781
23122.2 13.4984
23122.8 12.9539
23123.4 12.4476
23123.6 12.2927
23123.9 12.0096
23124.3 11.7658
23124.7 11.5720
23125.0 11.4131
23125.4 11.2859
23125.7 11.1891
23125.9 11.1482
23126.1 11.1127
23126.3 11.0819
23126.5 11.0555
23126.6 11.0328
23126.8 11.0134
23127.0 10.9969
23127.2 10.9837
23127.4 10.9718
23127.5 10.9617
23127.7 10.9533
23127.9 10.9461
23128.1 10.9401
23128.3 10.9351
23128.4 10.9308
23128.6 10.9274
23129.0 10.9217
23129.3 10.9176
23129.7 10.9143
23130.0 10.9119
23130.4 10.9096
23130.8 10.9077
23131.6 10.9048
23132.5 10.9025
23133.3 10.9005
23134.1 10.8989
23134.9 10.8976
23136.5 10.8953
23138.1 10.8935
23139.7 10.8919
23141.4 10.8907
23143.0 10.8896
23145.7 10.8880
23148.5 10.8866
23151.3 10.8854
23154.0 10.8844
23156.8 10.8835
23159.5 10.8826
23162.3 10.8818
23165.1 10.8810
23170.6 10.8796
23176.1 10.8782
23181.6 10.8769
23187.1 10.8757
23194.2 10.8742
23201.2 10.8728
23215.3 10.8700
23229.4 10.8673
23243.5 10.8646
23271.7 10.8594
23299.8 10.8543
23356.2 10.8441
23412.6 10.8339
23507.0 10.8167
23601.4 10.7989
23695.9 10.7797
23743.1 10.7689
23790.3 10.7560
23810.1 10.7489
23829.9 10.7400
23839.8 10.7342
23849.7 10.7267
23859.6 10.7163
23864.5 10.7094
23869.5 10.7004
23872.5 10.6934
23875.6 10.6847
23878.6 10.6737
23880.2 10.6669
23881.7 10.6590
23883.2 10.6496
23884.7 10.6382
23886.2 10.6242
23887.0 10.6158
23887.8 10.6063
23888.5 10.5951
23889.0 10.5881
23889.4 10.5804
23889.8 10.5719
23890.0 10.5672
23890.3 10.5625
23890.5 10.5573
23890.7 10.5521
23890.9 10.5463
23891.1 10.5406
23891.3 10.5343
23891.5 10.5280
23891.8 10.5214
23892.0 10.5147
23892.2 10.5074
23892.4 10.5003
23892.6 10.4928
23892.8 10.4857
23893.0 10.4784
23893.3 10.4718
23893.5 10.4658
23893.7 10.4606
23893.9 10.4563
23894.1 10.4536
23894.3 10.4527
23894.5 10.4541
23894.8 10.4584
23895.0 10.4657
23895.2 10.4768
23895.4 10.4920
23895.7 10.5292
23896.1 10.5826
23896.5 10.6540
23896.8 10.7417
23897.5 10.9737
23898.2 11.2630
23898.8 11.4951
23899.3 11.7139
23899.7 11.8732
23899.9 11.9189
23899.9 11.9477
23900.0 11.9638
23900.0 11.9695
23900.1 11.9860
23900.1 11.9992
23900.2 12.0263
23900.3 12.0486
23900.6 12.0882
23900.8 12.1174
23901.2 12.1447
23901.7 12.1217
23902.4 12.0185
23903.0 11.8601
23903.7 11.6796
23904.0 11.5902
23904.3 11.5049
23904.7 11.4097
23905.1 11.3274
23905.3 11.2894
23905.5 11.2560
23905.7 11.2236
23905.9 11.1954
23906.1 11.1683
23906.3 11.1448
23906.5 11.1223
23906.7 11.1030
23906.9 11.0845
23907.1 11.0686
23907.3 11.0535
23907.5 11.0405
23907.7 11.0280
23907.9 11.0173
23908.1 11.0070
23908.3 10.9980
23908.5 10.9894
23908.6 10.9819
23908.8 10.9746
23909.0 10.9681
23909.2 10.9619
23909.4 10.9563
23909.6 10.9508
23909.8 10.9459
23910.2 10.9368
23910.6 10.9285
23911.1 10.9191
23911.6 10.9109
23912.6 10.8967
23913.6 10.8849
23914.6 10.8749
23915.5 10.8662
23916.5 10.8588
23918.5 10.8463
23921.1 10.8334
23924.4 10.8211
23927.7 10.8117
23931.0 10.8042
23934.3 10.7982
23940.9 10.7886
23947.5 10.7814
23960.6 10.7710
23973.8 10.7635
23994.9 10.7544
24015.9 10.7473
24059.4 10.7355
24102.8 10.7254
24189.7 10.7073
24276.6 10.6902
24363.5 10.6736
24463.5 10.6549
24563.6 10.6366
24613.6 10.6277
24663.6 10.6191
24713.6 10.6110
24763.7 10.6036
24811.1 10.5978
24858.4 10.5937
24882.1 10.5927
24905.8 10.5926
24929.5 10.5938
24953.2 10.5967
24978.2 10.6024
25003.3 10.6119
25028.3 10.6272
25053.3 10.6512
25067.8 10.6712
25082.2 10.6976
25096.7 10.7329
25111.2 10.7807
25120.4 10.8203
25129.6 10.8692
25138.9 10.9310
25148.1 11.0099
25155.3 11.0881
25162.6 11.1851
25169.8 11.3074
25177.0 11.4641
25182.3 11.6074
25187.6 11.7830
25192.8 12.0015
25198.1 12.2777
25201.7 12.5121
25205.3 12.7935
25209.0 13.1349
25212.6 13.5538
25214.4 13.7996
25216.2 14.0746
25218.0 14.3836
25219.8 14.7319
25221.6 15.1264
25223.4 15.5751
25225.2 16.0878
25227.0 16.6730
25228.1 17.0621
25229.2 17.4864
25230.3 17.9500
25231.3 18.4576
25232.4 19.0147
25233.5 19.6273
25234.5 20.3021
25235.6 21.0469
25236.5 21.7419
25237.4 22.4910
25238.3 23.3177
25239.2 24.2107
25240.1 25.1978
25241.0 26.2657
25241.9 27.4470
25242.8 28.7252
25243.8 30.1869
25244.7 31.7883
25245.7 33.5389
25246.6 35.4250
25247.5 37.4915
25248.5 39.7186
25249.4 42.0989
25250.3 44.5888
25252.8 51.4679
25254.0 54.9115
25255.2 58.1219
25255.8 59.6158
25256.4 60.9612
25257.0 62.1782
25257.6 63.2039
25258.2 64.0513
25258.8 64.6755
25259.4 65.0790
25260.0 65.2535
25260.6 65.1929
25261.2 64.9010
25261.8 64.3756
25262.4 63.6459
25263.0 62.7043
25263.6 61.6013
25264.2 60.3230
25264.8 58.9351
25266.1 55.8412
25267.3 52.5114
25269.7 45.7814
25270.8 42.7859
25272.0 40.0052
25273.1 37.4164
25274.2 35.0736
25275.4 32.9320
25276.5 31.0184
25277.6 29.2836
25278.8 27.7413
25279.9 26.3002
25281.1 25.0137
25282.3 23.8640
25283.5 22.8351
25284.7 21.9126
25285.8 21.0839
25287.0 20.3376
25288.2 19.6640
25289.4 19.0546
25290.6 18.5021
25291.7 17.9998
25292.9 17.5421
25294.1 17.1242
25295.3 16.7418
25297.6 16.0712
25299.4 15.6460
25301.1 15.2696
25302.8 14.9312
25304.5 14.6292
25307.9 14.1091
25311.4 13.6814
25313.7 13.4300
25316.1 13.2074
25320.8 12.8334
25325.5 12.5325
25330.2 12.2868
25334.9 12.0831
25339.6 11.9126
25349.1 11.6458
25358.1 11.4562
25367.1 11.3097
25376.1 11.1940
25385.1 11.1009
25394.5 11.0213
25403.9 10.9559
25413.4 10.9011
25422.8 10.8547
25440.0 10.7867
25457.1 10.7335
25474.2 10.6909
25491.4 10.6559
25512.0 10.6213
25529.1 10.5969
25546.3 10.5757
25580.6 10.5402
25614.8 10.5109
25645.7 10.4882
25676.6 10.4679
25707.4 10.4493
25738.3 10.4320
25779.5 10.4102
25820.6 10.3893
25861.8 10.3691
25902.9 10.3489
25985.2 10.3084
26067.5 10.2658
26149.8 10.2198
26218.4 10.1774
26287.0 10.1303
26355.6 10.0763
26424.2 10.0138
26499.6 9.93041
26537.3 9.88113
26575.0 9.82514
26607.6 9.77001
26640.2 9.70721
26672.8 9.63471
26705.4 9.54995
26743.1 9.43115
26761.9 9.36107
26780.8 9.28194
26799.7 9.19175
26818.5 9.08806
26837.4 8.96748
26856.3 8.82552
26875.1 8.65580
26884.5 8.55780
26894.0 8.44923
26903.4 8.32831
26912.8 8.19291
26922.3 8.04042
26931.7 7.86766
26941.1 7.67055
26950.6 7.44497
26960.0 7.18570
26964.7 7.04177
26969.4 6.88816
26976.7 6.63092
26980.4 6.49451
26984.0 6.35427
26987.6 6.21195
26991.3 6.07197
26994.9 5.94028
26998.6 5.82726
27001.6 5.75975
27003.1 5.73944
27004.6 5.73142
27006.9 5.75176
27008.1 5.78144
27009.3 5.82756
27010.5 5.89337
27011.6 5.98274
27012.8 6.10031
27014.0 6.25024
27015.1 6.42375
27016.1 6.63505
27017.2 6.89257
27017.8 7.04264
27018.3 7.20455
27018.8 7.38568
27019.4 7.58451
27019.9 7.80257
27020.4 8.03686
27021.0 8.29797
27021.5 8.57806
27022.0 8.88970
27022.6 9.22344
27023.2 9.63011
27023.8 10.0769
27024.3 10.5672
27024.9 11.1044
27025.5 11.6922
27026.1 12.3343
27026.7 13.0344
27027.3 13.7826
27027.9 14.6667
27028.5 15.6287
27029.2 16.6720
27029.8 17.7989
27030.4 19.0107
27031.1 20.3074
27031.7 21.6872
27032.3 23.1465
27033.3 25.5089
27034.2 28.0097
27036.2 33.2299
27037.1 35.8203
27038.1 38.2974
27039.0 40.5831
27040.0 42.6048
27040.6 43.6721
27041.2 44.6101
27041.7 45.4108
27042.3 46.0591
27042.9 46.5756
27043.5 46.9481
27044.1 47.1800
27044.6 47.2761
27045.3 47.2375
27045.9 47.0560
27046.5 46.7458
27047.2 46.3297
27048.5 45.2082
27049.7 43.8291
27052.3 40.6635
27054.8 37.4395
27057.1 34.7322
27058.3 33.4924
27059.4 32.3295
27060.6 31.2338
27061.7 30.2218
27062.9 29.2802
27064.0 28.4048
27065.2 27.5843
27066.4 26.8283
27068.7 25.4702
27071.0 24.2857
27073.3 23.2570
27075.6 22.3509
27077.9 21.5558
27080.2 20.8483
27082.5 20.2213
27084.8 19.6577
27087.1 19.1528
27089.4 18.6946
27091.7 18.2810
27096.3 17.5590
27100.9 16.9526
27105.5 16.4371
27110.1 15.9939
27114.8 15.6094
27119.4 15.2734
27126.1 14.8524
27132.8 14.4978
27139.5 14.1933
27146.2 13.9303
27155.4 13.6217
27164.6 13.3618
27173.8 13.1399
27183.1 12.9482
27192.3 12.7811
27201.5 12.6341
27219.9 12.3876
27238.4 12.1887
27256.8 12.0248
27275.3 11.8872
27293.7 11.7702
27312.1 11.6693
27330.6 11.5813
27367.4 11.4350
27399.3 11.3328
27431.1 11.2467
27463.0 11.1731
27494.8 11.1093
27531.7 11.0451
27568.6 10.9892
27605.5 10.9398
27642.3 10.8958
27709.4 10.8266
27776.4 10.7677
27843.5 10.7168
27910.5 10.6716
27984.3 10.6273
28058.1 10.5872
28205.6 10.5162
28312.8 10.4700
28373.2 10.4453
28433.5 10.4214
28493.9 10.3980
28554.2 10.3749
28592.8 10.3602
28612.1 10.3529
28631.3 10.3455
28650.6 10.3381
28660.3 10.3344
28669.9 10.3308
28679.5 10.3272
28689.2 10.3238
28698.8 10.3206
28703.6 10.3192
28708.4 10.3179
28713.1 10.3170
28717.7 10.3163
28722.3 10.3162
28726.9 10.3169
28731.5 10.3188
28733.8 10.3205
28736.1 10.3229
28738.4 10.3262
28740.7 10.3308
28743.0 10.3371
28745.3 10.3459
28747.1 10.3554
28748.9 10.3681
28750.7 10.3854
28752.4 10.4097
28753.3 10.4257
28754.2 10.4451
28755.1 10.4690
28756.0 10.4992
28756.9 10.5379
28757.8 10.5889
28758.7 10.6587
28759.6 10.7580
28760.2 10.8616
28760.9 11.0015
28761.5 11.1996
28761.9 11.3271
28762.2 11.4734
28762.5 11.6518
28762.8 11.8625
28763.2 12.1104
28763.5 12.3909
28763.8 12.7261
28764.2 13.1124
28764.5 13.5532
28764.8 14.0350
28765.1 14.5185
28765.4 15.0460
28765.7 15.6154
28766.0 16.2014
28766.5 17.5062
28767.1 18.8544
28767.7 20.2063
28768.0 20.8423
28768.3 21.4332
28768.6 21.9654
28768.8 22.4113
28769.1 22.7801
28769.4 23.0628
28769.7 23.2673
28770.0 23.3512
28770.3 23.3313
28770.5 23.2316
28770.8 23.0552
28771.0 22.8057
28771.3 22.4317
28771.6 21.9762
28771.9 21.4511
28772.2 20.8901
28772.9 19.3366
28773.6 17.7161
28773.9 16.9313
28774.3 16.1846
28774.6 15.4872
28775.0 14.8468
28775.3 14.2677
28775.7 13.7512
28776.0 13.2963
28776.4 12.9106
28776.8 12.4871
28777.2 12.1466
28777.7 11.8626
28778.1 11.6376
28778.5 11.4515
28779.0 11.3042
28779.4 11.1818
28779.8 11.0840
28780.3 11.0015
28780.7 10.9343
28781.6 10.8281
28782.4 10.7497
28783.3 10.6894
28784.3 10.6360
28785.3 10.5938
28786.3 10.5597
28787.3 10.5319
28788.3 10.5084
28789.2 10.4885
28791.2 10.4569
28793.2 10.4326
28795.2 10.4136
28797.1 10.3984
28799.1 10.3860
28801.0 10.3762
28804.7 10.3605
28808.4 10.3484
28810.9 10.3416
28813.5 10.3358
28818.6 10.3260
28823.7 10.3183
28828.8 10.3119
28833.9 10.3063
28839.0 10.3014
28849.3 10.2930
28859.5 10.2859
28869.7 10.2796
28879.9 10.2738
28890.1 10.2683
28900.3 10.2631
28910.6 10.2581
28920.8 10.2533
28931.0 10.2488
28941.2 10.2446
28946.3 10.2428
28951.4 10.2412
28956.5 10.2401
28961.6 10.2395
28966.7 10.2400
28969.3 10.2409
28971.8 10.2423
28974.6 10.2448
28977.4 10.2485
28980.2 10.2541
28983.0 10.2626
28985.8 10.2757
28987.2 10.2848
28988.6 10.2962
28990.0 10.3110
28991.4 10.3299
28992.7 10.3550
28994.1 10.3891
28995.1 10.4213
28996.1 10.4630
28997.1 10.5187
28998.1 10.5952
28998.6 10.6464
28999.1 10.7079
28999.6 10.7863
29000.1 10.8837
29000.6 11.0119
29001.1 11.1758
29001.5 11.3909
29002.0 11.6743
29002.5 12.0041
29002.7 12.2015
29002.9 12.4238
29003.1 12.6734
29003.4 12.9529
29003.6 13.2649
29003.8 13.5952
29004.0 13.9777
29004.2 14.3995
29004.4 14.8625
29004.7 15.3442
29004.9 15.8913
29005.1 16.4824
29005.3 17.1171
29005.5 17.7626
29005.8 18.5455
29006.0 19.3376
29006.5 21.0249
29007.4 24.6476
29007.9 26.7127
29008.2 27.6780
29008.5 28.5272
29008.8 29.4048
29009.1 30.1165
29009.3 30.4822
29009.5 30.7500
29009.7 30.9429
29009.9 31.0400
29010.0 31.0525
29010.0 31.0565
29010.1 31.0516
29010.2 31.0252
29010.4 30.9085
29010.6 30.7084
29010.8 30.4435
29011.1 30.0501
29011.3 29.5700
29011.5 29.0106
29011.7 28.3807
29012.0 27.5582
29012.2 26.6670
29012.8 24.7460
29013.7 21.1288
29014.2 19.4192
29014.4 18.6210
29014.7 17.8976
29014.9 17.2179
29015.1 16.5837
29015.3 15.9957
29015.6 15.4766
29015.8 14.9784
29016.0 14.5432
29016.2 14.1297
29016.5 13.7718
29016.7 13.4346
29016.9 13.1324
29017.2 12.8625
29017.4 12.6320
29017.8 12.2345
29018.3 11.9205
29018.8 11.6487
29019.3 11.4391
29019.8 11.2760
29020.3 11.1499
29020.8 11.0466
29021.3 10.9641
29022.2 10.8369
29023.2 10.7436
29024.2 10.6735
29025.2 10.6183
29026.2 10.5738
29027.5 10.5271
29028.8 10.4902
29030.1 10.4600
29031.4 10.4353
29032.7 10.4144
29034.0 10.3968
29036.6 10.3686
29039.2 10.3470
29041.8 10.3299
29044.3 10.3161
29046.9 10.3048
29051.1 10.2903
29055.2 10.2790
29060.7 10.2671
29067.6 10.2558
29074.5 10.2470
29081.5 10.2400
29088.4 10.2344
29095.3 10.2298
29102.2 10.2263
29109.1 10.2238
29116.0 10.2226
29122.9 10.2230
29129.8 10.2257
29136.7 10.2319
29140.1 10.2369
29143.6 10.2440
29146.5 10.2520
29149.5 10.2625
29152.4 10.2764
29155.3 10.2949
29158.3 10.3199
29161.2 10.3543
29164.1 10.4035
29165.6 10.4362
29167.1 10.4759
29169.5 10.5642
29170.7 10.6231
29171.9 10.6953
29173.1 10.7868
29174.3 10.9040
29175.5 11.0575
29176.7 11.2622
29177.3 11.3945
29177.9 11.5497
29178.5 11.7397
29179.1 11.9672
29179.8 12.2521
29180.4 12.6003
29181.0 13.0356
29181.3 13.2933
29181.6 13.5820
29181.9 14.0101
29182.3 14.5056
29182.7 15.0774
29183.1 15.7341
29183.5 16.4839
29183.9 17.3332
29184.3 18.2863
29184.7 19.3158
29185.1 20.7536
29185.6 22.2951
29186.1 23.9767
29186.6 25.6868
29187.4 28.8620
29187.9 30.3248
29188.3 31.6256
29188.7 32.6636
29189.2 33.4581
29189.4 33.7528
29189.6 33.9745
29189.8 34.1208
29190.0 34.1901
29190.2 34.1768
29190.5 34.0707
29190.7 33.8736
29190.9 33.6023
29191.1 33.2364
29191.4 32.7913
29191.8 31.7157
29192.2 30.5075
29192.7 29.1862
29193.5 26.2775
29194.3 23.2847
29194.8 21.8617
29195.2 20.5653
29195.6 19.5120
29195.9 18.5476
29196.3 17.6740
29196.7 16.9098
29197.0 16.2090
29197.4 15.6043
29197.8 15.0558
29198.1 14.5866
29198.4 14.2503
29198.7 13.9475
29199.3 13.4294
29199.9 13.0087
29200.4 12.6653
29201.0 12.3827
29201.6 12.1481
29202.2 11.9514
29202.7 11.7874
29203.8 11.5515
29204.8 11.3689
29205.8 11.2215
29206.8 11.1028
29207.8 11.0037
29208.8 10.9215
29210.8 10.7920
29213.1 10.6821
29215.4 10.6009
29217.7 10.5386
29220.0 10.4899
29222.4 10.4507
29224.7 10.4187
29227.0 10.3920
29229.3 10.3696
29233.3 10.3380
29237.3 10.3135
29241.3 10.2939
29245.4 10.2779
29249.4 10.2643
29253.4 10.2528
29261.4 10.2342
29266.3 10.2249
29271.3 10.2167
29281.2 10.2031
29291.0 10.1920
29305.9 10.1781
29320.7 10.1665
29335.5 10.1563
29350.3 10.1471
29370.1 10.1358
29381.2 10.1298
29392.3 10.1241
29403.4 10.1186
29414.5 10.1135
29425.6 10.1088
29431.2 10.1068
29436.8 10.1051
29442.3 10.1037
29447.9 10.1030
29453.4 10.1033
29459.0 10.1050
29462.5 10.1074
29466.1 10.1110
29469.6 10.1165
29473.2 10.1248
29476.7 10.1375
29480.3 10.1570
29482.1 10.1705
29483.8 10.1876
29485.6 10.2096
29487.4 10.2381
29488.7 10.2653
29490.0 10.2990
29491.3 10.3415
29492.6 10.3963
29493.9 10.4688
29495.3 10.5660
29496.6 10.7020
29497.2 10.7922
29497.9 10.9013
29498.5 11.0302
29499.1 11.1915
29499.7 11.3969
29500.3 11.6576
29501.0 12.0037
29501.3 12.2161
29501.6 12.4604
29501.9 12.7415
29502.2 13.0644
29502.5 13.4350
29502.8 13.8444
29503.2 14.3925
29503.5 15.0244
29503.9 15.7478
29504.2 16.5439
29504.6 17.4636
29504.9 18.4864
29505.3 19.6100
29505.6 20.7917
29506.0 22.3965
29506.4 24.0541
29507.3 27.4607
29507.8 29.3995
29508.0 30.3021
29508.3 31.1420
29508.6 32.1324
29508.9 32.9625
29509.3 33.6080
29509.6 34.0393
29509.8 34.2120
29510.0 34.2929
29510.1 34.3011
29510.2 34.2840
29510.4 34.2136
29510.7 33.9181
29511.0 33.4247
29511.4 32.7485
29511.6 32.0226
29511.9 31.2194
29512.2 30.3307
29512.4 29.3731
29513.0 27.1227
29513.6 24.7939
29514.2 22.7192
29514.4 21.7312
29514.7 20.7873
29515.0 19.8936
29515.2 19.0545
29515.5 18.2726
29515.8 17.5491
29516.0 16.9550
29516.3 16.4282
29516.5 15.9418
29516.7 15.4944
29517.0 15.0670
29517.2 14.6931
29517.4 14.3519
29517.6 14.0411
29518.1 13.4912
29518.6 13.0486
29519.0 12.6839
29519.5 12.3830
29519.9 12.1383
29520.4 11.9376
29520.8 11.7675
29521.3 11.6222
29522.1 11.3888
29523.0 11.2103
29523.9 11.0701
29524.8 10.9572
29525.7 10.8647
29526.5 10.7876
29527.5 10.7192
29528.4 10.6613
29530.3 10.5688
29532.1 10.4987
29534.0 10.4439
29535.8 10.4000
29537.7 10.3643
29539.6 10.3348
29541.4 10.3100
29544.0 10.2820
29546.5 10.2592
29549.1 10.2400
29551.6 10.2239
29556.7 10.1981
29561.8 10.1785
29568.0 10.1599
29574.3 10.1453
29580.6 10.1335
29588.4 10.1213
29596.2 10.1113
29604.1 10.1027
29611.9 10.0953
29624.4 10.0849
29640.1 10.0738
29655.7 10.0641
29671.4 10.0552
29687.1 10.0471
29710.6 10.0356
29734.1 10.0249
29781.0 10.0046
29828.0 9.98522
29875.0 9.96624
29969.0 9.92871
30062.9 9.89104
30200.7 9.83429
30338.6 9.77496
30614.2 9.64549
30889.8 9.49593
31165.4 9.31832
31303.3 9.21522
31441.1 9.10013
31578.9 8.97051
31716.7 8.82305
31816.9 8.70192
31917.2 8.56682
32017.4 8.41512
32117.6 8.24336
32186.5 8.11142
32255.4 7.96636
32324.4 7.80630
32393.3 7.62883
32446.5 7.47781
32499.8 7.31311
32553.0 7.13339
32606.3 6.93600
32627.4 6.85226
32648.5 6.76559
32669.7 6.67752
32680.2 6.63560
32685.5 6.61704
32690.8 6.60287
32695.3 6.59802
32697.6 6.60047
32699.8 6.60881
32702.1 6.62705
32703.2 6.64214
32704.3 6.66304
32705.5 6.69283
32706.6 6.73552
32707.7 6.80042
32708.3 6.84549
32708.8 6.90338
32709.6 7.00838
32709.9 7.07786
32710.3 7.16000
32710.7 7.26303
32711.0 7.38944
32711.4 7.54465
32711.8 7.72934
32712.1 7.96084
32712.5 8.24257
32712.9 8.58314
32713.2 8.97947
32713.4 9.21726
32713.6 9.46211
32713.8 9.72691
32714.0 10.0125
32714.2 10.3372
32714.3 10.6674
32714.5 11.0201
32714.7 11.3954
32715.0 12.0713
32715.3 12.7831
32715.6 13.5767
32715.9 14.3939
32716.2 15.2835
32716.5 16.1764
32717.0 18.0116
32717.6 19.8454
32717.9 20.6926
32718.2 21.4809
32718.5 22.1000
32718.7 22.6315
32719.0 23.1106
32719.2 23.4911
32719.4 23.7552
32719.6 23.9438
32719.8 24.0687
32720.0 24.1286
32720.0 24.1328
32720.1 24.1315
32720.2 24.1138
32720.4 24.0353
32720.6 23.8900
32720.8 23.6941
32721.0 23.3998
32721.3 23.0373
32721.5 22.6117
32721.7 22.1291
32722.0 21.4687
32722.2 20.7732
32722.8 19.2564
32723.8 16.0239
32724.3 14.5050
32724.6 13.7931
32724.8 13.1196
32725.1 12.4181
32725.4 11.7930
32725.7 11.2009
32726.0 10.6826
32726.3 10.1997
32726.6 9.78321
32726.8 9.41282
32727.1 9.08527
32727.4 8.78739
32727.7 8.53596
32728.0 8.31636
32728.2 8.12504
32728.5 7.95311
32728.8 7.80921
32729.1 7.68413
32729.4 7.57529
32729.7 7.45863
32730.1 7.35994
32730.8 7.20406
32731.5 7.08803
32732.2 7.00000
32732.9 6.92910
32733.6 6.87133
32735.0 6.78271
32736.4 6.71625
32737.7 6.66467
32740.5 6.58785
32742.5 6.54807
32744.4 6.51504
32748.2 6.46202
32752.0 6.41949
32755.9 6.38351
32763.5 6.32241
32771.2 6.26862
32790.0 6.14830
32808.9 6.02974
32827.7 5.90277
32846.5 5.75297
32853.5 5.68534
32860.5 5.60553
32867.5 5.50533
32870.9 5.44290
32874.4 5.36787
32877.9 5.27321
32879.7 5.21553
32881.4 5.14811
32883.1 5.06725
32884.9 4.96894
32885.8 4.91078
32886.6 4.84484
32887.5 4.76933
32888.4 4.68211
32888.8 4.63517
32889.2 4.58606
32889.6 4.53234
32890.0 4.47666
32890.4 4.41674
32890.9 4.35625
32891.3 4.29369
32891.7 4.23422
32892.1 4.17821
32892.5 4.13267
32892.9 4.10126
32893.3 4.09259
32893.8 4.11499
32894.2 4.17701
32894.6 4.28891
32895.0 4.46086
32895.4 4.67539
32895.7 4.95214
32896.1 5.29490
32896.5 5.70497
32896.8 6.18057
32897.2 6.71646
32897.6 7.30373
32898.0 7.92987
32898.8 9.46069
32899.3 10.2047
32899.7 10.8403
32900.0 11.2937
32900.2 11.5496
32900.5 11.8749
32900.8 12.1324
32901.1 12.2720
32901.3 12.3749
32901.5 12.4410
32901.7 12.4711
32901.9 12.4661
32902.2 12.4277
32902.4 12.3580
32902.6 12.2593
32903.0 11.9865
32903.5 11.6424
32903.9 11.2360
32904.3 10.7992
32904.8 10.3541
32905.2 9.91870
32905.7 9.50684
32906.1 9.12773
32906.5 8.78652
32907.0 8.49138
32907.5 8.20564
32907.9 7.96730
32908.4 7.76534
32908.9 7.59467
32909.3 7.44742
32909.8 7.32503
32910.3 7.22017
32910.8 7.12950
32911.2 7.04871
32911.7 6.97899
32912.6 6.86099
32913.6 6.76323
32914.5 6.68185
32915.6 6.60648
32916.6 6.54210
32918.6 6.43600
32920.6 6.35127
32922.6 6.28225
32926.7 6.17448
32930.7 6.09335
32936.1 6.01100
32941.5 5.94776
32952.3 5.85606
32963.1 5.79315
32973.9 5.75091
32984.7 5.72415
32995.5 5.71248
33007.4 5.71751
33019.3 5.74245
33031.2 5.79002
33043.1 5.86393
33055.0 5.96818
33066.8 6.10897
33078.7 6.29280
33084.7 6.40334
33090.6 6.52761
33099.8 6.75089
33109.0 7.01586
33118.1 7.32883
33127.3 7.69674
33131.9 7.90349
33136.5 8.12737
33141.1 8.36733
33145.7 8.62511
33150.3 8.90531
33154.9 9.20742
33159.5 9.53247
33164.0 9.88185
33169.8 10.3587
33175.6 10.8793
33181.4 11.4467
33187.2 12.0630
33192.9 12.7332
33198.7 13.4576
33204.5 14.2414
33210.3 15.0840
33215.5 15.8970
33220.7 16.7661
33225.9 17.6812
33231.0 18.6452
33236.2 19.6581
33241.4 20.7176
33251.8 22.9649
33262.2 25.3493
33272.6 27.8131
33283.0 30.2816
33293.4 32.6676
33301.7 34.4544
33310.0 36.0840
33317.3 37.3512
33324.6 38.4448
33331.8 39.3538
33339.1 40.0690
33346.4 40.5920
33353.7 40.9268
33360.9 41.0843
33368.2 41.0790
33374.1 40.9666
33379.9 40.7709
33391.7 40.1676
33403.4 39.3439
33415.2 38.3716
33438.7 36.2018
33462.2 33.9831
33488.5 31.6460
33501.6 30.5675
33514.8 29.5558
33528.0 28.6097
33541.1 27.7288
33554.3 26.9097
33567.4 26.1479
33593.8 24.7838
33620.1 23.6043
33646.4 22.5806
33672.7 21.6881
33699.0 20.9058
33725.4 20.2165
33751.7 19.6058
33778.0 19.0618
33803.1 18.5973
33828.3 18.1761
33878.5 17.4471
33928.8 16.8382
33979.0 16.3224
34031.6 15.8624
34084.3 15.4671
34136.9 15.1237
34189.6 14.8230
34242.2 14.5579
34294.9 14.3220
34347.5 14.1108
34400.1 13.9205
34457.6 13.7332
34483.9 13.6535
34510.2 13.5774
34536.5 13.5046
34549.7 13.4694
34562.8 13.4351
34572.4 13.4107
34582.0 13.3870
34591.6 13.3639
34601.1 13.3419
34606.2 13.3308
34611.3 13.3204
34616.4 13.3108
34621.5 13.3026
34626.6 13.2963
34629.1 13.2942
34631.6 13.2931
34634.2 13.2934
34636.7 13.2956
34639.3 13.3003
34641.8 13.3087
34643.8 13.3190
34645.8 13.3340
34647.9 13.3555
34649.9 13.3869
34651.9 13.4339
34652.9 13.4660
34653.9 13.5065
34654.9 13.5582
34655.9 13.6255
34657.0 13.7155
34658.0 13.8379
34658.6 13.9489
34659.3 14.0893
34660.0 14.2715
34660.6 14.5099
34661.3 14.8283
34662.0 15.2397
34662.3 15.4934
34662.7 15.7726
34663.0 16.0973
34663.3 16.4510
34663.7 16.9080
34664.1 17.4059
34664.5 17.9722
34664.8 18.5756
34665.2 19.2452
34665.6 19.9397
34666.3 21.4180
34667.2 23.1101
34667.6 23.9055
34668.0 24.6410
34668.4 25.2621
34668.8 25.7859
34669.1 26.1948
34669.5 26.4745
34670.0 26.6263
34670.4 26.5937
34670.8 26.4251
34671.2 26.1183
34671.5 25.7001
34672.0 25.1337
34672.4 24.4863
34672.8 23.7678
34673.2 23.0012
34674.4 20.5340
34675.0 19.3742
34675.7 18.3482
34676.2 17.5511
34676.8 16.8646
34677.3 16.2849
34677.8 15.8108
34678.4 15.4131
34678.9 15.0886
34679.5 14.8248
34680.0 14.6138
34680.6 14.4264
34681.2 14.2746
34681.8 14.1504
34682.4 14.0491
34683.6 13.8905
34684.7 13.7739
34685.9 13.6848
34687.1 13.6147
34688.2 13.5580
34689.4 13.5114
34690.8 13.4650
34692.2 13.4269
34693.6 13.3949
34695.0 13.3679
34697.9 13.3238
34700.7 13.2895
34703.5 13.2617
34706.3 13.2386
34709.1 13.2190
34711.9 13.2020
34716.9 13.1762
34721.9 13.1543
34726.9 13.1352
34731.9 13.1181
34736.9 13.1024
34741.9 13.0880
34751.9 13.0613
34761.9 13.0368
34771.9 13.0139
34782.0 12.9922
34792.0 12.9713
34812.0 12.9316
34832.0 12.8940
34852.0 12.8580
34872.0 12.8233
34912.0 12.7573
34952.0 12.6952
35032.1 12.5805
35112.1 12.4765
35192.1 12.3816
35272.1 12.2945
35402.2 12.1670
35532.3 12.0540
35792.4 11.8619
35972.4 11.7496
36152.5 11.6500
36332.6 11.5606
36512.6 11.4795
36612.7 11.4376
36712.7 11.3975
36762.7 11.3781
36812.8 11.3592
36862.8 11.3408
36912.8 11.3230
36955.3 11.3088
36976.6 11.3022
36997.8 11.2961
37019.1 11.2907
37040.4 11.2863
37061.6 11.2836
37082.9 11.2839
37100.4 11.2877
37109.1 11.2916
37117.9 11.2971
37126.7 11.3053
37135.4 11.3169
37144.2 11.3334
37152.9 11.3569
37161.0 11.3881
37169.2 11.4327
37173.2 11.4626
37177.3 11.4993
37181.4 11.5449
37185.4 11.6019
37190.1 11.6876
37194.8 11.8030
37199.5 11.9633
37201.8 12.0678
37204.2 12.1938
37207.2 12.3951
37210.1 12.6601
37211.6 12.8255
37213.1 13.0173
37214.6 13.2446
37216.1 13.5125
37217.8 13.8909
37219.5 14.3628
37220.4 14.6429
37221.2 14.9589
37222.1 15.3164
37222.9 15.7173
37223.7 16.1163
37224.4 16.5579
37225.2 17.0538
37225.9 17.6113
37226.7 18.2477
37227.4 18.9550
37228.1 19.7502
37228.9 20.6422
37229.7 21.8111
37230.6 23.1304
37231.5 24.6027
37232.3 26.2208
37233.1 27.7349
37233.8 29.2988
37235.3 32.4917
37236.0 34.0255
37236.8 35.4420
37237.5 36.6808
37238.2 37.6841
37238.7 38.1482
37239.1 38.5027
37239.6 38.7413
37240.0 38.8597
37240.2 38.8731
37240.9 38.7136
37241.6 38.2643
37242.3 37.5485
37243.0 36.6008
37243.7 35.4639
37244.4 34.1848
37245.8 31.3891
37247.0 28.7942
37247.6 27.5460
37248.3 26.3534
37248.9 25.2272
37249.5 24.1741
37250.2 23.1971
37250.8 22.2966
37251.4 21.4580
37252.1 20.6927
37252.7 19.9961
37253.4 19.3631
37254.0 18.7884
37254.6 18.2667
37255.3 17.7929
37255.9 17.3686
37256.5 16.9762
37257.2 16.6187
37258.5 15.9940
37259.7 15.4702
37261.0 15.0309
37262.3 14.6538
37263.6 14.3304
37264.9 14.0513
37266.1 13.8106
37268.7 13.4133
37271.2 13.1031
37273.1 12.9179
37274.9 12.7598
37278.7 12.5062
37282.4 12.3121
37286.1 12.1607
37291.2 12.0007
37296.3 11.8800
37301.4 11.7861
37306.5 11.7119
37311.6 11.6516
37316.7 11.6019
37321.8 11.5604
37326.9 11.5252
37337.2 11.4692
37347.4 11.4267
37359.4 11.3881
37371.5 11.3579
37383.6 11.3336
37395.7 11.3135
37406.8 11.2977
37417.9 11.2841
37440.2 11.2613
37455.1 11.2486
37469.9 11.2373
37503.4 11.2156
37536.8 11.1975
37570.2 11.1817
37603.7 11.1675
37633.4 11.1559
37674.2 11.1411
37715.1 11.1272
37796.8 11.1016
37878.5 11.0778
37960.2 11.0554
38079.1 11.0246
38197.9 10.9952
38316.8 10.9671
38435.7 10.9398
38524.8 10.9199
38613.9 10.9002
38703.1 10.8807
38747.7 10.8710
38792.2 10.8613
38821.9 10.8547
38851.7 10.8481
38881.4 10.8415
38911.1 10.8347
38940.8 10.8278
38955.7 10.8243
38970.5 10.8207
38985.4 10.8170
39000.2 10.8132
39015.1 10.8093
39029.9 10.8052
39038.8 10.8027
39047.6 10.8002
39056.4 10.7975
39065.2 10.7948
39074.1 10.7920
39078.5 10.7906
39082.9 10.7893
39087.3 10.7880
39091.7 10.7867
39096.1 10.7856
39100.5 10.7847
39104.2 10.7843
39108.0 10.7843
39111.7 10.7850
39115.4 10.7869
39117.2 10.7884
39119.1 10.7906
39121.0 10.7936
39122.8 10.7977
39124.7 10.8034
39126.5 10.8112
39128.4 10.8222
39130.2 10.8379
39131.7 10.8554
39133.1 10.8794
39134.6 10.9140
39135.3 10.9376
39136.0 10.9667
39136.8 11.0044
39137.5 11.0532
39138.2 11.1197
39138.9 11.2101
39139.7 11.3390
39140.4 11.5199
39140.8 11.6409
39141.1 11.7815
39141.5 11.9487
39141.8 12.1466
39142.3 12.4807
39142.8 12.8855
39143.3 13.3777
39143.8 13.9660
39144.3 14.6707
39144.8 15.4638
39145.3 16.3516
39145.8 17.3196
39147.6 21.2207
39148.0 21.8054
39148.3 22.3409
39148.6 22.8162
39148.9 23.2092
39149.1 23.4806
39149.4 23.6890
39149.6 23.8489
39149.9 23.9454
39150.0 23.9768
39150.1 23.9843
39150.3 23.9667
39150.6 23.8915
39150.8 23.7604
39151.1 23.5755
39151.3 23.3177
39151.6 23.0043
39152.1 22.2323
39152.5 21.4947
39152.9 20.6855
39153.8 18.9646
39154.6 17.2747
39155.0 16.4909
39155.4 15.7823
39155.9 15.1220
39156.3 14.5452
39156.7 14.0240
39157.1 13.5812
39157.6 13.1486
39158.0 12.7883
39158.5 12.4912
39159.0 12.2528
39159.4 12.0539
39159.9 11.8922
39160.4 11.7605
39160.8 11.6550
39161.3 11.5660
39161.8 11.4923
39162.7 11.3792
39163.6 11.2963
39164.6 11.2331
39165.9 11.1649
39167.2 11.1137
39168.6 11.0739
39169.9 11.0423
39171.2 11.0163
39172.5 10.9946
39173.9 10.9764
39175.2 10.9610
39177.9 10.9359
39180.5 10.9167
39183.2 10.9013
39185.8 10.8889
39188.9 10.8768
39192.5 10.8659
39196.0 10.8569
39199.6 10.8495
39203.1 10.8432
39206.6 10.8378
39210.2 10.8330
39217.3 10.8250
39224.3 10.8186
39231.4 10.8131
39238.5 10.8085
39245.6 10.8044
39257.0 10.7988
39268.4 10.7939
39279.8 10.7895
39291.2 10.7856
39302.6 10.7819
39314.0 10.7785
39325.4 10.7753
39336.8 10.7722
39359.6 10.7663
39382.4 10.7608
39405.2 10.7555
39428.0 10.7505
39468.8 10.7417
39509.7 10.7332
39550.6 10.7249
39591.5 10.7167
39673.3 10.7008
39755.0 10.6851
39906.0 10.6567
40056.9 10.6286
40358.8 10.5728
40711.1 10.5070
40887.2 10.4734
41063.3 10.4391
41189.1 10.4140
41314.9 10.3883
41453.2 10.3592
41522.4 10.3443
41591.6 10.3291
41660.8 10.3135
41730.0 10.2977
41799.2 10.2814
41868.4 10.2649
41918.7 10.2527
41969.0 10.2405
41995.7 10.2341
42022.5 10.2278
42049.2 10.2217
42075.9 10.2160
42102.6 10.2108
42129.4 10.2065
42156.1 10.2040
42169.5 10.2036
42182.8 10.2043
42193.8 10.2058
42204.9 10.2084
42215.9 10.2125
42226.9 10.2185
42237.9 10.2273
42248.9 10.2399
42259.9 10.2580
42270.9 10.2839
42280.3 10.3151
42289.8 10.3593
42299.2 10.4230
42303.9 10.4656
42308.6 10.5178
42314.5 10.6015
42320.4 10.7135
42326.3 10.8672
42332.2 11.0850
42336.0 11.2729
42339.7 11.5163
42341.6 11.6662
42343.4 11.8397
42345.3 12.0420
42347.2 12.2781
42349.3 12.6088
42351.5 13.0133
42352.6 13.2508
42353.7 13.5164
42354.7 13.8146
42355.8 14.1505
42356.9 14.5153
42357.9 14.9232
42358.9 15.3848
42359.9 15.9092
42361.0 16.5129
42362.0 17.1968
42363.0 17.9806
42364.1 18.8809
42364.6 19.4055
42365.2 19.9699
42365.7 20.5771
42366.2 21.2300
42366.8 21.9314
42367.3 22.6841
42367.9 23.4905
42368.4 24.3363
42369.0 25.3605
42369.6 26.4376
42370.2 27.5837
42370.8 28.7966
42371.9 31.4030
42373.1 34.1906
42374.8 38.3567
42375.7 40.3201
42376.6 42.1085
42377.4 43.6405
42377.9 44.2863
42378.3 44.8405
42378.7 45.2957
42379.1 45.6459
42379.6 45.8863
42380.0 46.0139
42380.5 46.0139
42381.0 45.8827
42381.4 45.6418
42381.8 45.2937
42382.3 44.8437
42383.1 43.6661
42384.0 42.1753
42384.8 40.4475
42385.7 38.5621
42387.4 34.6125
42388.5 32.0970
42389.7 29.7552
42390.8 27.6144
42391.3 26.6185
42391.9 25.6965
42392.6 24.5875
42393.3 23.5812
42394.0 22.6446
42394.7 21.7989
42395.4 21.0143
42396.1 20.3071
42396.8 19.6602
42397.5 19.0682
42398.5 18.2793
42399.6 17.5918
42400.6 16.9848
42401.6 16.4473
42402.7 15.9653
42403.7 15.5400
42404.7 15.1597
42405.8 14.8183
42406.8 14.5082
42407.8 14.2309
42409.9 13.7494
42412.0 13.3502
42414.0 13.0173
42415.9 12.7583
42417.8 12.5341
42421.5 12.1680
42425.3 11.8826
42429.1 11.6567
42433.9 11.4261
42438.8 11.2471
42443.7 11.1053
42448.6 10.9906
42456.8 10.8404
42465.1 10.7287
42473.4 10.6430
42481.6 10.5755
42489.5 10.5236
42497.4 10.4803
42505.3 10.4440
42513.2 10.4131
42528.9 10.3633
42544.7 10.3247
42562.7 10.2900
42568.7 10.2801
42586.8 10.2541
42604.8 10.2322
42622.8 10.2134
42640.8 10.1970
42670.9 10.1734
42700.9 10.1532
42740.0 10.1302
42779.0 10.1096
42818.1 10.0906
42857.1 10.0728
42896.2 10.0556
42935.2 10.0390
43013.3 10.0064
43109.4 9.96666
43205.6 9.92622
43301.7 9.88436
43397.8 9.84050
43530.0 9.77588
43662.2 9.70501
43794.3 9.62629
43926.5 9.53769
44040.7 9.45087
44154.8 9.35264
44269.0 9.23988
44383.1 9.10862
44515.3 8.92579
44581.4 8.81857
44647.4 8.69806
44713.5 8.56126
44779.6 8.40480
44845.7 8.22429
44911.8 8.01371
44977.9 7.76461
45010.9 7.62251
45044.0 7.46660
45077.0 7.29493
45110.1 7.10561
45143.1 6.89649
45176.1 6.66550
45210.7 6.39895
45245.2 6.10738
45262.5 5.95369
45279.8 5.79685
45297.1 5.63952
45314.3 5.48622
45329.3 5.36221
45344.4 5.25473
45359.4 5.17540
45366.9 5.15145
45374.4 5.14173
45381.5 5.14896
45388.7 5.17607
45395.8 5.22781
45402.9 5.30970
45410.1 5.42891
45413.6 5.50505
45417.2 5.59340
45420.8 5.69533
45424.3 5.81204
45427.9 5.94631
45431.5 6.09942
45435.6 6.30316
45439.7 6.53800
45443.9 6.80759
45448.0 7.11592
45452.1 7.46734
45456.3 7.86654
45460.4 8.31843
45464.5 8.82673
45467.8 9.27193
45471.0 9.75776
45474.2 10.2898
45477.5 10.8671
45480.7 11.4957
45484.0 12.1738
45487.2 12.9075
45490.5 13.6942
45493.6 14.4994
45496.7 15.3538
45499.8 16.2553
45502.9 17.1996
45506.0 18.1901
45509.0 19.2163
45515.2 21.3656
45527.6 25.8131
45533.8 27.9432
45540.0 29.8928
45544.1 31.0527
45548.3 32.0767
45552.4 32.9507
45556.5 33.6661
45560.7 34.2202
45564.8 34.6156
45568.9 34.8595
45573.0 34.9627
45576.5 34.9511
45579.9 34.8606
45586.7 34.4786
45593.6 33.8861
45600.4 33.1465
45614.1 31.4281
45627.8 29.6228
45639.0 28.1905
45650.3 26.8507
45661.5 25.6195
45672.7 24.4997
45684.0 23.4837
45695.2 22.5634
45706.4 21.7283
45717.7 20.9679
45728.9 20.2719
45740.2 19.6305
45762.6 18.4749
45774.9 17.8938
45787.2 17.3313
45796.9 16.8873
45806.6 16.4329
45816.3 15.9509
45821.1 15.6922
45826.0 15.4154
45831.4 15.0798
45836.7 14.7020
45842.1 14.2613
45844.8 14.0093
45847.4 13.7289
45850.3 13.3962
45853.1 13.0126
45855.9 12.5621
45857.3 12.3040
45858.7 12.0219
45859.9 11.7519
45861.1 11.4585
45862.3 11.1362
45863.5 10.7819
45864.8 10.3902
45866.0 9.96885
45867.2 9.52464
45868.4 9.08483
45869.2 8.83264
45869.9 8.63094
45870.3 8.55910
45870.7 8.51589
45871.1 8.50533
45871.5 8.53431
45871.8 8.61308
45872.2 8.74590
45872.6 8.94266
45873.0 9.21210
45873.4 9.57327
45873.8 10.0161
45873.9 10.2737
45874.1 10.5564
45874.3 10.8650
45874.5 11.2003
45874.8 11.7032
45875.1 12.3254
45875.4 13.0128
45875.6 13.7652
45875.9 14.5524
45876.2 15.4284
45876.5 16.3301
45876.8 17.3176
45877.1 18.3181
45877.6 20.2400
45878.1 22.2544
45879.1 26.3212
45879.6 28.1149
45880.0 29.7794
45880.4 31.2207
45880.8 32.4981
45881.3 33.6529
45881.7 34.6144
45882.0 35.2261
45882.3 35.7357
45882.6 36.1423
45882.9 36.4385
45883.2 36.6465
45883.5 36.7583
45883.8 36.7790
45884.1 36.7179
45884.5 36.5168
45884.9 36.1957
45885.4 35.7730
45885.8 35.2806
45886.6 34.1109
45887.4 32.8141
45888.2 31.4918
45889.0 30.2163
45889.8 29.0314
45890.6 27.9586
45891.4 26.9919
45892.2 26.1497
45893.1 25.4090
45893.9 24.7573
45894.7 24.1822
45895.5 23.6724
45896.3 23.2179
45897.1 22.8106
45898.1 22.3456
45899.2 21.9389
45901.2 21.2517
45903.3 20.6893
45905.4 20.2233
45907.0 19.9055
45908.6 19.6252
45911.9 19.1484
45915.1 18.7549
45918.3 18.4250
45921.0 18.1898
45923.7 17.9811
45929.0 17.6222
45934.3 17.3229
45939.6 17.0673
45946.1 16.7992
45952.6 16.5678
45959.1 16.3643
45965.5 16.1829
45977.9 15.8828
45990.3 15.6273
46002.7 15.4047
46015.1 15.2073
46036.3 14.9135
46057.6 14.6612
46078.8 14.4404
46100.1 14.2444
46126.0 14.0316
46152.0 13.8427
46203.9 13.5198
46241.6 13.3206
46279.4 13.1444
46305.4 13.0343
46331.3 12.9320
46344.3 12.8835
46357.3 12.8367
46370.3 12.7916
46383.2 12.7484
46392.7 12.7182
46402.1 12.6894
46411.6 12.6626
46421.0 12.6386
46425.7 12.6282
46430.4 12.6195
46435.2 12.6131
46439.9 12.6100
46444.6 12.6116
46449.3 12.6208
46451.7 12.6297
46454.0 12.6427
46456.4 12.6609
46458.8 12.6863
46460.7 12.7141
46462.6 12.7505
46464.5 12.7987
46466.4 12.8629
46468.3 12.9510
46470.3 13.0740
46472.2 13.2512
46473.1 13.3701
46474.1 13.5159
46474.9 13.6714
46475.7 13.8603
46476.5 14.0951
46477.3 14.3900
46478.2 14.7637
46479.0 15.2402
46479.4 15.5297
46479.8 15.8488
46480.2 16.2179
46480.6 16.6232
46481.0 17.0898
46481.4 17.6125
46481.8 18.1953
46482.2 18.8250
46482.6 19.5355
46483.0 20.2931
46483.4 21.1351
46483.8 22.0180
46484.5 23.6195
46485.2 25.3159
46486.5 28.8360
46487.0 30.2641
46487.6 31.5760
46488.2 32.7172
46488.7 33.6373
46489.0 34.0469
46489.4 34.3640
46489.7 34.5837
46490.0 34.7028
46490.2 34.7252
46490.5 34.6870
46490.8 34.5598
46491.1 34.3457
46491.4 34.0483
46491.7 33.6721
46492.0 33.2228
46492.6 32.1515
46493.2 30.8108
46493.8 29.3206
46495.1 26.1727
46495.7 24.5646
46496.4 23.0766
46497.0 21.7152
46497.6 20.4981
46498.3 19.4151
46498.9 18.4955
46499.6 17.7110
46500.2 17.0474
46500.9 16.4811
46501.5 16.0135
46502.1 15.6207
46502.8 15.2897
46503.3 15.0421
46503.9 14.8270
46505.0 14.4773
46506.1 14.2045
46507.2 13.9871
46508.3 13.8105
46509.4 13.6646
46510.6 13.5423
46511.7 13.4385
46513.8 13.2794
46515.9 13.1570
46518.0 13.0593
46520.1 12.9802
46522.2 12.9144
46524.3 12.8591
46526.4 12.8117
46528.5 12.7709
46533.0 12.7003
46537.4 12.6450
46541.8 12.5999
46546.3 12.5620
46550.7 12.5295
46555.2 12.5012
46559.6 12.4760
46564.0 12.4534
46573.9 12.4099
46583.7 12.3726
46593.5 12.3397
46603.3 12.3100
46613.2 12.2825
46623.0 12.2570
46642.6 12.2101
46663.2 12.1654
46683.8 12.1239
46704.4 12.0851
46724.9 12.0484
46766.1 11.9803
46807.3 11.9179
46863.4 11.8402
46919.5 11.7696
46975.6 11.7048
47031.8 11.6449
47114.1 11.5650
47196.4 11.4928
47361.0 11.3666
47488.3 11.2825
47615.5 11.2070
47742.7 11.1386
47869.9 11.0758
47899.8 11.0617
47982.2 11.0240
48064.5 10.9876
48105.6 10.9697
48146.8 10.9519
48167.4 10.9430
48188.0 10.9341
48208.5 10.9251
48229.1 10.9160
48243.1 10.9098
48257.2 10.9034
48271.2 10.8969
48285.2 10.8902
48299.3 10.8834
48306.3 10.8798
48313.3 10.8762
48320.3 10.8725
48327.3 10.8688
48334.4 10.8649
48341.4 10.8610
48346.5 10.8580
48351.7 10.8551
48356.8 10.8523
48361.9 10.8497
48367.1 10.8474
48369.7 10.8466
48372.2 10.8461
48374.8 10.8460
48377.4 10.8466
48380.0 10.8482
48382.5 10.8513
48384.5 10.8554
48386.5 10.8617
48388.5 10.8712
48390.5 10.8860
48391.5 10.8966
48392.5 10.9099
48393.5 10.9276
48394.5 10.9510
48395.5 10.9837
48396.4 11.0303
48396.9 11.0616
48397.4 11.0995
48397.9 11.1474
48398.4 11.2060
48398.8 11.2662
48399.2 11.3387
48399.7 11.4263
48400.1 11.5318
48400.5 11.6585
48400.9 11.8099
48401.3 11.9901
48401.7 12.1972
48402.1 12.4455
48402.5 12.7338
48402.9 13.0653
48403.3 13.4423
48403.7 13.8660
48404.2 14.3362
48404.6 14.8508
48405.0 15.3918
48405.6 16.2925
48406.2 17.2249
48406.8 18.1785
48407.4 19.0742
48408.1 19.9239
48408.4 20.2842
48408.7 20.5971
48409.0 20.8495
48409.3 21.0419
48409.6 21.1800
48409.9 21.2615
48410.0 21.2735
48410.1 21.2821
48410.4 21.2674
48410.8 21.1788
48411.1 21.0189
48411.5 20.7916
48411.9 20.4163
48412.3 19.9675
48412.7 19.4525
48413.1 18.8875
48414.7 16.6499
48415.5 15.5860
48415.8 15.1019
48416.2 14.6509
48416.8 14.0720
48417.3 13.5680
48417.8 13.1377
48418.4 12.7823
48418.9 12.4817
48419.4 12.2353
48420.0 12.0350
48420.5 11.8757
48421.1 11.7442
48421.6 11.6378
48422.1 11.5513
48422.7 11.4816
48423.2 11.4227
48423.7 11.3735
48424.8 11.2969
48426.1 11.2284
48427.4 11.1779
48428.7 11.1385
48430.0 11.1071
48431.3 11.0813
48432.6 11.0599
48434.0 11.0417
48435.3 11.0261
48437.9 11.0007
48440.5 10.9808
48443.1 10.9649
48445.7 10.9520
48448.1 10.9417
48450.6 10.9329
48455.5 10.9185
48460.4 10.9070
48465.3 10.8977
48470.3 10.8898
48475.2 10.8831
48480.1 10.8772
48485.0 10.8719
48489.9 10.8672
48499.7 10.8588
48509.6 10.8515
48519.4 10.8450
48529.2 10.8391
48539.0 10.8335
48552.5 10.8265
48566.0 10.8198
48579.6 10.8135
48593.1 10.8074
48620.1 10.7958
48647.1 10.7847
48686.4 10.7692
48725.7 10.7540
48765.0 10.7391
48804.3 10.7243
48882.9 10.6948
48961.4 10.6648
49079.3 10.6178
49138.3 10.5927
49197.2 10.5661
49275.8 10.5272
49329.8 10.4971
49383.9 10.4632
49410.9 10.4443
49437.9 10.4238
49464.9 10.4012
49491.9 10.3763
49519.0 10.3482
49532.5 10.3327
49546.0 10.3160
49559.5 10.2980
49573.0 10.2785
49579.7 10.2680
49586.5 10.2571
49593.2 10.2457
49600.0 10.2337
49604.9 10.2246
49609.8 10.2152
49614.7 10.2055
49619.6 10.1955
49624.6 10.1853
49629.5 10.1751
49632.4 10.1692
49635.3 10.1634
49638.2 10.1582
49641.1 10.1539
49644.1 10.1511
49645.5 10.1506
49647.0 10.1512
49648.4 10.1530
49649.9 10.1569
49651.4 10.1637
49652.8 10.1749
49654.1 10.1913
49654.8 10.2029
49655.4 10.2179
49656.1 10.2376
49656.7 10.2634
49657.4 10.2978
49658.0 10.3443
49658.7 10.4085
49659.3 10.4948
49660.0 10.6119
49660.6 10.7692
49661.3 10.9780
49661.9 11.2499
49662.6 11.5964
49663.2 12.0268
49663.7 12.4099
49664.2 12.8341
49664.7 13.3037
49665.2 13.8134
49667.1 16.0311
49667.5 16.4893
49667.9 16.9109
49668.3 17.2833
49668.8 17.5950
49669.1 17.7802
49669.4 17.9236
49669.7 18.0228
49670.0 18.0758
49670.1 18.0820
49670.3 18.0839
49670.5 18.0683
49670.8 17.9879
49671.2 17.8392
49671.6 17.6343
49672.1 17.2976
49672.5 16.8887
49673.0 16.4241
49673.5 15.9322
49674.4 14.8350
49675.4 13.7807
49675.9 13.3009
49676.4 12.8630
49676.9 12.4710
49677.4 12.1325
49678.0 11.7493
49678.6 11.4383
49679.3 11.1902
49679.9 10.9977
49680.6 10.8446
49681.2 10.7254
49681.8 10.6322
49682.5 10.5599
49683.1 10.5011
49683.7 10.4534
49684.4 10.4140
49685.0 10.3815
49686.3 10.3290
49687.6 10.2885
49689.3 10.2461
49691.0 10.2125
49692.7 10.1849
49694.4 10.1613
49696.1 10.1408
49697.8 10.1224
49701.1 10.0904
49704.5 10.0624
49707.9 10.0369
49711.3 10.0129
49714.7 9.98981
49720.2 9.95334
49725.6 9.91668
49731.0 9.87878
49736.5 9.83903
49741.9 9.79660
49747.3 9.75096
49752.8 9.70120
49758.2 9.64669
49763.6 9.58639
49769.1 9.51916
49774.5 9.44322
49779.9 9.35675
49787.4 9.21573
49791.2 9.13320
49794.9 9.04095
49798.6 8.93654
49802.4 8.81773
49806.1 8.68148
49809.8 8.52426
49813.6 8.33975
49817.3 8.12176
49819.2 7.99698
49821.0 7.86013
49822.9 7.70979
49824.8 7.54542
49826.5 7.38119
49828.2 7.20312
49829.9 7.01187
49831.6 6.81055
49833.3 6.60751
49835.0 6.42192
49835.8 6.34707
49836.7 6.29430
49837.5 6.27486
49837.9 6.28202
49838.4 6.30313
49838.9 6.35111
49839.4 6.42833
49839.9 6.54040
49840.4 6.69001
49840.9 6.88960
49841.4 7.14345
49841.9 7.45842
49842.4 7.84112
49842.9 8.29753
49843.2 8.56023
49843.5 8.83261
49843.7 9.13684
49844.0 9.44978
49844.2 9.79659
49844.5 10.1506
49844.9 10.8058
49845.3 11.5178
49845.8 12.2831
49846.2 13.0771
49846.6 13.9311
49847.0 14.7976
49847.9 16.6112
49848.9 18.8720
49849.5 19.9492
49850.0 20.9606
49850.6 22.0164
49851.2 22.9311
49851.8 23.6846
49852.4 24.2566
49853.0 24.6513
49853.6 24.8826
49854.2 24.9597
49854.8 24.8986
49855.4 24.7146
49856.0 24.4274
49856.6 24.0577
49857.1 23.6335
49858.7 22.3182
49860.3 20.9727
49861.8 19.7420
49862.6 19.1902
49863.4 18.6832
49864.2 18.2198
49864.9 17.7975
49866.5 17.0627
49868.1 16.4514
49869.6 15.9386
49871.2 15.5042
49872.7 15.1322
49874.3 14.8107
49875.9 14.5319
49877.4 14.2851
49879.0 14.0665
49882.1 13.6981
49884.4 13.4738
49886.6 13.2791
49888.9 13.1084
49891.2 12.9583
49895.7 12.7034
49900.2 12.4970
49903.3 12.3761
49906.5 12.2691
49912.7 12.0881
49918.9 11.9410
49925.2 11.8193
49931.1 11.7209
49937.1 11.6361
49943.0 11.5623
49949.0 11.4974
49960.9 11.3885
49972.8 11.3009
49986.4 11.2191
50000.0 11.1520
50010.3 11.1086
50020.6 11.0702
50041.1 11.0052
50061.7 10.9523
50082.3 10.9078
50114.6 10.8505
50146.9 10.8040
50179.2 10.7653
50211.5 10.7321
50223.3 10.7211
50235.0 10.7107
50270.3 10.6819
50305.6 10.6560
50358.5 10.6218
50411.3 10.5914
50437.8 10.5774
50464.2 10.5641
50490.7 10.5514
50517.1 10.5395
50534.7 10.5320
50552.4 10.5251
50570.0 10.5187
50587.6 10.5133
50605.2 10.5093
50622.9 10.5077
50631.7 10.5082
50640.5 10.5101
50649.3 10.5135
50658.1 10.5195
50664.0 10.5255
50669.9 10.5335
50675.8 10.5442
50681.6 10.5585
50687.5 10.5775
50693.4 10.6033
50699.3 10.6390
50705.1 10.6889
50710.6 10.7555
50713.4 10.7991
50716.1 10.8517
50718.9 10.9162
50721.7 10.9960
50724.4 11.0966
50727.2 11.2244
50730.3 11.4156
50733.4 11.6784
50735.0 11.8475
50736.5 12.0503
50738.1 12.2957
50739.6 12.5953
50740.7 12.8252
50741.7 13.0892
50742.7 13.3933
50743.7 13.7444
50744.7 14.1506
50745.7 14.6205
50746.7 15.1635
50747.7 15.7884
50748.8 16.5713
50749.9 17.4664
50751.0 18.4720
50752.1 19.5755
50755.3 23.0255
50756.1 23.8208
50756.9 24.5342
50757.7 25.1370
50758.5 25.6029
50759.3 25.8940
50760.0 26.0382
50760.5 26.0523
50761.3 25.9321
50762.1 25.6437
50762.9 25.2028
50763.7 24.6315
50764.5 23.9562
50765.3 23.2053
50766.9 21.5881
50768.2 20.2697
50769.5 19.0381
50770.8 17.9257
50771.4 17.4169
50772.1 16.9506
50772.8 16.4408
50773.6 15.9827
50774.3 15.5614
50775.1 15.1848
50775.9 14.8395
50776.6 14.5313
50778.1 13.9993
50779.4 13.6204
50780.7 13.2978
50781.9 13.0218
50783.2 12.7859
50784.5 12.5799
50785.8 12.4006
50788.3 12.1065
50790.6 11.8950
50793.0 11.7230
50795.3 11.5812
50797.6 11.4628
50802.2 11.2778
50806.9 11.1412
50810.8 11.0512
50814.8 10.9787
50818.7 10.9190
50822.7 10.8693
50826.6 10.8271
50830.6 10.7912
50838.4 10.7332
50846.3 10.6885
50854.2 10.6532
50862.1 10.6246
50870.0 10.6008
50877.9 10.5806
50885.8 10.5633
50901.6 10.5351
50909.0 10.5239
50920.1 10.5091
50931.3 10.4963
50946.1 10.4812
50961.0 10.4680
50975.8 10.4562
50990.7 10.4455
51009.2 10.4333
51027.8 10.4222
51046.4 10.4118
51064.9 10.4020
51092.8 10.3882
51120.6 10.3752
51148.5 10.3627
51176.3 10.3507
51232.0 10.3274
51287.7 10.3047
51343.4 10.2822
51399.1 10.2596
51510.4 10.2132
51629.2 10.1602
51748.0 10.1013
51911.4 10.0050
51993.1 9.94659
52074.8 9.87783
52178.7 9.76759
52230.7 9.69814
52282.7 9.61455
52314.2 9.55440
52345.8 9.48483
52377.3 9.40335
52408.9 9.30557
52429.3 9.23097
52449.7 9.14484
52470.2 9.04404
52490.6 8.92415
52504.5 8.82823
52518.4 8.71788
52532.3 8.58941
52546.3 8.43726
52556.5 8.30667
52566.7 8.15577
52576.9 7.97941
52587.1 7.77066
52595.5 7.56904
52603.8 7.33269
52612.2 7.05258
52616.3 6.89248
52620.5 6.71707
52625.6 6.47824
52630.7 6.21096
52635.8 5.91239
52640.9 5.58586
52645.1 5.30540
52649.3 5.03379
52651.4 4.91399
52653.5 4.81729
52654.5 4.78203
52655.6 4.75919
52656.6 4.75150
52657.6 4.76280
52658.6 4.79543
52659.6 4.85431
52660.6 4.94524
52661.6 5.07355
52662.1 5.15619
52662.6 5.24990
52663.1 5.35740
52663.6 5.47993
52664.1 5.62188
52664.6 5.77899
52665.0 5.95545
52665.5 6.15280
52666.1 6.42046
52666.7 6.71819
52667.3 7.05305
52667.9 7.42777
52668.4 7.84503
52669.0 8.30729
52669.6 8.81677
52670.2 9.37530
52670.7 9.92971
52671.2 10.5268
52671.8 11.1665
52672.3 11.8352
52672.8 12.5574
52673.3 13.3040
52673.9 14.1012
52674.4 14.9156
52675.1 16.0719
52675.8 17.2511
52677.2 19.6686
52678.6 22.0548
52679.3 23.1920
52680.0 24.2690
52680.7 25.2836
52681.4 26.1933
52682.1 27.0016
52682.8 27.7001
52683.5 28.2909
52684.2 28.7554
52684.9 29.1035
52685.6 29.3389
52686.2 29.4527
52686.8 29.4974
52687.9 29.4052
52689.1 29.1067
52690.2 28.6487
52691.4 28.0758
52692.5 27.4275
52694.8 26.0350
52697.3 24.5407
52699.7 23.1677
52702.2 21.9485
52704.7 20.8847
52707.1 19.9623
52709.6 19.1628
52712.0 18.4677
52714.5 17.8607
52717.6 17.1940
52720.8 16.6242
52723.9 16.1329
52727.0 15.7055
52731.9 15.1368
52736.9 14.6667
52741.8 14.2723
52746.7 13.9371
52751.6 13.6489
52756.5 13.3985
52766.4 12.9857
52776.2 12.6585
52786.1 12.3927
52795.9 12.1726
52805.7 11.9872
52815.6 11.8284
52825.4 11.6910
52845.1 11.4644
52863.9 11.2918
52882.7 11.1491
52901.4 11.0284
52920.2 10.9245
52948.8 10.7896
52977.5 10.6756
53006.1 10.5760
53034.7 10.4867
53084.8 10.3467
53134.9 10.2183
53185.0 10.0931
53235.1 9.96466
53269.1 9.87192
53303.0 9.77186
53337.0 9.66125
53371.0 9.53608
53390.7 9.45458
53410.4 9.36469
53430.1 9.26444
53449.7 9.15126
53467.6 9.03403
53485.5 8.89929
53494.5 8.82366
53503.4 8.74144
53512.3 8.65150
53521.3 8.55235
53531.1 8.42961
53541.0 8.28903
53545.9 8.21030
53550.8 8.12463
53555.7 8.03068
53560.6 7.92664
53563.8 7.85414
53566.9 7.77583
53570.0 7.69074
53573.2 7.59756
53576.3 7.49446
53579.4 7.37922
53582.6 7.24907
53584.1 7.17707
53585.7 7.10042
53587.5 7.00550
53589.3 6.90247
53591.1 6.79112
53592.8 6.67272
53593.7 6.61196
53594.6 6.55281
53595.5 6.49649
53596.4 6.44833
53597.3 6.41380
53598.2 6.40345
53599.1 6.43079
53599.6 6.46482
53600.0 6.51492
53600.4 6.58664
53600.9 6.68266
53601.3 6.80681
53601.8 6.95918
53602.3 7.19344
53602.9 7.47969
53603.4 7.82682
53603.9 8.23839
53604.4 8.71593
53605.0 9.25836
53605.5 9.86157
53606.0 10.5181
53606.6 11.2441
53607.1 11.9998
53608.2 13.5081
53608.7 14.1031
53609.1 14.6515
53609.6 15.1669
53610.0 15.6160
53610.5 16.0809
53611.1 16.4394
53611.5 16.6400
53611.9 16.7683
53612.3 16.8302
53612.7 16.8279
53613.1 16.7649
53613.6 16.6460
53614.0 16.4768
53614.4 16.2638
53614.9 15.9415
53615.4 15.5743
53616.5 14.7601
53617.5 13.9189
53618.5 13.1211
53619.4 12.4975
53620.3 11.9533
53621.2 11.4769
53622.1 11.0731
53623.0 10.7242
53623.9 10.4288
53624.8 10.1713
53625.7 9.95003
53627.3 9.61463
53628.9 9.34251
53630.5 9.11381
53632.1 8.91689
53633.7 8.74282
53635.3 8.58819
53638.5 8.31904
53641.0 8.13819
53643.4 7.97384
53645.9 7.82099
53648.3 7.67663
53653.2 7.40548
53658.1 7.14924
53665.3 6.78953
53672.5 6.44537
53679.6 6.12945
53683.2 5.99423
53686.8 5.88653
53689.8 5.82839
53691.3 5.81477
53692.8 5.81419
53694.6 5.83404
53696.4 5.88077
53698.2 5.96046
53700.0 6.08038
53700.9 6.15852
53701.8 6.24914
53702.7 6.35561
53703.6 6.47700
53704.5 6.61761
53705.4 6.77598
53706.3 6.95745
53707.2 7.15985
53708.1 7.39782
53709.0 7.66204
53709.9 7.96055
53710.9 8.28919
53711.8 8.65736
53712.7 9.05926
53713.6 9.50561
53714.6 9.98851
53715.2 10.3552
53715.8 10.7373
53717.1 11.5716
53718.4 12.4911
53719.7 13.4845
53721.0 14.5606
53722.3 15.7019
53724.9 18.1097
53727.4 20.5733
53728.7 21.7640
53730.0 22.8864
53731.5 24.0590
53732.9 25.1005
53734.4 25.9901
53735.8 26.7150
53737.3 27.2708
53738.7 27.6604
53740.2 27.8932
53741.6 27.9834
53743.6 27.9079
53745.6 27.6457
53747.6 27.2424
53749.6 26.7449
53753.6 25.5940
53757.5 24.3951
53762.3 23.0324
53767.1 21.8170
53771.8 20.7565
53776.6 19.8437
53781.4 19.0560
53786.1 18.3772
53790.9 17.7869
53795.7 17.2730
53800.4 16.8209
53805.2 16.4217
53810.0 16.0673
53814.7 15.7516
53823.8 15.2343
53832.9 14.8060
53842.0 14.4459
53851.1 14.1398
53860.6 13.8644
53870.2 13.6263
53889.2 13.2357
53906.6 12.9541
53923.9 12.7223
53941.2 12.5281
53958.5 12.3631
53979.3 12.1949
53998.4 12.0633
54017.5 11.9490
54036.5 11.8490
54055.6 11.7616
54069.4 11.7053
54083.3 11.6555
54090.2 11.6333
54097.2 11.6132
54104.1 11.5957
54111.0 11.5812
54116.4 11.5726
54121.8 11.5670
54127.3 11.5652
54132.7 11.5687
54138.1 11.5795
54143.5 11.6006
54148.9 11.6368
54154.3 11.6957
54158.9 11.7732
54161.2 11.8262
54163.4 11.8917
54165.7 11.9740
54168.0 12.0773
54170.3 12.2091
54172.5 12.3797
54174.9 12.6184
54176.1 12.7677
54177.3 12.9434
54178.5 13.1514
54179.7 13.3997
54180.9 13.6984
54182.1 14.0608
54182.8 14.3335
54183.6 14.6447
54184.3 15.0010
54185.1 15.4044
54185.8 15.8740
54186.6 16.4147
54187.4 17.0369
54188.1 17.7418
54188.7 18.3778
54189.3 19.0831
54189.9 19.8619
54190.5 20.7022
54191.1 21.6335
54191.7 22.6235
54192.3 23.7015
54192.9 24.8242
54194.1 27.3322
54195.4 29.8823
54196.0 31.1235
54196.6 32.2924
54197.2 33.3554
54197.8 34.2661
54198.4 34.9484
54198.9 35.4721
54199.5 35.8426
54200.0 36.0372
54200.4 36.0714
54201.0 35.9552
54201.6 35.6395
54202.2 35.1363
54202.7 34.4637
54203.3 33.6293
54203.9 32.6872
54204.5 31.6523
54205.1 30.5526
54206.8 27.2763
54207.6 25.6941
54208.5 24.2034
54209.0 23.2903
54209.6 22.4325
54210.1 21.6325
54210.7 20.8906
54211.2 20.2061
54211.8 19.5769
54212.3 19.0003
54212.9 18.4823
54213.7 17.7871
54214.5 17.1800
54215.3 16.6496
54216.1 16.1909
54216.9 15.7833
54217.7 15.4288
54218.5 15.1116
54219.3 14.8338
54220.7 14.4204
54222.1 14.0781
54223.5 13.7915
54224.9 13.5489
54226.3 13.3416
54227.7 13.1630
54230.4 12.8721
54232.6 12.6894
54234.8 12.5379
54237.0 12.4106
54239.2 12.3028
54243.6 12.1292
54248.0 11.9962
54252.1 11.8975
54256.2 11.8168
54260.3 11.7496
54264.4 11.6928
54268.5 11.6441
54272.6 11.6016
54280.8 11.5309
54289.0 11.4741
54297.2 11.4271
54305.4 11.3873
54313.6 11.3528
54321.8 11.3227
54330.0 11.2955
54346.4 11.2485
54361.6 11.2113
54376.9 11.1785
54392.1 11.1492
54407.3 11.1225
54422.5 11.0980
54437.8 11.0755
54468.2 11.0343
54494.0 11.0031
54519.8 10.9744
54545.5 10.9479
54571.3 10.9232
54622.9 10.8783
54674.4 10.8382
54735.3 10.7956
54796.2 10.7571
54857.1 10.7219
54918.0 10.6892
54974.3 10.6608
55030.5 10.6337
55058.6 10.6206
55086.7 10.6077
55114.8 10.5948
55142.9 10.5821
55162.9 10.5732
55182.8 10.5642
55202.7 10.5553
55222.6 10.5465
55242.5 10.5378
55262.4 10.5294
55272.4 10.5255
55282.3 10.5218
55292.3 10.5186
55302.2 10.5162
55310.1 10.5151
55318.1 10.5150
55326.0 10.5166
55333.9 10.5205
55341.8 10.5285
55345.7 10.5348
55349.7 10.5434
55353.6 10.5548
55357.6 10.5701
55361.5 10.5907
55365.5 10.6188
55368.0 10.6420
55370.5 10.6710
55373.0 10.7074
55375.4 10.7535
55377.9 10.8129
55380.4 10.8906
55382.9 10.9946
55385.4 11.1367
55387.9 11.3383
55389.1 11.4719
55390.4 11.6341
55391.6 11.8368
55392.9 12.0892
55394.1 12.4132
55394.7 12.6070
55395.4 12.8276
55396.1 13.1320
55396.8 13.4839
55397.6 13.8962
55398.3 14.3790
55399.0 14.9511
55399.8 15.6075
55400.5 16.3644
55401.2 17.2285
55402.0 18.3152
55402.8 19.5151
55403.6 20.8410
55404.4 22.2294
55405.4 23.9354
55406.3 25.5720
55406.8 26.3431
55407.3 27.0421
55407.8 27.6840
55408.2 28.2283
55408.7 28.6518
55409.1 28.9836
55409.6 29.2172
55410.0 29.3484
55410.3 29.3778
55410.8 29.3236
55411.3 29.1468
55411.7 28.8531
55412.2 28.4599
55412.7 27.9611
55413.2 27.3765
55413.7 26.7201
55414.1 26.0219
55415.1 24.5172
55416.0 22.9724
55416.9 21.4592
55417.9 20.0423
55418.4 19.2399
55419.0 18.4945
55419.6 17.8086
55420.1 17.1824
55420.7 16.6143
55421.3 16.1017
55421.8 15.6409
55422.4 15.2345
55423.4 14.6273
55424.3 14.1295
55425.3 13.7155
55426.3 13.3696
55427.2 13.0758
55428.2 12.8295
55429.1 12.6192
55430.1 12.4381
55431.9 12.1669
55433.6 11.9532
55435.4 11.7813
55437.1 11.6408
55438.9 11.5242
55440.6 11.4262
55444.1 11.2717
55447.4 11.1612
55450.8 11.0754
55454.1 11.0065
55457.4 10.9505
55460.7 10.9040
55464.1 10.8652
55467.4 10.8321
55470.7 10.8038
55477.0 10.7599
55483.3 10.7253
55489.6 10.6972
55495.9 10.6740
55502.2 10.6546
55508.5 10.6380
55514.8 10.6237
55521.1 10.6111
55526.7 10.6013
55537.9 10.5842
55549.1 10.5697
55560.3 10.5573
55571.5 10.5464
55582.7 10.5368
55593.9 10.5281
55616.2 10.5129
55633.0 10.5030
55649.8 10.4939
55683.4 10.4775
55717.0 10.4631
55750.6 10.4498
55784.2 10.4375
55817.8 10.4258
55862.6 10.4109
55907.3 10.3967
55996.9 10.3692
56086.5 10.3423
56176.0 10.3150
56243.2 10.2937
56310.4 10.2712
56377.6 10.2465
56444.7 10.2184
56478.3 10.2024
56511.9 10.1847
56545.5 10.1644
56579.1 10.1409
56612.7 10.1125
56640.7 10.0835
56654.7 10.0664
56668.7 10.0472
56682.7 10.0251
56696.7 9.99953
56710.7 9.96942
56724.7 9.93343
56732.0 9.91126
56739.4 9.88635
56746.7 9.85812
56754.0 9.82587
56761.4 9.78851
56768.7 9.74479
56776.1 9.69274
56783.4 9.63009
56787.3 9.59152
56791.1 9.54802
56795.0 9.49863
56798.8 9.44208
56802.7 9.37665
56806.5 9.30004
56810.4 9.20909
56814.2 9.09977
56816.3 9.02993
56818.4 8.95120
56820.5 8.86165
56822.6 8.75888
56824.7 8.63974
56826.8 8.50008
56828.9 8.33426
56830.0 8.23925
56831.0 8.13569
56832.2 7.99933
56833.5 7.84718
56834.7 7.67511
56835.9 7.48620
56836.5 7.38457
56837.1 7.28260
56837.7 7.18097
56838.4 7.08306
56839.0 6.99231
56839.6 6.91827
56840.2 6.86785
56840.8 6.85159
56841.4 6.88302
56842.0 6.97562
56842.3 7.05107
56842.6 7.14487
56843.0 7.26525
56843.3 7.40627
56843.6 7.57908
56843.9 7.78106
56844.2 8.01360
56844.5 8.26875
56844.8 8.56424
56845.1 8.88130
56845.4 9.24093
56845.7 9.61931
56846.0 10.0265
56846.3 10.4609
56846.6 10.9204
56846.9 11.3861
56847.5 12.3869
56848.1 13.4354
56848.9 14.9268
56849.7 16.3457
56850.0 16.7749
56850.6 17.6884
56850.9 18.0848
56851.3 18.4416
56851.6 18.7845
56851.9 19.0742
56852.3 19.3094
56852.6 19.4850
56852.9 19.6124
56853.3 19.6867
56853.6 19.7102
56854.0 19.6873
56854.4 19.5806
56854.9 19.4019
56855.4 19.1561
56855.9 18.8663
56856.8 18.1812
56857.8 17.4371
56858.6 16.7631
56859.5 16.1394
56860.4 15.5706
56861.2 15.0765
56862.1 14.6441
56862.9 14.2774
56863.8 13.9597
56864.7 13.6900
56865.5 13.4772
56866.2 13.2897
56867.8 12.9766
56869.3 12.7222
56870.9 12.5135
56872.5 12.3369
56874.0 12.1871
56875.6 12.0568
56877.1 11.9437
56879.9 11.7735
56882.7 11.6346
56885.4 11.5190
56888.2 11.4214
56891.0 11.3373
56893.7 11.2645
56896.5 11.2004
56899.2 11.1440
56904.4 11.0539
56909.6 10.9801
56914.8 10.9182
56920.0 10.8659
56925.2 10.8207
56930.4 10.7812
56935.5 10.7465
56940.7 10.7158
56950.4 10.6668
56960.1 10.6263
56969.8 10.5921
56979.4 10.5629
56989.1 10.5378
56998.8 10.5156
57008.5 10.4959
57018.2 10.4783
57034.8 10.4520
57051.4 10.4297
57068.0 10.4103
57084.5 10.3934
57101.1 10.3783
57117.7 10.3647
57145.4 10.3449
57173.0 10.3276
57200.7 10.3123
57228.4 10.2985
57267.1 10.2814
57305.8 10.2660
57383.2 10.2391
57449.6 10.2189
57516.0 10.2004
57648.7 10.1669
57737.2 10.1461
57825.7 10.1259
57892.1 10.1110
57958.5 10.0959
58002.8 10.0856
58024.9 10.0804
58047.0 10.0750
58069.1 10.0695
58091.3 10.0638
58113.4 10.0578
58124.4 10.0546
58135.5 10.0513
58146.6 10.0479
58157.6 10.0444
58168.7 10.0406
58179.8 10.0366
58186.3 10.0341
58192.9 10.0316
58199.5 10.0290
58206.0 10.0263
58212.6 10.0237
58215.9 10.0225
58219.2 10.0214
58222.5 10.0204
58225.7 10.0197
58229.0 10.0194
58232.3 10.0197
58235.1 10.0208
58237.8 10.0230
58240.6 10.0268
58243.4 10.0333
58244.8 10.0381
58246.1 10.0444
58247.5 10.0526
58248.9 10.0636
58250.3 10.0786
58251.7 10.0992
58253.1 10.1288
58254.4 10.1729
58255.6 10.2295
58256.2 10.2682
58256.8 10.3155
58257.4 10.3756
58257.9 10.4496
58258.5 10.5423
58259.1 10.6582
58259.7 10.8054
58260.3 10.9845
58260.9 11.2082
58261.4 11.4747
58262.0 11.7988
58262.6 12.1734
58263.2 12.6054
58263.8 13.0938
58264.6 13.8707
58265.4 14.7227
58267.1 16.4590
58267.6 16.9546
58268.1 17.3938
58268.6 17.7601
58269.1 18.0392
58269.6 18.1992
58270.0 18.2834
58270.1 18.2932
58270.4 18.2978
58270.6 18.2795
58271.1 18.1756
58271.6 17.9859
58272.0 17.7180
58272.7 17.2565
58273.3 16.7117
58274.6 15.4636
58275.8 14.2063
58276.5 13.6259
58277.1 13.1078
58277.8 12.6425
58278.4 12.2462
58279.0 11.9093
58279.6 11.6274
58280.4 11.3452
58281.2 11.1275
58282.0 10.9563
58282.7 10.8251
58283.5 10.7213
58284.3 10.6404
58285.1 10.5748
58285.8 10.5220
58286.6 10.4779
58287.4 10.4412
58288.9 10.3827
58290.5 10.3382
58292.0 10.3035
58293.9 10.2705
58295.7 10.2444
58297.5 10.2230
58299.4 10.2053
58301.2 10.1903
58303.0 10.1775
58306.7 10.1569
58310.3 10.1410
58314.0 10.1282
58317.7 10.1177
58321.3 10.1090
58326.1 10.0995
58330.9 10.0916
58335.7 10.0850
58340.5 10.0793
58345.3 10.0743
58350.1 10.0700
58359.6 10.0624
58369.2 10.0561
58378.8 10.0507
58388.3 10.0459
58397.9 10.0416
58412.6 10.0358
58427.2 10.0306
58441.9 10.0257
58456.5 10.0212
58471.1 10.0170
58485.8 10.0129
58515.1 10.0052
58544.4 9.99793
58573.6 9.99088
58602.9 9.98401
58632.2 9.97729
58722.3 9.95705
58812.4 9.93704
58902.6 9.91695
58992.7 9.89661
59181.9 9.85227
59371.2 9.80495
59560.4 9.75339
59749.6 9.69601
59848.8 9.66287
59947.9 9.62711
60047.0 9.58819
60146.1 9.54535
60218.2 9.51110
60290.3 9.47359
60326.4 9.45333
60362.4 9.43183
60398.5 9.40879
60416.5 9.39656
60434.5 9.38374
60452.5 9.37022
60462.1 9.36269
60471.7 9.35488
60481.3 9.34672
60490.8 9.33818
60500.4 9.32918
60510.0 9.31968
60514.8 9.31470
60519.6 9.30956
60524.3 9.30428
60529.1 9.29889
60533.1 9.29439
60537.0 9.28995
60541.0 9.28570
60544.9 9.28193
60546.9 9.28041
60548.8 9.27927
60550.8 9.27871
60552.8 9.27900
60554.7 9.28059
60556.7 9.28416
60558.7 9.29093
60560.7 9.30320
60562.1 9.31785
60563.5 9.34121
60564.2 9.35830
60564.9 9.38040
60565.6 9.41023
60566.3 9.44985
60567.0 9.50448
60567.7 9.57803
60568.4 9.67993
60569.1 9.81636
60569.8 10.0024
60570.5 10.2454
60571.2 10.5606
60571.6 10.7493
60571.9 10.9605
60572.5 11.3559
60573.1 11.8086
60573.6 12.3252
60574.2 12.9025
60574.7 13.5444
60575.3 14.2161
60576.4 15.6100
60576.9 16.2163
60577.4 16.7761
60577.9 17.2841
60578.4 17.7232
60578.8 17.9998
60579.1 18.2175
60579.5 18.3802
60579.8 18.4850
60580.0 18.5124
60580.1 18.5225
60580.3 18.5315
60580.5 18.5245
60580.8 18.4630
60581.2 18.3398
60581.6 18.1635
60582.0 17.8932
60582.4 17.5607
60582.8 17.1754
60583.2 16.7475
60584.2 15.6673
60585.2 14.5452
60586.1 13.4849
60586.6 13.0011
60587.1 12.5647
60587.6 12.1127
60588.2 11.7147
60588.7 11.3697
60589.2 11.0744
60589.8 10.8248
60590.3 10.6156
60590.9 10.4417
60591.4 10.3001
60591.9 10.1808
60592.5 10.0824
60593.0 10.0008
60593.5 9.93420
60594.1 9.87728
60594.6 9.82925
60595.7 9.75376
60596.4 9.71227
60597.2 9.67753
60598.7 9.62276
60600.2 9.58066
60601.7 9.54746
60603.2 9.52018
60604.7 9.49758
60606.2 9.47829
60607.6 9.46181
60610.6 9.43476
60613.6 9.41345
60616.6 9.39605
60619.6 9.38144
60623.4 9.36573
60627.3 9.35253
60631.1 9.34111
60634.9 9.33108
60638.7 9.32208
60642.6 9.31395
60647.3 9.30464
60652.1 9.29607
60661.7 9.28059
60671.3 9.26667
60680.8 9.25377
60690.4 9.24157
60700.0 9.22982
60719.1 9.20702
60738.2 9.18468
60757.4 9.16238
60795.6 9.11683
60837.7 9.06383
60879.8 9.00654
60921.9 8.94379
60964.0 8.87429
61006.1 8.79652
61048.2 8.70863
61090.3 8.60831
61132.3 8.49240
61161.0 8.40230
61189.7 8.30130
61218.4 8.18751
61247.1 8.05772
61268.2 7.95048
61289.2 7.83117
61310.3 7.69756
61331.3 7.54717
61352.4 7.37662
61373.4 7.18206
61394.5 6.95870
61415.5 6.70108
61436.6 6.40301
61447.1 6.23735
61457.6 6.06022
61468.1 5.87220
61478.6 5.67514
61489.2 5.47330
61499.7 5.27485
61506.4 5.15708
61513.1 5.05405
61519.8 4.97543
61523.1 4.94982
61526.5 4.93666
61529.1 4.93694
61531.7 4.94846
61534.4 4.97323
61537.0 5.01359
61539.6 5.07229
61542.3 5.15248
61544.9 5.25781
61547.5 5.39246
61549.8 5.53727
61552.1 5.71061
61554.4 5.91786
61556.7 6.16137
61559.0 6.44788
61561.2 6.77979
61563.5 7.16351
61564.7 7.37647
61565.8 7.60438
61567.6 8.00539
61569.5 8.44708
61571.3 8.93385
61573.1 9.46774
61575.0 10.0536
61576.8 10.6858
61578.6 11.3674
61580.5 12.0969
61582.9 13.1444
61585.3 14.2598
61587.8 15.4390
61590.2 16.6545
61595.1 19.1226
61597.6 20.3178
61600.0 21.4528
61602.8 22.6284
61605.5 23.6650
61608.3 24.5404
61611.0 25.2420
61613.8 25.7671
61616.5 26.1212
61619.3 26.3173
61622.0 26.3727
61625.5 26.2735
61628.9 26.0249
61632.4 25.6652
61635.8 25.2277
61642.7 24.2242
61649.6 23.1695
61656.8 22.1011
61664.1 21.1145
61671.3 20.2245
61678.5 19.4319
61685.8 18.7275
61693.0 18.1038
61700.2 17.5493
61707.4 17.0564
61716.6 16.5038
61725.8 16.0232
61735.0 15.6020
61744.2 15.2303
61758.7 14.7279
61773.1 14.3066
61787.6 13.9487
61802.0 13.6413
61816.5 13.3747
61830.9 13.1415
61859.8 12.7531
61883.5 12.4949
61907.1 12.2766
61930.8 12.0896
61954.4 11.9278
61983.3 11.7572
62012.2 11.6106
62041.1 11.4832
62070.0 11.3713
62109.4 11.2388
62148.8 11.1252
62188.2 11.0261
62227.7 10.9390
62285.5 10.8283
62343.3 10.7337
62401.1 10.6515
62458.9 10.5790
62532.4 10.4979
62606.0 10.4263
62663.8 10.3752
62692.7 10.3511
62721.6 10.3277
62750.5 10.3051
62779.4 10.2830
62793.9 10.2722
62808.3 10.2617
62822.8 10.2513
62837.2 10.2411
62848.4 10.2336
62859.6 10.2263
62870.7 10.2196
62881.9 10.2137
62893.1 10.2091
62904.2 10.2065
62909.8 10.2065
62915.4 10.2079
62921.0 10.2111
62926.6 10.2169
62931.0 10.2242
62935.4 10.2348
62939.9 10.2500
62944.3 10.2718
62948.7 10.3041
62953.2 10.3525
62955.4 10.3858
62957.6 10.4273
62959.8 10.4801
62962.0 10.5479
62963.6 10.6080
62965.1 10.6815
62966.7 10.7723
62968.3 10.8859
62969.8 11.0300
62971.4 11.2155
62972.9 11.4580
62974.5 11.7794
62975.4 12.0148
62976.3 12.2907
62977.2 12.6173
62978.1 13.0024
62979.0 13.4591
62979.9 13.9836
62980.8 14.5838
62981.7 15.2588
62982.7 16.0964
62983.7 16.9976
62985.8 18.8395
62986.8 19.7151
62987.4 20.1006
62987.9 20.4401
62988.4 20.7262
62988.9 20.9523
62989.5 21.1134
62990.0 21.2060
62990.4 21.2289
62991.0 21.1921
62991.6 21.0611
62992.2 20.8414
62992.8 20.5413
62993.5 20.1714
62994.1 19.7438
62995.3 18.7767
62997.6 16.8378
62998.8 15.9322
62999.9 15.1261
63000.9 14.5227
63001.8 13.9962
63002.8 13.5423
63003.8 13.1540
63004.8 12.8233
63005.7 12.5418
63006.7 12.3018
63007.7 12.0965
63009.5 11.7793
63011.4 11.5383
63013.2 11.3501
63015.1 11.2004
63016.9 11.0785
63018.8 10.9788
63020.6 10.8958
63022.5 10.8257
63026.2 10.7143
63029.9 10.6305
63033.6 10.5652
63037.3 10.5132
63041.0 10.4708
63044.7 10.4358
63048.4 10.4064
63052.1 10.3815
63057.0 10.3533
63062.0 10.3296
63066.9 10.3094
63071.9 10.2920
63081.7 10.2633
63091.6 10.2404
63101.5 10.2218
63111.4 10.2057
63121.2 10.1917
63131.1 10.1794
63148.0 10.1610
63165.0 10.1450
63176.3 10.1354
63204.5 10.1138
63232.7 10.0946
63260.9 10.0771
63289.1 10.0607
63317.3 10.0453
63345.6 10.0304
63402.0 10.0021
63441.5 9.98298
63481.0 9.96401
63500.8 9.95451
63520.5 9.94492
63540.3 9.93519
63560.0 9.92524
63572.0 9.91902
63584.0 9.91264
63596.0 9.90605
63608.0 9.89922
63620.0 9.89207
63632.0 9.88459
63638.0 9.88069
63644.0 9.87671
63650.0 9.87264
63656.0 9.86856
63660.9 9.86523
63665.8 9.86205
63670.8 9.85919
63675.7 9.85698
63678.2 9.85631
63680.7 9.85610
63683.1 9.85655
63685.6 9.85792
63688.1 9.86065
63690.5 9.86539
63693.0 9.87320
63695.5 9.88585
63697.2 9.89971
63699.0 9.91974
63700.8 9.94981
63701.6 9.97039
63702.5 9.99637
63703.4 10.0301
63704.3 10.0738
63705.2 10.1318
63706.0 10.2101
63706.9 10.3171
63707.8 10.4640
63708.7 10.6658
63709.6 10.9404
63710.3 11.2290
63711.0 11.5834
63711.7 12.0235
63712.4 12.5436
63713.1 13.1609
63713.8 13.8542
63714.5 14.6312
63715.2 15.4497
63716.4 16.9330
63717.1 17.6359
63717.7 18.2639
63718.2 18.7366
63718.7 19.1176
63719.2 19.4031
63719.8 19.5834
63720.0 19.6293
63720.1 19.6442
63720.4 19.6518
63720.7 19.6258
63721.3 19.4778
63721.8 19.2032
63722.4 18.8247
63723.0 18.2915
63723.7 17.6719
63724.9 16.2937
63726.3 14.7988
63727.0 14.1226
63727.6 13.5115
63728.3 12.9728
63729.0 12.5081
63729.7 12.1144
63730.4 11.7857
63731.2 11.4580
63732.0 11.2022
63732.9 11.0034
63733.7 10.8485
63734.6 10.7269
63735.4 10.6301
63736.2 10.5520
63737.1 10.4886
63737.9 10.4350
63738.8 10.3897
63740.4 10.3174
63742.1 10.2617
63743.8 10.2178
63745.6 10.1800
63747.3 10.1492
63749.1 10.1236
63750.9 10.1019
63754.5 10.0672
63758.0 10.0405
63761.6 10.0194
63765.1 10.0023
63768.7 9.98812
63772.3 9.97616
63775.6 9.96649
63780.6 9.95410
63785.7 9.94359
63790.7 9.93455
63795.7 9.92666
63804.1 9.91543
63812.5 9.90595
63820.9 9.89772
63829.2 9.89047
63842.7 9.88023
63859.4 9.86909
63876.2 9.85923
63892.9 9.85025
63909.7 9.84192
63938.2 9.82878
63966.7 9.81652
63995.2 9.80488
64023.7 9.79370
64080.7 9.77230
64137.7 9.75165
64251.6 9.71185
64365.6 9.67315
64580.1 9.60134
64875.1 9.50163
65170.1 9.39750
65465.1 9.28579
65760.1 9.16305
66081.9 9.01113
66242.8 8.92587
66403.7 8.83268
66578.0 8.72061
66665.2 8.65924
66752.4 8.59350
66819.4 8.53928
66852.9 8.51084
66886.4 8.48138
66920.0 8.45071
66936.7 8.43496
66953.5 8.41885
66970.3 8.40253
66987.0 8.38591
67003.8 8.36919
67020.5 8.35251
67030.6 8.34273
67040.6 8.33335
67050.7 8.32464
67060.8 8.31699
67067.5 8.31294
67074.2 8.31026
67080.9 8.30952
67087.6 8.31169
67094.3 8.31814
67101.0 8.33158
67104.3 8.34232
67107.7 8.35680
67111.0 8.37622
67114.4 8.40226
67117.1 8.43000
67119.8 8.46540
67122.6 8.51142
67125.3 8.57165
67128.0 8.65228
67130.7 8.76132
67133.5 8.91328
67134.8 9.01148
67136.2 9.12987
67137.3 9.25093
67138.5 9.39387
67139.6 9.56538
67140.8 9.77297
67141.9 10.0264
67143.1 10.3385
67143.7 10.5232
67144.2 10.7256
67144.8 10.9557
67145.4 11.2084
67146.1 11.5541
67146.8 11.9430
67147.4 12.3858
67148.1 12.8885
67148.8 13.4567
67149.5 14.0953
67150.2 14.8079
67150.8 15.5957
67151.4 16.3002
67152.0 17.0387
67152.5 17.8336
67153.1 18.6506
67155.3 22.1179
67156.4 23.7511
67156.9 24.4918
67157.5 25.1602
67158.0 25.7409
67158.6 26.2203
67159.1 26.5868
67159.7 26.8285
67160.0 26.9162
67160.3 26.9579
67160.9 26.9114
67161.5 26.7188
67162.1 26.3880
67162.7 25.9304
67163.3 25.3608
67163.9 24.6963
67164.5 23.9558
67165.1 23.1587
67166.7 20.7735
67167.6 19.5867
67168.4 18.4515
67169.2 17.4039
67170.0 16.4440
67170.9 15.5784
67171.7 14.8077
67172.5 14.1280
67173.3 13.5326
67174.1 13.0133
67174.9 12.5665
67175.5 12.2729
67176.1 12.0077
67177.3 11.5536
67178.5 11.1789
67179.7 10.8671
67180.9 10.6033
67182.1 10.3816
67183.3 10.1921
67184.5 10.0286
67186.6 9.79093
67188.7 9.60129
67190.8 9.44720
67192.8 9.32056
67194.9 9.21399
67197.0 9.12401
67201.2 8.97956
67205.7 8.86228
67210.1 8.77187
67214.6 8.70011
67219.1 8.64184
67223.5 8.59335
67228.0 8.55219
67232.5 8.51681
67236.9 8.48602
67247.1 8.42868
67257.2 8.38352
67267.3 8.34652
67277.5 8.31473
67287.6 8.28689
67297.7 8.26196
67318.0 8.21816
67341.8 8.17335
67365.7 8.13263
67389.5 8.09437
67413.4 8.05763
67461.1 7.98640
67508.7 7.91574
67604.1 7.77082
67699.5 7.61579
67794.8 7.44637
67890.2 7.25968
67995.1 7.02907
68100.0 6.76658
68150.1 6.62790
68200.1 6.47934
68225.2 6.40093
68250.2 6.31976
68275.2 6.23574
68287.8 6.19285
68300.3 6.14980
68311.0 6.11317
68321.7 6.07791
68327.1 6.06131
68332.5 6.04605
68337.8 6.03311
68343.2 6.02397
68346.6 6.02121
68350.1 6.02208
68353.5 6.02832
68356.9 6.04291
68360.3 6.07096
68362.0 6.09247
68363.8 6.12115
68365.5 6.15973
68367.2 6.21150
68368.9 6.28227
68370.6 6.38089
68371.8 6.47407
68373.0 6.59402
68374.2 6.75159
68374.8 6.84958
68375.4 6.96087
68376.0 7.09178
68376.6 7.24350
68377.2 7.41927
68377.8 7.61897
68378.4 7.85304
68379.0 8.11728
68379.6 8.42422
68380.1 8.76670
68380.7 9.15883
68381.3 9.58894
68381.9 10.0717
68382.5 10.5892
68383.1 11.1553
68383.7 11.7450
68384.9 12.9975
68385.8 13.9613
68386.7 14.8702
68387.2 15.2897
68387.6 15.6641
68388.1 16.0029
68388.5 16.2851
68388.9 16.4767
68389.3 16.6256
68389.6 16.7382
68390.0 16.8070
68390.3 16.8308
68390.8 16.8180
68391.3 16.7267
68391.8 16.5604
68392.3 16.3241
68392.8 16.0179
68393.3 15.6618
68393.8 15.2593
68394.3 14.8199
68395.3 13.8789
68396.3 12.9024
68397.2 11.9510
68398.2 11.0689
68398.7 10.6988
68399.1 10.3502
68399.6 10.0238
68400.0 9.72002
68400.5 9.43860
68400.9 9.17898
68401.4 8.94031
68401.8 8.72620
68402.3 8.52573
68402.7 8.34269
68403.6 8.02361
68404.5 7.75854
68405.4 7.54011
68406.3 7.35514
68407.2 7.19933
68408.1 7.06702
68409.0 6.95367
68410.8 6.77033
68412.6 6.62961
68414.4 6.51723
68416.2 6.42590
68418.0 6.35015
68419.8 6.28653
68422.5 6.20698
68425.2 6.14209
68427.9 6.08741
68430.6 6.04074
68436.0 5.96398
68441.4 5.90244
68446.7 5.85049
68452.1 5.80500
68462.9 5.72684
68471.5 5.67204
68480.2 5.62154
68498.1 5.52440
68507.1 5.47823
68516.1 5.43316
68525.1 5.38908
68534.1 5.34695
68538.6 5.32724
68543.0 5.30929
68547.5 5.29471
68549.8 5.28964
68552.0 5.28700
68554.2 5.28781
68556.3 5.29374
68558.5 5.30799
68560.7 5.33653
68561.7 5.35989
68562.8 5.39276
68563.9 5.43960
68565.0 5.50653
68566.0 5.60519
68566.6 5.67078
68567.1 5.75037
68567.7 5.84681
68568.2 5.96336
68568.7 6.10363
68569.3 6.26813
68570.0 6.54110
68570.7 6.87968
68571.1 7.07625
68571.4 7.29216
68571.8 7.52806
68572.1 7.77692
68572.5 8.05304
68572.9 8.34931
68573.6 8.99920
68574.3 9.71574
68575.0 10.4695
68576.4 11.9357
68577.0 12.6315
68577.7 13.2468
68578.3 13.6708
68578.8 14.0152
68579.3 14.2680
68579.9 14.4205
68580.0 14.4416
68580.1 14.4575
68580.4 14.4676
68580.7 14.4471
68581.3 14.3193
68581.9 14.0817
68582.4 13.7451
68582.8 13.4880
68583.1 13.2099
68583.9 12.5775
68584.6 11.8838
68585.3 11.1743
68586.0 10.4599
68586.7 9.77659
68587.4 9.14373
68588.1 8.58120
68588.8 8.07886
68589.5 7.64597
68590.2 7.27926
68590.9 6.97674
68591.4 6.81343
68591.8 6.67172
68592.7 6.43438
68593.5 6.24576
68594.4 6.09870
68595.3 5.98023
68596.1 5.88573
68597.0 5.80737
68597.8 5.74284
68599.6 5.64069
68601.3 5.56351
68603.0 5.50264
68604.8 5.45327
68607.4 5.39152
68610.1 5.34258
68612.8 5.30224
68615.4 5.26807
68620.8 5.21213
68626.1 5.16693
68631.5 5.12852
68636.8 5.09497
68647.5 5.03745
68662.6 4.97033
68685.2 4.88902
68707.9 4.82719
68730.5 4.78535
68753.1 4.76703
68767.0 4.76972
68780.8 4.78480
68794.6 4.81417
68808.5 4.86004
68822.3 4.92482
68836.1 5.01147
68849.9 5.12316
68863.8 5.26344
68875.3 5.40473
68886.7 5.57099
68898.2 5.76498
68909.7 5.98876
68921.2 6.24735
68932.7 6.54272
68944.2 6.87830
68955.6 7.25729
68967.6 7.70284
68979.6 8.20191
68991.6 8.75806
69003.6 9.37231
69015.6 10.0468
69027.5 10.7853
69039.5 11.5740
69051.5 12.4162
69062.6 13.2375
69073.6 14.0913
69095.8 15.8654
69117.9 17.6630
69140.0 19.3907
69158.4 20.7088
69167.7 21.3127
69176.9 21.8691
69186.1 22.3823
69195.3 22.8423
69204.5 23.2503
69213.8 23.6091
69232.2 24.1662
69241.4 24.3715
69250.6 24.5271
69269.1 24.7141
69287.5 24.7500
69308.6 24.6376
69329.7 24.4031
69350.8 24.0777
69371.9 23.6910
69414.2 22.8204
69456.4 21.9160
69506.6 20.8852
69556.8 19.9444
69607.1 19.1087
69657.3 18.3715
69712.6 17.6649
69767.8 17.0519
69823.1 16.5175
69878.3 16.0497
69933.6 15.6381
69988.8 15.2735
70044.1 14.9484
70099.3 14.6570
70209.8 14.1564
70265.1 13.9391
70320.3 13.7399
70360.5 13.6048
70405.7 13.4616
70451.0 13.3269
70473.6 13.2626
70496.2 13.2008
70518.8 13.1422
70530.1 13.1146
70541.4 13.0888
70556.4 13.0583
70564.0 13.0457
70571.5 13.0353
70582.8 13.0269
70588.5 13.0275
70594.1 13.0327
70599.8 13.0442
70605.4 13.0644
70611.1 13.0973
70616.7 13.1496
70622.0 13.2262
70627.4 13.3442
70630.1 13.4263
70632.7 13.5303
70635.4 13.6636
70638.1 13.8361
70641.2 14.1116
70642.8 14.2894
70644.3 14.5026
70645.9 14.7602
70647.5 15.0740
70649.0 15.4593
70650.6 15.9362
70651.5 16.2490
70652.3 16.5983
70653.2 16.9932
70654.1 17.4393
70654.9 17.9493
70655.8 18.5176
70656.7 19.1559
70657.5 19.8690
70658.3 20.6125
70659.1 21.4164
70659.9 22.2881
70660.7 23.2233
70662.3 25.2616
70663.9 27.3909
70665.5 29.3455
70666.2 30.2371
70667.0 31.0378
70667.7 31.7234
70668.5 32.2724
70669.3 32.6672
70670.0 32.8938
70670.5 32.9519
70671.4 32.8666
70672.3 32.5519
70673.2 32.0266
70674.1 31.3280
70675.0 30.4744
70675.8 29.5221
70677.6 27.4299
70679.0 25.8089
70680.3 24.2758
70681.6 22.8631
70683.0 21.6184
70683.8 20.9133
70684.7 20.2720
70685.5 19.6913
70686.4 19.1670
70687.2 18.6943
70688.1 18.2684
70688.9 17.8847
70689.8 17.5385
70691.1 17.0594
70692.5 16.6494
70693.8 16.2966
70695.1 15.9914
70696.5 15.7258
70697.8 15.4932
70700.5 15.1088
70702.8 14.8407
70705.1 14.6196
70707.4 14.4341
70709.7 14.2765
70714.4 14.0243
70719.0 13.8323
70723.1 13.6960
70727.3 13.5846
70731.4 13.4914
70735.5 13.4125
70743.8 13.2851
70752.1 13.1869
70760.3 13.1080
70768.6 13.0429
70776.9 12.9880
70785.1 12.9401
70801.7 12.8600
70818.2 12.7943
70833.8 12.7412
70849.3 12.6939
70864.9 12.6512
70880.5 12.6119
70911.6 12.5404
70942.7 12.4761
70993.3 12.3820
71043.9 12.2967
71094.5 12.2180
71145.1 12.1440
71238.5 12.0174
71331.9 11.9001
71390.3 11.8301
71419.5 11.7958
71448.6 11.7618
71477.8 11.7280
71507.0 11.6944
71521.6 11.6777
71536.2 11.6612
71550.8 11.6449
71565.4 11.6290
71574.1 11.6200
71582.9 11.6115
71591.7 11.6039
71600.4 11.5979
71609.2 11.5945
71613.6 11.5943
71617.9 11.5955
71622.3 11.5987
71626.7 11.6049
71631.1 11.6153
71635.4 11.6318
71638.5 11.6486
71641.5 11.6715
71644.6 11.7028
71647.6 11.7467
71650.6 11.8093
71653.7 11.9006
71655.2 11.9621
71656.7 12.0384
71658.2 12.1342
71659.8 12.2561
71661.0 12.3790
71662.2 12.5297
71663.4 12.7190
71664.6 12.9542
71665.8 13.2522
71667.1 13.6228
71668.3 14.0876
71669.5 14.6527
71670.1 15.0078
71670.8 15.3903
71672.1 16.2471
71673.4 17.2102
71674.7 18.2126
71675.9 19.1409
71677.2 19.9593
71677.8 20.3011
71678.4 20.5851
71679.0 20.8034
71679.7 20.9482
71680.0 20.9985
71680.4 21.0246
71681.0 21.0041
71681.7 20.8978
71682.4 20.7110
71683.0 20.4510
71683.7 20.1222
71684.3 19.7460
71685.7 18.8858
71688.1 17.1740
71689.4 16.3819
71690.6 15.6768
71691.8 15.0973
71692.9 14.6057
71694.1 14.1944
71695.3 13.8529
71696.4 13.5700
71697.6 13.3351
71698.8 13.1392
71699.9 12.9758
71702.2 12.7276
71704.4 12.5415
71706.6 12.3980
71708.9 12.2848
71711.1 12.1935
71713.3 12.1186
71715.5 12.0563
71717.8 12.0037
71720.7 11.9465
71723.6 11.8989
71726.5 11.8588
71729.4 11.8244
71735.2 11.7686
71741.0 11.7253
71746.8 11.6904
71752.6 11.6616
71758.4 11.6371
71764.2 11.6158
71771.7 11.5916
71779.3 11.5707
71786.9 11.5521
71794.5 11.5354
71809.6 11.5060
71824.8 11.4801
71840.0 11.4566
71855.1 11.4348
71885.4 11.3946
71914.0 11.3591
71942.5 11.3249
71971.1 11.2913
71999.6 11.2577
72056.7 11.1899
72113.7 11.1185
72156.6 11.0610
72199.4 10.9983
72242.2 10.9283
72285.0 10.8478
72315.3 10.7818
72345.6 10.7053
72375.9 10.6147
72391.1 10.5621
72406.3 10.5033
72425.9 10.4154
72445.5 10.3103
72465.1 10.1813
72474.9 10.1048
72484.7 10.0181
72495.4 9.90913
72506.1 9.78067
72516.8 9.62693
72522.2 9.53812
72527.5 9.43959
72532.2 9.34391
72536.9 9.23836
72541.6 9.12086
72546.3 8.98997
72551.0 8.84280
72555.6 8.67728
72560.3 8.49015
72565.0 8.27813
72567.9 8.13274
72570.8 7.97601
72573.7 7.80813
72576.6 7.63113
72579.5 7.44740
72582.4 7.26521
72585.3 7.09984
72586.7 7.03188
72588.2 6.98114
72590.0 6.95302
72590.9 6.95881
72591.7 6.98182
72592.9 7.04367
72594.1 7.14909
72594.6 7.22219
72595.2 7.31059
72595.8 7.41584
72596.4 7.53722
72596.9 7.68060
72597.5 7.84566
72598.1 8.03399
72598.7 8.24324
72599.3 8.48216
72599.8 8.74370
72600.4 9.03808
72601.0 9.35587
72601.5 9.64570
72601.9 9.95590
72602.9 10.6290
72603.8 11.3854
72604.8 12.2015
72605.8 13.0823
72606.7 13.9937
72608.6 15.8673
72610.0 17.1827
72610.9 17.9505
72611.7 18.6576
72612.6 19.2914
72613.5 19.8426
72614.4 20.3050
72615.2 20.6759
72616.1 20.9556
72617.0 21.1476
72618.3 21.2837
72619.5 21.2661
72620.8 21.1245
72622.1 20.8907
72623.4 20.5893
72624.7 20.2487
72627.2 19.5120
72629.6 18.8300
72632.0 18.1956
72634.4 17.6238
72636.8 17.1162
72639.2 16.6680
72641.6 16.2726
72644.0 15.9231
72646.4 15.6142
72648.8 15.3380
72651.2 15.0910
72656.0 14.6697
72661.3 14.2947
72666.5 13.9874
72671.7 13.7312
72677.0 13.5145
72681.8 13.3428
72686.6 13.1921
72696.1 12.9407
72705.7 12.7386
72715.3 12.5727
72722.8 12.4630
72730.2 12.3666
72745.0 12.2038
72759.8 12.0705
72774.6 11.9588
72786.9 11.8789
72799.1 11.8075
72823.5 11.6834
72847.9 11.5766
72872.3 11.4795
72900.2 11.3734
72914.2 11.3196
72928.1 11.2638
72942.1 11.2040
72956.1 11.1379
72970.0 11.0617
72977.0 11.0182
72984.0 10.9698
72989.2 10.9296
72994.4 10.8853
72999.7 10.8354
73004.9 10.7790
73010.1 10.7141
73015.4 10.6385
73020.6 10.5485
73025.8 10.4392
73028.7 10.3692
73031.5 10.2899
73034.3 10.1984
73037.2 10.0920
73040.0 9.96567
73042.8 9.81408
73044.3 9.72570
73045.7 9.62716
73047.1 9.51658
73048.5 9.39253
73049.9 9.25032
73051.4 9.08721
73052.8 8.89932
73053.5 8.79498
73054.2 8.68499
73054.9 8.56633
73055.6 8.44110
73056.3 8.31063
73057.0 8.17726
73057.7 8.04474
73058.4 7.91850
73059.2 7.80606
73059.9 7.71828
73060.7 7.66045
73061.1 7.65620
73061.5 7.67242
73061.9 7.71228
73062.3 7.77900
73062.7 7.87572
73063.1 8.00186
73063.5 8.16639
73063.9 8.36889
73064.4 8.61118
73064.8 8.89443
73065.2 9.21907
73065.6 9.58469
73066.0 9.98994
73066.4 10.4213
73066.6 10.6726
73067.1 11.2645
73067.6 11.8939
73068.6 13.2102
73069.3 14.2031
73070.0 15.1647
73070.8 16.1482
73071.2 16.5920
73071.6 16.9873
73072.1 17.4342
73072.6 17.8018
73073.1 18.1015
73073.6 18.3206
73074.1 18.4693
73074.6 18.5448
73075.1 18.5559
73075.5 18.5088
73076.3 18.3518
73077.0 18.1111
73077.7 17.8105
73078.4 17.4772
73079.1 17.1207
73079.8 16.7614
73080.5 16.4112
73081.2 16.0830
73081.9 15.7936
73082.5 15.5258
73083.2 15.2801
73083.8 15.0595
73084.5 14.8560
73085.1 14.6741
73086.5 14.3569
73087.8 14.0924
73089.1 13.8727
73090.4 13.6862
73091.7 13.5258
73092.9 13.3953
73094.1 13.2805
73096.6 13.0855
73099.0 12.9253
73101.4 12.7921
73103.8 12.6787
73106.3 12.5815
73108.7 12.4970
73111.1 12.4227
73115.9 12.2973
73120.8 12.1958
73125.6 12.1118
73130.5 12.0410
73135.3 11.9803
73140.2 11.9277
73145.0 11.8817
73149.9 11.8409
73158.8 11.7763
73167.7 11.7223
73176.6 11.6764
73185.4 11.6365
73194.3 11.6016
73203.2 11.5704
73221.0 11.5172
73238.0 11.4748
73254.9 11.4381
73271.9 11.4059
73288.9 11.3772
73322.8 11.3277
73356.8 11.2858
73389.1 11.2511
73421.4 11.2200
73486.1 11.1656
73550.7 11.1191
73615.4 11.0780
73738.2 11.0102
73861.0 10.9516
74106.7 10.8519
74365.3 10.7632
74623.9 10.6845
75141.0 10.5471
76278.8 10.2905
77416.6 10.0477
78502.7 9.78130
78787.2 9.69633
78929.4 9.64965
79000.5 9.62494
79071.6 9.59924
79123.3 9.57975
79175.0 9.55954
79226.8 9.53850
79278.5 9.51653
79330.2 9.49346
79356.0 9.48146
79381.9 9.46910
79407.8 9.45635
79433.6 9.44318
79459.5 9.42958
79485.3 9.41557
79500.7 9.40707
79516.0 9.39850
79531.4 9.38992
79546.8 9.38151
79562.1 9.37355
79577.5 9.36664
79585.1 9.36387
79592.8 9.36176
79600.5 9.36082
79608.2 9.36152
79614.6 9.36396
79621.1 9.36887
79627.6 9.37739
79634.0 9.39122
79640.5 9.41301
79647.0 9.44777
79650.2 9.47275
79653.4 9.50473
79656.7 9.54611
79659.9 9.60022
79662.2 9.64990
79664.5 9.71118
79666.9 9.78834
79669.2 9.88585
79671.5 10.0118
79673.8 10.1756
79676.2 10.3932
79677.3 10.5291
79678.5 10.6879
79679.6 10.8657
79680.7 11.0737
79681.8 11.3180
79682.9 11.6052
79684.0 11.9430
79685.1 12.3395
79686.3 12.8028
79687.4 13.3402
79688.2 13.7706
79688.9 14.2419
79689.7 14.7534
79690.5 15.3028
79692.1 16.4962
79693.7 17.7522
79695.3 18.9963
79696.1 19.5654
79696.8 20.0799
79697.6 20.5237
79698.4 20.8826
79699.2 21.1446
79700.0 21.3016
79700.5 21.3439
79701.4 21.3158
79702.2 21.1631
79703.1 20.8910
79703.9 20.5193
79704.8 20.0564
79705.6 19.5320
79707.3 18.3613
79709.0 17.1463
79710.7 16.0020
79711.6 15.4722
79712.4 14.9847
79713.3 14.5299
79714.1 14.1188
79715.3 13.5791
79716.6 13.1170
79717.8 12.7197
79719.0 12.3787
79720.3 12.0834
79721.5 11.8311
79722.7 11.6128
79724.0 11.4230
79726.2 11.1351
79728.4 10.9073
79730.7 10.7229
79732.9 10.5716
79735.2 10.4452
79737.4 10.3393
79741.9 10.1718
79746.2 10.0518
79750.4 9.95796
79754.7 9.88269
79758.9 9.82111
79763.2 9.76994
79767.5 9.72680
79771.7 9.68998
79776.0 9.65830
79781.6 9.62264
79787.2 9.59227
79792.8 9.56592
79798.4 9.54295
79809.6 9.50459
79820.8 9.47362
79832.0 9.44778
79843.2 9.42588
79854.4 9.40638
79865.6 9.38901
79884.5 9.36331
79903.3 9.34068
79922.1 9.32016
79940.9 9.30125
79959.8 9.28339
79978.6 9.26626
79997.4 9.24962
80016.3 9.23349
80053.9 9.20190
80091.6 9.17078
80129.2 9.13952
80166.9 9.10809
80253.0 9.03334
80339.0 8.95294
80418.0 8.87243
80496.9 8.78367
80575.8 8.68473
80654.7 8.57305
80726.4 8.45751
80798.1 8.32590
80869.8 8.17324
80941.6 7.99490
81020.5 7.75824
81059.9 7.61982
81099.4 7.46473
81138.8 7.28972
81178.3 7.09099
81217.7 6.86372
81257.2 6.60198
81278.7 6.44251
81300.2 6.26921
81321.8 6.08115
81343.3 5.87726
81368.4 5.61851
81393.5 5.33805
81418.6 5.03993
81443.7 4.73723
81458.0 4.57191
81472.4 4.42397
81479.6 4.36082
81486.7 4.30830
81493.9 4.26951
81501.1 4.24837
81506.8 4.24730
81512.5 4.26287
81518.2 4.29828
81523.9 4.35849
81529.7 4.44817
81532.5 4.50549
81535.4 4.57179
81538.2 4.64826
81541.1 4.73544
81543.9 4.83417
81546.8 4.94495
81550.5 5.10882
81554.2 5.29667
81557.9 5.51094
81561.6 5.75370
81565.3 6.02703
81568.9 6.33292
81572.6 6.67324
81576.3 7.04963
81578.7 7.30876
81581.0 7.58331
81585.7 8.17934
81590.4 8.83810
81595.1 9.55691
81599.8 10.3349
81604.5 11.1627
81609.2 12.0312
81613.9 12.9280
81630.0 16.0398
81637.4 17.3619
81641.1 17.9707
81644.8 18.5377
81648.5 19.0585
81652.2 19.5299
81655.8 19.9499
81659.5 20.3175
81663.2 20.6339
81666.9 20.8983
81670.6 21.1137
81674.3 21.2825
81681.7 21.4930
81689.1 21.5568
81696.8 21.4978
81704.4 21.3404
81712.1 21.1110
81719.8 20.8321
81735.2 20.1891
81750.6 19.5091
81764.2 18.9179
81777.8 18.3572
81791.4 17.8345
81805.0 17.3531
81819.9 16.8735
81834.7 16.4389
81849.6 16.0452
81864.4 15.6891
81891.7 15.1171
81918.9 14.6340
81946.1 14.2224
81973.3 13.8685
82000.6 13.5614
82027.8 13.2927
82055.0 13.0557
82082.3 12.8453
82124.3 12.5627
82166.4 12.3220
82208.5 12.1135
82250.6 11.9314
82305.0 11.7270
82359.5 11.5505
82413.9 11.3960
82468.4 11.2592
82567.4 11.0461
82666.4 10.8657
82765.4 10.7101
82864.4 10.5717
82904.0 10.5202
83022.9 10.3758
83141.7 10.2424
83260.5 10.1158
83379.3 9.99232
83493.2 9.87408
83550.1 9.81407
83607.0 9.75302
83663.9 9.69049
83720.9 9.62600
83777.8 9.55920
83834.7 9.48939
83862.0 9.45470
83889.2 9.41912
83916.4 9.38252
83943.6 9.34480
83970.9 9.30591
83998.1 9.26571
84025.3 9.22417
84052.6 9.18139
84064.9 9.16154
84077.3 9.14158
84089.7 9.12152
84102.1 9.10157
84114.4 9.08195
84126.8 9.06310
84139.2 9.04572
84151.6 9.03108
84158.7 9.02471
84165.8 9.02059
84172.9 9.01949
84180.0 9.02327
84187.2 9.03438
84194.3 9.05650
84201.4 9.09589
84204.9 9.12542
84208.5 9.16429
84214.1 9.25207
84216.9 9.31331
84219.6 9.39034
84222.4 9.48875
84225.2 9.61500
84228.0 9.77976
84230.8 9.99817
84232.3 10.1512
84233.9 10.3328
84235.4 10.5498
84237.0 10.8084
84238.5 11.1224
84240.1 11.5029
84241.6 11.9650
84242.4 12.2301
84243.1 12.5219
84244.0 12.8819
84244.9 13.2760
84245.7 13.7107
84246.6 14.1880
84247.4 14.7090
84248.3 15.2737
84249.1 15.8805
84250.0 16.5262
84251.9 18.1026
84253.8 19.7265
84254.8 20.5085
84255.7 21.2381
84256.7 21.8899
84257.6 22.4395
84258.2 22.7172
84258.8 22.9439
84259.4 23.1164
84260.0 23.2323
84260.6 23.2901
84261.6 23.2595
84262.5 23.0787
84263.5 22.7587
84264.4 22.3161
84265.4 21.7717
84266.4 21.1486
84268.3 19.7685
84270.1 18.4147
84271.9 17.1268
84272.8 16.5262
84273.7 15.9695
84274.6 15.4519
84275.5 14.9741
84276.8 14.3703
84278.0 13.8380
84279.3 13.3707
84280.5 12.9641
84281.8 12.6046
84283.0 12.2889
84284.3 12.0109
84285.6 11.7672
84287.6 11.4295
84289.6 11.1497
84291.6 10.9142
84293.6 10.7143
84295.6 10.5421
84297.6 10.3942
84301.7 10.1522
84305.7 9.96284
84309.7 9.81166
84313.7 9.68789
84317.8 9.58526
84321.8 9.49835
84325.8 9.42413
84333.9 9.30297
84341.9 9.20708
84350.0 9.12858
84358.0 9.06237
84366.1 9.00501
84374.1 8.95421
84382.2 8.90837
84398.2 8.82737
84409.0 8.77850
84419.7 8.73265
84430.5 8.68894
84441.2 8.64685
84462.7 8.56588
84484.1 8.48763
84500.2 8.43045
84516.3 8.37559
84524.4 8.34980
84532.4 8.32592
84540.5 8.30486
84548.5 8.28909
84553.2 8.28368
84557.9 8.28235
84562.6 8.28668
84567.3 8.29924
84572.0 8.32434
84576.7 8.36849
84581.4 8.44290
84583.7 8.49710
84586.1 8.56714
84589.8 8.72433
84591.6 8.83378
84593.5 8.97134
84595.3 9.14790
84597.2 9.37471
84598.1 9.51279
84599.0 9.67112
84599.9 9.85322
84600.8 10.0632
84601.8 10.3087
84602.7 10.5901
84603.6 10.9158
84604.5 11.2927
84605.5 11.7330
84606.4 12.2341
84607.3 12.8070
84608.2 13.4567
84609.0 14.0944
84609.8 14.7934
84610.6 15.5507
84611.5 16.3602
84613.1 18.0923
84614.7 19.8542
84616.0 21.2174
84616.7 21.8343
84617.3 22.3778
84618.0 22.8514
84618.7 23.2297
84619.3 23.5149
84620.0 23.6919
84620.5 23.7516
84621.2 23.7420
84621.9 23.6060
84622.6 23.3505
84623.3 22.9854
84624.1 22.5236
84624.8 21.9803
84625.5 21.3719
84626.2 20.7153
84628.6 18.4425
84629.7 17.3301
84630.9 16.2972
84632.0 15.3947
84633.1 14.5923
84634.2 13.8764
84635.3 13.2556
84636.4 12.7111
84637.5 12.2436
84638.6 11.8386
84639.7 11.4874
84640.6 11.2344
84641.5 11.0105
84643.3 10.6265
84645.1 10.3133
84646.9 10.0557
84648.7 9.83881
84650.5 9.65507
84652.2 9.49771
84654.0 9.36232
84657.4 9.15054
84660.8 8.98264
84664.1 8.84545
84667.5 8.73151
84670.9 8.63443
84674.2 8.55084
84680.9 8.41261
84687.7 8.30167
84694.4 8.20904
84701.1 8.12928
84707.9 8.05855
84714.6 7.99428
84721.3 7.93496
84734.8 7.82676
84744.9 7.75179
84755.0 7.68048
84775.2 7.54336
84795.4 7.41040
84815.5 7.27855
84850.9 7.04720
84886.2 6.81553
84921.5 6.59230
84956.9 6.40045
84977.1 6.32232
84997.2 6.28493
85006.9 6.28760
85016.5 6.30763
85026.2 6.34874
85035.8 6.41517
85045.4 6.51209
85055.1 6.64529
85064.7 6.82176
85074.3 7.04719
85080.0 7.20676
85085.7 7.38755
85091.4 7.59137
85097.1 7.81974
85102.7 8.07405
85108.4 8.35549
85114.1 8.66508
85119.8 9.00345
85125.5 9.37083
85131.1 9.76697
85136.8 10.1910
85142.5 10.6415
85153.9 11.6124
85165.2 12.6530
85190.0 14.9749
85201.4 15.9627
85212.7 16.8420
85218.4 17.2315
85224.1 17.5841
85229.8 17.8983
85235.5 18.1733
85241.1 18.4094
85246.8 18.6073
85258.2 18.8951
85269.5 19.0533
85280.9 19.1020
85293.2 19.0558
85305.5 18.9312
85317.8 18.7500
85330.2 18.5305
85354.8 18.0290
85379.4 17.5035
85401.9 17.0368
85424.4 16.5979
85446.8 16.1926
85469.3 15.8218
85491.8 15.4844
85514.2 15.1780
85559.2 14.6465
85602.1 14.2241
85645.0 13.8672
85687.9 13.5629
85730.8 13.3009
85775.7 13.0636
85820.7 12.8569
85865.6 12.6754
85910.5 12.5147
85984.1 12.2887
86057.6 12.0979
86131.2 11.9346
86204.7 11.7931
86294.6 11.6440
86384.5 11.5153
86474.4 11.4027
86564.2 11.3032
86711.3 11.1631
86858.4 11.0439
87005.5 10.9407
87152.6 10.8499
87332.3 10.7524
87512.1 10.6661
87871.6 10.5176
88263.8 10.3806
89048.3 10.1412
89097.3 10.1257
89146.3 10.1099
89170.9 10.1016
89195.4 10.0931
89219.9 10.0843
89244.4 10.0752
89263.8 10.0676
89283.2 10.0597
89302.6 10.0513
89322.0 10.0423
89341.4 10.0327
89360.8 10.0223
89370.6 10.0166
89380.3 10.0108
89390.0 10.0045
89399.7 9.99797
89407.8 9.99220
89416.0 9.98623
89424.2 9.98014
89432.3 9.97414
89440.5 9.96859
89444.6 9.96622
89448.7 9.96436
89452.8 9.96327
89456.8 9.96336
89460.9 9.96529
89465.0 9.97006
89468.2 9.97681
89471.4 9.98751
89474.6 10.0042
89477.8 10.0304
89481.0 10.0720
89482.6 10.1016
89484.2 10.1394
89485.8 10.1889
89487.4 10.2541
89489.0 10.3425
89490.6 10.4636
89491.8 10.5888
89493.0 10.7516
89494.2 10.9667
89495.4 11.2515
89496.0 11.4283
89496.6 11.6313
89497.2 11.8637
89497.8 12.1240
89498.4 12.4239
89499.0 12.7562
89499.7 13.1341
89500.3 13.5465
89500.9 14.0313
89501.5 14.5613
89502.2 15.1335
89502.8 15.7330
89505.4 18.3502
89506.3 19.2534
89507.2 20.0612
89508.1 20.7465
89508.5 21.0239
89509.0 21.2551
89509.5 21.4603
89510.0 21.5935
89510.3 21.6347
89510.8 21.6622
89511.3 21.6132
89511.9 21.4910
89512.4 21.2994
89512.9 21.0383
89513.5 20.7238
89514.0 20.3594
89514.5 19.9532
89515.6 19.0588
89516.6 18.1097
89517.7 17.1468
89518.7 16.2354
89519.8 15.3910
89520.8 14.6484
89521.8 14.0056
89522.9 13.4604
89523.9 13.0044
89525.0 12.6265
89526.0 12.3146
89527.0 12.0569
89528.1 11.8340
89529.2 11.6496
89530.3 11.4956
89531.4 11.3658
89533.6 11.1600
89535.7 11.0058
89537.9 10.8856
89540.1 10.7898
89542.3 10.7120
89544.5 10.6478
89547.1 10.5828
89549.8 10.5293
89552.4 10.4845
89555.1 10.4465
89560.4 10.3854
89565.7 10.3389
89571.0 10.3022
89576.3 10.2725
89581.6 10.2478
89586.9 10.2271
89592.2 10.2093
89597.5 10.1940
89608.1 10.1687
89618.7 10.1488
89629.3 10.1322
89639.9 10.1182
89650.5 10.1061
89661.1 10.0956
89671.7 10.0863
89689.9 10.0723
89708.1 10.0603
89732.4 10.0463
89756.6 10.0340
89780.8 10.0229
89805.1 10.0127
89829.3 10.0032
89853.6 9.99415
89908.1 9.97523
89962.7 9.95758
90017.2 9.94072
90071.8 9.92440
90180.9 9.89269
90290.0 9.86147
90411.2 9.82659
90471.8 9.80892
90532.4 9.79091
90593.0 9.77235
90653.7 9.75311
90684.0 9.74319
90714.3 9.73291
90774.9 9.71128
90799.1 9.70203
90823.4 9.69231
90847.6 9.68203
90871.9 9.67103
90896.1 9.65915
90909.0 9.65238
90921.9 9.64519
90934.7 9.63757
90947.6 9.62943
90960.5 9.62075
90966.9 9.61621
90973.4 9.61154
90979.8 9.60676
90986.3 9.60193
90992.7 9.59715
90999.1 9.59261
91004.5 9.58926
91009.8 9.58660
91015.1 9.58513
91020.4 9.58575
91023.0 9.58736
91025.7 9.59024
91028.3 9.59487
91031.0 9.60190
91033.6 9.61230
91036.3 9.62750
91038.9 9.64973
91041.6 9.68257
91043.6 9.71779
91045.5 9.76665
91047.5 9.83606
91049.5 9.93749
91050.5 10.0063
91051.5 10.0905
91052.5 10.1965
91053.5 10.3281
91054.5 10.4951
91055.5 10.7031
91056.5 10.9634
91057.5 11.2869
91058.3 11.6062
91059.1 11.9753
91059.9 12.4074
91060.7 12.8937
91061.5 13.4453
91062.3 14.0440
91063.1 14.6958
91063.9 15.3713
91065.0 16.3442
91066.2 17.2821
91067.3 18.1146
91067.9 18.4720
91068.4 18.7719
91069.2 19.0956
91070.0 19.2895
91070.3 19.3259
91070.8 19.3505
91071.4 19.3102
91071.9 19.2079
91072.4 19.0468
91073.0 18.8313
91073.5 18.5672
91074.6 17.9191
91079.0 14.7018
91080.2 13.9274
91081.4 13.2574
91082.0 12.9630
91082.6 12.6951
91083.8 12.2369
91085.0 11.8625
91086.2 11.5634
91087.4 11.3205
91088.6 11.1254
91090.1 10.9291
91091.6 10.7750
91093.1 10.6502
91094.6 10.5486
91096.1 10.4636
91097.5 10.3924
91100.5 10.2787
91103.5 10.1926
91106.5 10.1252
91109.5 10.0711
91112.5 10.0267
91116.1 9.98311
91119.7 9.94741
91123.3 9.91772
91126.9 9.89261
91130.4 9.87100
91134.0 9.85214
91141.2 9.82086
91148.4 9.79589
91155.6 9.77542
91162.7 9.75823
91169.9 9.74353
91181.9 9.72315
91193.8 9.70606
91205.8 9.69141
91217.8 9.67854
91229.7 9.66696
91241.7 9.65636
91265.6 9.63717
91281.6 9.62537
91297.5 9.61411
91313.5 9.60321
91329.4 9.59262
91345.4 9.58233
91361.3 9.57253
91369.3 9.56795
91377.3 9.56371
91385.3 9.55993
91393.2 9.55702
91400.0 9.55551
91406.8 9.55535
91413.6 9.55722
91420.3 9.56223
91427.1 9.57209
91433.9 9.58975
91437.3 9.60323
91440.7 9.62125
91444.1 9.64537
91447.5 9.67775
91450.3 9.71322
91453.0 9.75923
91455.8 9.81994
91458.6 9.90146
91461.4 10.0133
91464.2 10.1701
91465.6 10.2729
91467.0 10.3962
91468.4 10.5472
91469.8 10.7309
91471.0 10.9232
91472.2 11.1538
91473.4 11.4307
91474.6 11.7594
91475.8 12.1543
91477.0 12.6169
91478.2 13.1612
91479.4 13.7802
91480.3 14.3527
91481.3 14.9645
91483.3 16.2765
91485.3 17.5926
91486.2 18.1880
91487.2 18.7101
91487.9 19.0247
91488.6 19.2822
91489.3 19.4762
91490.0 19.6011
91490.5 19.6470
91491.3 19.6504
91492.1 19.5580
91492.9 19.3751
91493.7 19.1140
91494.6 18.7792
91495.4 18.3915
91497.0 17.4942
91498.9 16.3857
91500.7 15.3157
91501.7 14.8197
91502.6 14.3645
91503.5 13.9473
91504.5 13.5686
91506.1 13.0102
91507.6 12.5485
91509.2 12.1690
91510.8 11.8586
91512.4 11.6003
91513.9 11.3865
91515.5 11.2059
91517.1 11.0540
91520.2 10.8110
91523.4 10.6290
91526.5 10.4881
91529.7 10.3764
91532.9 10.2857
91536.0 10.2115
91539.2 10.1495
91542.3 10.0972
91545.8 10.0478
91549.3 10.0061
91556.3 9.93871
91563.3 9.88672
91570.3 9.84565
91577.3 9.81231
91584.3 9.78473
91591.3 9.76144
91598.3 9.74165
91608.9 9.71656
91619.4 9.69554
91629.9 9.67767
91640.4 9.66220
91650.9 9.64859
91661.4 9.63643
91682.4 9.61562
91703.4 9.59772
91724.4 9.58205
91745.5 9.56799
91766.5 9.55513
91794.5 9.53936
91822.5 9.52474
91850.5 9.51093
91878.6 9.49787
91934.6 9.47275
91990.6 9.44874
92046.7 9.42539
92102.7 9.40230
92214.8 9.35607
92332.5 9.30640
92391.3 9.28080
92450.2 9.25441
92509.0 9.22709
92567.9 9.19867
92626.7 9.16868
92656.1 9.15303
92685.6 9.13686
92708.0 9.12408
92730.4 9.11091
92752.8 9.09733
92775.2 9.08341
92787.1 9.07592
92799.0 9.06845
92810.9 9.06112
92822.9 9.05415
92834.8 9.04795
92846.7 9.04316
92852.6 9.04179
92858.6 9.04148
92864.5 9.04269
92870.5 9.04614
92875.6 9.05166
92880.7 9.06066
92885.7 9.07474
92890.8 9.09631
92895.9 9.12971
92898.4 9.15311
92901.0 9.18280
92903.5 9.22070
92906.1 9.26956
92908.6 9.33339
92911.1 9.41775
92912.9 9.49273
92914.6 9.58592
92916.4 9.70289
92918.1 9.85113
92919.9 10.0407
92921.6 10.2847
92923.4 10.5996
92924.3 10.7906
92925.1 11.0042
92926.1 11.2653
92927.0 11.5600
92927.9 11.8902
92928.9 12.2521
92929.8 12.6523
92930.8 13.0840
92932.6 14.0114
92934.4 14.8935
92936.1 15.7065
92936.9 16.0586
92937.8 16.3587
92938.7 16.5964
92939.5 16.7638
92940.0 16.8254
92940.5 16.8622
92941.4 16.8602
92942.4 16.7701
92943.3 16.5983
92944.2 16.3540
92945.1 16.0456
92946.0 15.6934
92947.9 14.9044
92950.1 13.9180
92951.2 13.4501
92952.3 13.0186
92953.5 12.6213
92954.6 12.2672
92955.7 11.9521
92956.8 11.6739
92957.8 11.4563
92958.7 11.2645
92960.7 10.9396
92962.6 10.6810
92964.6 10.4732
92966.5 10.3044
92968.5 10.1655
92970.4 10.0498
92972.4 9.95226
92974.5 9.86375
92976.6 9.78848
92980.8 9.66786
92984.9 9.57608
92989.1 9.50441
92993.3 9.44666
92997.5 9.39932
93001.6 9.35969
93005.8 9.32621
93010.5 9.29389
93015.3 9.26638
93020.0 9.24261
93024.7 9.22188
93034.2 9.18728
93043.7 9.15903
93053.1 9.13542
93062.6 9.11525
93072.1 9.09760
93081.5 9.08192
93099.9 9.05574
93118.3 9.03295
93136.6 9.01267
93155.0 8.99412
93173.4 8.97681
93191.8 8.96039
93228.5 8.92939
93265.3 8.89971
93302.0 8.87074
93375.5 8.81320
93446.8 8.75634
93535.8 8.68183
93624.9 8.60189
93714.0 8.51401
93758.5 8.46630
93803.1 8.41530
93847.6 8.35967
93892.2 8.29778
93914.4 8.26338
93936.7 8.22567
93959.0 8.18334
93970.1 8.15993
93981.2 8.13407
93990.2 8.11127
93999.1 8.08604
94008.0 8.05763
94016.9 8.02495
94025.8 7.98645
94030.2 7.96417
94034.7 7.93913
94039.2 7.91055
94043.6 7.87763
94048.1 7.83895
94052.5 7.79249
94055.2 7.75981
94057.8 7.72218
94060.5 7.67819
94063.1 7.62612
94064.4 7.59591
94065.7 7.56270
94067.1 7.52567
94068.4 7.48411
94069.7 7.43678
94071.0 7.38345
94072.4 7.32295
94073.0 7.28989
94073.7 7.25499
94074.3 7.22181
94074.9 7.18807
94075.5 7.15358
94076.0 7.11885
94076.6 7.08458
94077.2 7.05170
94077.8 7.02139
94078.4 6.99509
94079.0 6.97425
94079.6 6.96159
94080.8 6.96872
94081.4 6.99344
94082.0 7.03560
94082.5 7.09755
94083.1 7.18133
94084.1 7.37263
94085.1 7.62817
94086.1 7.94609
94087.0 8.31570
94088.4 8.89471
94089.8 9.46963
94090.0 9.56093
94090.6 9.78343
94091.2 9.98190
94092.0 10.2333
94092.9 10.4209
94093.8 10.5405
94094.7 10.5933
94095.5 10.5852
94096.4 10.5256
94097.3 10.4260
94098.1 10.2986
94099.0 10.1549
94099.9 10.0046
94100.7 9.85566
94101.6 9.71527
94102.2 9.62773
94102.7 9.54530
94103.3 9.46830
94103.9 9.39800
94104.4 9.33183
94105.0 9.27190
94106.1 9.16509
94107.3 9.07484
94108.4 8.99829
94109.5 8.93284
94110.7 8.87631
94111.8 8.82697
94112.9 8.78347
94115.2 8.71000
94117.4 8.65000
94119.7 8.59976
94122.5 8.54769
94125.3 8.50402
94128.0 8.46659
94130.8 8.43404
94133.6 8.40527
94136.4 8.37974
94142.0 8.33579
94147.5 8.29875
94153.1 8.26689
94158.7 8.23884
94164.2 8.21382
94173.6 8.17672
94183.0 8.14386
94192.4 8.11412
94201.8 8.08672
94220.6 8.03669
94239.3 7.99073
94258.1 7.94724
94276.9 7.90492
94314.4 7.82182
94375.6 7.68488
94436.8 7.54013
94498.1 7.38307
94528.7 7.29865
94559.3 7.20974
94598.2 7.08883
94617.7 7.02477
94637.2 6.95842
94656.6 6.88898
94676.1 6.81663
94685.8 6.77936
94695.6 6.74148
94705.3 6.70305
94715.0 6.66443
94726.2 6.62063
94731.7 6.59932
94737.3 6.57897
94742.9 6.56010
94748.4 6.54372
94754.0 6.53137
94759.6 6.52560
94763.0 6.52718
94766.5 6.53486
94770.0 6.55159
94773.5 6.58188
94777.0 6.63291
94780.4 6.71714
94782.2 6.77825
94783.9 6.85763
94785.7 6.96169
94787.4 7.09871
94788.7 7.23254
94790.0 7.39928
94791.3 7.61163
94792.0 7.73741
94792.6 7.87918
94793.3 8.04163
94793.9 8.22211
94794.6 8.42536
94795.2 8.65392
94795.9 8.91035
94796.5 9.19721
94797.2 9.51688
94797.8 9.87150
94798.6 10.3519
94799.4 10.8808
94800.2 11.4639
94800.9 12.0986
94801.7 12.7797
94802.5 13.4988
94804.1 15.0017
94805.4 16.2412
94806.0 16.8258
94806.7 17.3705
94807.3 17.8631
94808.0 18.2922
94808.6 18.6477
94809.3 18.9210
94810.0 19.1243
94810.4 19.1822
94811.0 19.2071
94811.7 19.1392
94812.3 18.9817
94813.0 18.7403
94813.6 18.4228
94814.3 18.0386
94814.9 17.5983
94815.6 17.1209
94816.4 16.4221
94817.3 15.6987
94819.0 14.2457
94819.9 13.5445
94820.8 12.8910
94821.6 12.2848
94822.5 11.7300
94823.1 11.3400
94823.8 10.9859
94824.4 10.6606
94825.1 10.3627
94825.7 10.0865
94826.4 9.83864
94827.0 9.61272
94827.7 9.40688
94829.0 9.04561
94830.3 8.74673
94831.6 8.49394
94832.9 8.28168
94834.1 8.10945
94835.4 7.96105
94837.8 7.71555
94840.3 7.52227
94842.7 7.36689
94845.2 7.23821
94847.6 7.13050
94850.0 7.03814
94852.5 6.95848
94857.7 6.81872
94862.9 6.70845
94868.1 6.61814
94873.4 6.54167
94878.6 6.47506
94883.8 6.41589
94894.2 6.31352
94902.7 6.24120
94911.2 6.17587
94928.2 6.05840
94945.1 5.95295
94962.1 5.85614
94990.8 5.70833
95019.5 5.58168
95048.2 5.48307
95062.6 5.44808
95076.9 5.42546
95087.4 5.41831
95101.5 5.42353
95115.5 5.44902
95129.6 5.49890
95143.7 5.57800
95157.8 5.69239
95171.9 5.84670
95178.9 5.94121
95185.9 6.04817
95193.0 6.16899
95200.0 6.30355
95212.5 6.57968
95218.8 6.73659
95225.0 6.90825
95231.3 7.09423
95237.5 7.29472
95243.8 7.51026
95250.0 7.74206
95262.5 8.24938
95275.0 8.81353
95287.5 9.43228
95300.0 10.0985
95312.5 10.8020
95325.0 11.5294
95350.0 12.9925
95362.5 13.6944
95375.0 14.3550
95387.5 14.9608
95400.0 15.5015
95412.5 15.9705
95425.0 16.3646
95437.5 16.6842
95450.0 16.9322
95462.5 17.1138
95475.0 17.2353
95487.5 17.3038
95500.0 17.3265
95512.5 17.3105
95532.4 17.2209
95552.3 17.0728
95592.2 16.6729
95632.0 16.2137
95671.8 15.7511
95713.7 15.2902
95755.5 14.8675
95797.4 14.4857
95839.3 14.1434
95881.1 13.8370
95923.0 13.5626
95964.9 13.3162
96006.7 13.0944
96067.6 12.8090
96128.5 12.5610
96189.4 12.3433
96250.3 12.1509
96334.1 11.9203
96417.8 11.7211
96501.5 11.5470
96585.3 11.3934
96691.8 11.2218
96798.4 11.0713
96905.0 10.9382
97011.5 10.8182
97179.0 10.6519
97346.5 10.5058
97514.0 10.3747
97681.4 10.2551
97925.0 10.0955
98168.6 9.94705
98358.9 9.83525
98549.2 9.72434
98739.5 9.61161
98834.7 9.55327
98929.8 9.49242
99002.1 9.44350
99074.4 9.39101
99110.6 9.36277
99146.8 9.33252
99182.9 9.29970
99219.1 9.26291
99251.4 9.22498
99267.6 9.20344
99283.8 9.17953
99300.0 9.15248
99316.1 9.12152
99324.2 9.10384
99332.3 9.08438
99340.4 9.06275
99348.5 9.03848
99356.1 9.01252
99363.7 8.98283
99371.3 8.94827
99378.9 8.90732
99386.5 8.85790
99390.4 8.82895
99394.2 8.79635
99398.0 8.75913
99401.8 8.71646
99405.6 8.66671
99409.4 8.60821
99412.5 8.55206
99415.6 8.48634
99418.7 8.40787
99420.2 8.36237
99421.7 8.31217
99423.3 8.25572
99424.8 8.19220
99426.4 8.12022
99427.9 8.03862
99429.5 7.94437
99431.0 7.83665
99431.8 7.77623
99432.6 7.71263
99433.3 7.64528
99434.1 7.57463
99435.3 7.46107
99436.5 7.34766
99437.7 7.24455
99438.9 7.16719
99440.1 7.13658
99440.7 7.14682
99441.3 7.17814
99441.9 7.23502
99442.4 7.31870
99443.0 7.43262
99443.6 7.57891
99444.3 7.80322
99445.1 8.07411
99445.8 8.39253
99446.5 8.75416
99447.4 9.25767
99448.2 9.79314
99449.1 10.3436
99450.0 10.8845
99451.0 11.4402
99451.9 11.9204
99452.7 12.2514
99453.5 12.5108
99454.3 12.6950
99455.1 12.8050
99455.9 12.8457
99456.7 12.8251
99457.5 12.7533
99458.3 12.6429
99459.5 12.4260
99460.7 12.1794
99461.9 11.9245
99463.1 11.6830
99464.3 11.4606
99465.4 11.2653
99466.6 11.0952
99467.8 10.9482
99469.4 10.7825
99470.9 10.6464
99472.5 10.5324
99474.1 10.4356
99475.7 10.3524
99477.2 10.2799
99480.4 10.1598
99483.5 10.0637
99486.7 9.98544
99492.9 9.86455
99501.3 9.74954
99509.7 9.66635
99519.7 9.59273
99529.6 9.53659
99549.5 9.45411
99589.3 9.34962
99641.7 9.26227
99694.1 9.19724
99798.8 9.09273
99999.9 8.91404
100000 8.91801
100370 7.79030
100540 7.49269
100720 7.32129
100900 6.82668
101080 6.73288
101260 6.99217
101440 5.95436
101620 5.63046
101800 5.84175
101980 4.78575
102160 5.16674
102340 7.53443
102630 16.7759
102640 17.9659
102660 17.2349
102680 17.4679
102700 17.9869
102740 18.6799
102750 18.2809
102770 18.4289
102790 17.8509
102810 18.3779
102830 18.5519
102850 17.9609
102860 17.9609
102900 17.3229
102920 17.3329
102940 18.1719
102990 16.7329
103010 16.7589
103030 16.7409
103050 16.9499
103070 16.6679
103090 15.9159
103100 15.6949
103120 15.4939
103140 15.6069
103160 15.4349
103180 16.0309
103200 15.5319
103210 15.1149
103230 15.5099
103250 15.0689
103270 15.0279
103290 15.2389
103310 14.5519
103330 14.1319
103340 15.1579
103380 14.0249
103400 13.9909
103420 14.3829
103440 13.2059
103450 14.3159
103490 13.3869
103510 13.2809
103530 13.4269
103550 13.0189
103620 13.3799
103640 13.0109
103760 12.4469
103920 12.0099
104020 12.0149
104120 11.5289
104210 11.4589
104310 11.0359
104400 11.0859
104490 11.4029
104680 10.5129
104780 10.7519
104870 10.5999
104970 10.6629
105060 10.4558
105160 10.3558
105250 11.0608
105350 10.1258
105440 9.80913
105630 9.77283
105730 9.95152
105820 9.40902
105920 9.46612
106210 9.23821
106300 8.76110
106400 8.86440
106500 8.78880
106690 8.23229
106790 8.32119
106890 8.15528
107080 7.08098
107180 6.40387
107280 7.00587
107370 13.5078
107420 15.0028
107430 15.0578
107440 14.8028
107450 13.6098
107460 14.1048
107470 13.1638
107480 13.7888
107490 12.3108
107550 12.1908
107650 12.3128
107700 14.4128
107710 13.5688
107720 12.2288
107780 10.2048
107880 9.34635
107970 9.00345
108070 8.48994
108170 8.51144
108370 7.69463
108470 6.69763
108570 5.94483
108670 7.90782
108770 14.8517
108820 16.3607
108830 16.8657
108850 18.3637
108860 18.1507
108870 18.2567
108880 16.9277
108890 16.2517
108900 16.8207
108910 17.0247
108940 16.6967
108950 16.1467
108960 15.0317
108970 15.8417
108980 15.2817
108990 14.1707
109000 15.0907
109010 15.5307
109020 14.9007
109030 15.7037
109040 15.3247
109060 16.5477
109070 15.1787
109080 15.1587
109090 14.7227
109100 13.8997
109110 13.2607
109120 13.6867
109140 12.7697
109300 11.6757
109400 11.3647
109500 10.9157
109600 11.5857
109650 13.3467
109660 13.3657
109670 12.6607
109730 10.9387
109940 10.1027
110040 10.1687
110240 9.81907
110450 9.26957
110550 9.41636
110650 9.26306
110750 9.51126
110860 9.15875
111160 8.67344
111270 8.69634
111370 8.26254
111470 8.33053
111580 7.93493
111790 7.85132
111890 7.53652
111990 6.94152
112100 6.53031
112200 6.22741
112310 5.39300
112410 4.79320
112520 5.49940
112620 9.24929
112730 14.8496
112780 17.1226
112790 16.0836
112800 16.6956
112810 16.5656
112830 16.7786
112840 16.2966
112850 16.8056
112860 16.0086
112870 16.3366
112880 16.2846
112890 17.2046
112900 15.9976
112910 15.6356
112920 16.2716
112930 15.7596
112940 14.9976
112950 15.4916
112960 14.7016
112970 15.6736
112980 15.6866
112990 14.9316
113000 14.9846
113020 14.3076
113040 14.1076
113050 14.6696
113060 13.9226
113070 14.6586
113080 13.7476
113090 14.0636
113100 14.1136
113110 14.3216
113120 13.7206
113130 14.3926
113140 13.2436
113150 13.7646
113160 13.7756
113170 13.5196
113200 13.8776
113210 13.6756
113220 13.1756
113230 14.2026
113240 12.9536
113400 12.2356
113510 12.9406
113620 11.5766
113720 11.1836
113830 11.2846
114040 10.6416
114150 10.7395
114370 10.5545
114470 10.1635
114580 11.3235
114690 15.5275
114750 13.7255
114760 12.5355
114820 10.8715
114930 10.1755
115040 9.91921
115150 9.93461
115470 9.69360
115580 9.44390
115690 9.31639
115800 9.48679
115910 9.27739
116020 9.18868
116130 9.33468
116240 8.93787
116350 9.06747
116460 8.65017
116570 8.76286
116680 8.78316
116910 8.26725
117020 8.11825
117130 7.68085
117240 7.48124
117460 6.82863
117690 5.62383
117800 4.99592
117910 5.53972
118030 8.67922
118140 14.5324
118210 16.5454
118240 15.9144
118250 16.4074
118260 15.5444
118290 15.9084
118300 15.4374
118330 14.8294
118340 14.2674
118350 14.8634
118360 14.7454
118370 15.2154
118380 14.9404
118390 14.2294
118410 14.1084
118420 14.6104
118430 13.9104
118440 14.0064
118450 13.8904
118460 14.4864
118470 13.7934
118480 13.8274
118510 12.9964
118570 13.2944
118630 13.3514
118640 13.8524
118660 13.9854
118680 15.6424
118690 16.2474
118700 17.3804
118710 17.3914
118720 17.2834
118730 18.1264
118750 16.1204
118760 15.5464
118770 13.6884
118780 13.6294
118790 12.7544
118850 12.2874
118970 11.9804
119080 11.4764
119310 10.8424
119430 11.0974
119540 12.2534
119660 12.4154
119770 10.5234
119890 10.5714
120000 10.3662
120120 10.1424
120240 10.1183
120350 9.95624
120470 10.3853
120590 12.5703
120700 10.1283
120820 9.84043
120940 9.98903
121050 9.49943
121170 9.42182
121290 9.51272
121410 9.72772
121520 9.42281
121640 9.51831
121760 9.29151
121880 9.43721
122000 10.8903
122110 9.76020
122230 8.91740
122350 8.35879
122470 8.45679
122590 8.17709
122710 11.1213
122830 12.0733
122950 10.9593
123070 10.6113
123190 11.0713
123310 10.1323
123550 9.83567
123800 9.70496
123920 9.48956
124040 9.65315
124400 9.52505
124530 10.7582
124650 9.40984
124770 9.27774
124890 10.7642
125020 9.72943
125140 10.1432
125260 9.38492
125390 9.16052
125510 9.25342
125640 8.87752
125760 8.94761
125880 9.24721
126010 9.08081
126130 9.24130
126260 9.06860
126380 9.06930
126630 8.92729
126760 8.56109
126880 9.61189
127010 9.61528
127140 9.18568
127260 9.07218
127390 8.72387
127520 8.93957
127640 8.81837
127900 8.79146
128020 8.81526
128150 8.65766
128280 8.66695
128410 8.43365
128660 8.53094
128790 8.43314
128920 8.68874
129050 8.65003
129180 9.12673
129310 10.7341
129440 8.84022
129570 9.65102
129700 10.2061
129830 8.63892
130090 8.28351
130220 8.79821
130350 8.26390
130480 8.70370
130610 10.2901
130740 8.26909
131010 8.02109
131270 8.00378
131540 7.75287
131940 6.96996
132070 6.32026
132200 5.45596
132340 8.81955
132470 12.3911
132610 10.2891
132740 9.51835
132880 9.14824
133010 8.63324
133150 8.61904
133280 8.45973
133420 8.41263
133550 7.75963
133830 8.52642
133960 7.65802
134100 7.37201
134240 7.23981
134370 7.34431
134510 6.84600
134650 6.63120
134790 6.58390
134920 6.33779
135060 5.98169
135200 6.54399
135340 6.01788
135480 6.14058
135620 7.39258
135760 9.41977
135890 12.1320
135970 14.2870
135980 15.4680
136000 16.5100
136010 16.1890
136030 16.0650
136050 15.1560
136070 15.5490
136080 14.6830
136100 14.1190
136110 14.2030
136120 14.1940
136140 13.7030
136150 14.5520
136170 14.7020
136180 13.4990
136190 13.8180
136210 14.0470
136220 14.5470
136240 13.8830
136250 13.0660
136260 14.1540
136310 13.2270
136320 13.9760
136350 12.9830
136430 13.0930
136710 12.0150
136850 11.9770
137130 11.1859
137270 10.9539
137410 10.8839
137550 10.5509
137700 10.5579
137840 10.4119
137980 9.98542
138120 10.2059
138270 9.92821
138410 9.98161
138550 9.70301
138840 9.61450
138990 9.63620
139420 9.48268
139570 9.26358
140000 9.11507
140150 9.29117
140300 10.9369
140440 9.69546
140590 8.84786
140740 8.84606
140880 8.91006
141180 10.6659
141330 9.11905
141470 8.88684
141620 8.80374
141770 8.60804
141920 8.63634
142070 8.95483
142220 9.02043
142370 8.69783
142520 8.71613
142670 10.2218
142820 8.58622
142970 8.30292
143120 8.39811
143270 8.59381
143420 8.44221
143570 8.41781
143720 8.21290
143870 9.88400
144030 9.41630
144180 8.25620
144330 7.93699
144640 9.46349
144790 8.58388
144940 8.33528
145100 8.41288
145250 8.09218
145560 8.01347
145710 7.84397
145870 9.18007
146020 8.01896
146180 8.54726
146330 7.81896
146490 8.70745
146650 7.57135
147120 7.46374
147270 7.33224
147430 7.03144
147590 7.13873
147750 7.75063
147910 6.66553
148060 6.88543
148220 6.39382
148380 6.09032
148540 5.66302
148700 5.15991
148860 4.76041
149020 4.06451
149180 3.16031
149340 2.11730
149500 1.67590
149660 3.78820
149830 10.4467
149910 15.9197
149930 15.9067
149950 16.7217
149960 16.4667
149980 17.1737
149990 17.0817
150010 17.8937
150030 16.7427
150040 16.9207
150060 17.5347
150080 17.0357
150090 16.4477
150110 17.9967
150120 15.9917
150140 17.1977
150160 16.1177
150170 15.8567
150200 16.5247
150220 15.7187
150240 15.6467
150250 15.7327
150270 14.8337
150290 15.5127
150300 16.0337
150320 15.1107
150330 14.1897
150350 14.8997
150370 14.3137
150380 14.7857
150400 13.6997
150420 14.1297
150430 13.2507
150450 12.9257
150540 13.1397
150700 12.2927
150860 11.6857
151030 11.2137
151190 11.1107
151520 10.3927
151850 11.2497
152010 14.4847
152180 10.4757
152510 9.73595
152680 9.65344
152840 9.44194
153010 9.50114
153180 9.32123
153340 9.42683
153510 10.2426
153680 10.0616
153840 8.95932
154010 9.31542
154180 9.21652
154350 9.66751
154520 9.56421
154860 8.83720
155030 8.92370
155200 8.70170
155370 8.80219
155540 8.58569
155880 8.77709
156050 10.3066
156220 8.49538
156400 8.50438
156570 8.41027
156740 8.69977
156910 9.53677
157090 8.53116
157260 8.58966
157430 11.9086
157610 9.53355
157780 8.68675
158130 8.27644
158480 8.15104
158660 7.99884
159010 8.29173
159360 7.98612
159540 7.92202
159720 7.96192
159900 7.75661
160000 7.86218
160250 8.12611
160430 11.3745
160530 12.7335
160630 9.43750
160810 7.97770
160990 7.91270
161170 7.67579
161350 7.54479
161530 8.51579
161710 8.27599
161890 9.89728
162070 7.23208
162260 7.28828
162440 7.02268
162620 7.10197
162800 6.22887
162990 5.51547
163170 4.75827
163350 8.99776
163540 9.05346
163720 7.17926
163910 6.61555
164090 10.9685
164280 9.79115
164460 9.07645
164650 8.50234
164830 8.13614
165020 8.14654
165210 8.07194
165390 7.85813
165580 7.80463
165770 7.54453
165960 7.40572
166150 7.47262
166330 7.19812
166520 7.26442
166710 7.50291
166900 8.99301
167090 8.60171
167280 7.01971
167470 6.60800
167660 5.97800
167860 5.20910
168050 4.33429
168240 4.15629
168430 8.85869
168620 11.6394
168820 10.8184
169010 10.2674
169200 10.1784
169400 8.72157
169590 8.45287
169980 8.14597
170180 7.89286
170370 8.00426
170570 7.57846
170760 7.48886
170960 7.55865
171160 9.01435
171360 7.22255
171550 7.36544
171750 8.73874
171950 7.54764
172150 6.74973
172350 6.65923
172550 6.29003
172750 6.40743
172950 6.68262
173150 6.12862
173550 5.32121
173750 5.52961
173950 4.98771
174150 3.89461
174360 5.33170
174560 10.5663
174760 9.46440
174970 8.03249
175170 7.12169
175380 8.09299
175580 10.5603
175790 6.30648
175990 6.93428
176200 5.10688
176400 4.55107
176610 4.23537
176820 4.95227
177020 3.97966
177230 3.44856
177440 3.73676
177650 4.84636
177860 6.40475
178060 8.23415
178270 9.20145
178480 10.0562
178690 10.5812
178900 10.7192
179120 10.6522
179540 10.2742
179750 10.4062
179960 9.99332
180000 10.0606
180180 10.3632
180390 10.0132
180600 9.23281
181030 8.90081
181240 9.07141
181460 9.47880
181680 8.46890
181890 8.73980
182110 9.16850
182320 7.92419
182540 7.55489
182760 7.51609
182980 8.83299
183190 7.16178
183410 6.92988
183630 6.54868
183850 6.62348
184070 9.70507
184290 7.30407
184510 6.02267
184730 5.96157
184950 5.99846
185400 6.87686
185620 7.71516
185840 8.70665
186070 10.2262
186290 10.5792
186510 11.4122
186740 13.1431
186960 12.0351
187190 11.5931
187640 11.3441
187870 11.0191
188090 12.0001
188320 11.0461
188550 10.5331
188780 10.9091
189000 11.6531
189230 9.69481
189460 10.1091
189690 11.9391
189920 11.7831
190150 10.4471
190620 9.87790
190850 9.85530
191550 9.38149
192020 9.14218
192250 8.87638
192480 8.71738
192960 8.09167
193190 8.31597
193430 7.40197
193670 5.72466
193900 7.79466
194140 12.2341
194380 12.4931
194620 9.78915
194860 10.9071
195100 10.4521
195340 10.3540
195580 9.83924
195820 9.55584
196060 9.63014
196300 11.2370
196430 14.8150
196460 16.0860
196480 15.8680
196510 14.4120
196560 12.5320
196690 10.3450
196930 9.48793
197180 9.17512
197910 8.83072
198160 8.78351
198400 8.81691
198650 8.73641
198900 10.4550
199140 9.20460
199390 9.35860
199640 8.59430
200000 8.54946
200390 8.50089
200640 10.0910
200890 9.37658
201140 8.36288
201390 8.91928
201640 8.02348
201890 7.49148
202150 7.94617
202400 9.23837
202650 8.54447
202910 8.41667
203160 8.20566
203420 7.83666
203670 7.73306
203930 7.08436
204180 8.83326
204440 8.39185
204960 6.99135
205220 7.11155
205480 9.95205
205740 8.92504
206260 8.26364
206780 7.96523
207040 7.94283
207300 7.73533
207830 7.66433
208090 8.06282
208360 7.53632
208890 7.28962
209150 7.65811
209420 8.58031
209690 7.30211
209960 6.51311
210220 6.20531
210490 8.66710
210760 7.48730
211030 6.92270
211300 6.73560
211570 6.35149
211840 6.12409
212120 6.49139
212390 5.17719
212660 4.62348
212930 4.86578
213210 6.98208
213480 8.39688
213760 9.32838
214030 9.19277
214310 8.94577
214590 8.56017
214860 8.29407
215140 7.86686
215420 7.73256
215700 7.43746
215980 7.52136
216250 6.75185
216540 6.25305
216820 5.94505
217100 5.24215
217380 5.21105
217660 5.94854
217950 4.79564
218230 4.58244
218510 7.40014
218800 7.96353
219080 9.30853
219370 9.74083
219650 9.73883
219940 9.56912
220230 9.78192
220520 9.84762
220810 8.12082
221100 10.8318
221390 10.4728
221680 10.5298
221970 9.51111
222260 9.11540
222550 9.16930
222840 8.70390
223140 8.42100
223430 8.26089
223730 8.39359
224020 9.44249
224320 7.63609
224610 6.49998
224910 5.80558
225210 7.77578
225510 10.1868
226400 8.97967
226700 8.70377
227310 8.58096
227610 9.88176
227910 8.30426
228210 9.10635
228520 8.47935
228820 7.76935
229130 7.74885
229430 7.62324
229740 7.62854
230040 7.48924
230350 8.12714
230660 8.38163
230970 7.26723
231280 6.77093
231590 6.70323
231900 6.72722
232210 5.82562
232520 5.38882
232830 5.04532
233150 5.81061
233460 5.37641
233770 6.51501
234090 8.06160
234400 9.24630
234720 9.12370
235040 8.77530
235670 8.67099
235990 8.06059
236630 7.51958
236950 7.16598
237270 7.67638
237600 8.32688
237920 6.05227
238240 5.91937
238570 8.20437
238890 9.89066
239220 9.71406
239540 7.77016
239870 6.24876
240200 5.74585
240530 9.11685
240850 9.47435
241180 9.37575
241510 8.96494
242180 8.50214
242510 9.70133
242840 10.4806
243180 8.00473
243840 7.63562
244180 7.69572
245190 6.70881
245530 6.51041
245870 5.46891
246210 4.52000
246550 4.43510
246890 5.69290
247230 7.65389
247570 10.3516
247920 10.0236
248260 9.49899
248610 10.5276
248950 9.63968
249300 9.05598
249650 8.34417
250000 8.28737
250340 8.00607
250690 7.93127
251390 7.52426
251740 8.70446
252100 7.39786
252450 6.93006
252800 6.53876
253160 5.82835
253510 6.40305
253870 11.2486
254220 9.31395
254580 8.90794
254940 9.68074
255300 7.93614
255660 7.65454
256020 7.60204
256380 8.04933
256740 7.86373
257100 7.32423
257470 7.10983
257830 7.14123
258200 7.79402
258560 7.76382
258930 7.07582
259300 7.11162
259660 6.22192
260030 5.86251
260400 5.63671
260770 4.84301
261140 3.34581
261510 5.89030
261890 5.56880
262260 5.76940
262640 5.38990
263010 4.77990
263390 5.02029
263760 6.22779
264140 6.57199
264520 7.31259
265280 9.45488
265660 9.14648
266040 9.51098
266420 8.49648
266810 9.21627
267190 9.14617
267580 9.81437
267960 9.54997
268350 8.86836
268740 8.55896
269130 8.33016
269900 8.24826
270300 8.40285
270690 8.38425
271080 7.72645
271470 7.58495
271870 7.93974
272260 7.84584
272660 7.61514
273050 7.99984
273450 7.72684
273850 10.2304
274250 7.33333
274650 7.45003
275050 7.96163
275450 7.15262
275860 6.82402
276260 7.53002
276670 6.99442
277070 7.77001
277480 6.18791
277890 5.95451
278290 5.01541
278700 4.58170
279110 4.04050
279530 5.58400
279940 4.92410
280350 5.47930
280760 6.70909
281180 7.49269
281590 8.06959
282010 8.27999
282850 8.46908
283690 7.99428
284110 7.60517
284530 7.77287
284950 7.05527
285380 7.19847
285800 8.39466
286230 8.10976
286650 7.69696
287080 8.57676
287510 7.57225
287940 7.13085
288370 6.85615
288800 6.43065
289240 5.65504
289670 4.76394
290100 4.19434
290540 6.51414
290980 9.05923
291410 8.00073
291850 7.55493
292290 7.85043
292730 6.66032
293170 6.16862
293620 6.13712
294060 6.38162
294500 6.96181
294950 7.63521
295400 7.02961
296290 6.84590
296740 5.70390
298100 4.40329
298550 4.53379
299010 3.84039
299460 4.03988
299920 4.32138
300000 4.61213
300380 5.99318
300840 5.49138
301760 8.03427
302220 10.1593
302680 8.06367
303150 8.03737
303610 8.89387
304080 7.40137
304550 7.07986
305010 6.64776
305480 6.38466
305950 5.70736
306430 5.12166
306900 4.87285
307370 6.70135
307850 7.12855
308320 8.53475
308800 9.28515
309280 9.75054
309760 7.91294
310240 7.73084
310720 8.47824
311210 6.97654
311690 5.80803
312170 4.13713
312660 4.10743
313150 5.92993
313640 5.49023
314130 5.52653
314620 6.50012
315110 8.08682
315600 9.13322
316100 9.42202
316590 9.29222
317090 6.81781
317590 6.83531
318090 7.18851
318590 5.66921
319090 4.99871
319590 5.74300
320100 6.74180
320600 7.21100
321110 7.51580
321610 7.69100
322120 8.12079
322630 7.84749
323140 7.39119
323650 7.31489
324170 6.60818
324680 6.17828
325200 5.29378
325710 6.57778
326230 8.00758
326750 8.42437
327270 9.19277
327790 9.28997
328320 8.83747
328840 9.65847
329370 8.71986
329890 8.46886
330420 8.55086
330950 8.22226
331480 8.02776
332550 7.89355
333080 7.70465
333620 7.74345
334160 7.62484
334690 8.99904
335230 8.34874
335780 6.98904
336320 8.27824
336860 8.16583
337410 9.34463
337950 7.99893
338500 8.80443
339050 9.46173
339600 8.05012
340150 7.26662
340710 6.59822
341260 6.17202
341810 7.26391
342180 7.19611
342460 8.22131
342740 7.32081
343010 6.83771
343290 7.23101
343580 6.66441
343860 6.39301
344140 6.24341
344420 5.93260
344700 5.96610
344980 6.41960
345260 5.18560
345550 4.71450
345830 4.62660
346110 3.97190
346400 3.94140
346680 4.45399
346970 5.20819
347250 6.15459
347530 6.88809
347820 7.85709
348110 9.22339
348390 11.8811
348680 10.3251
348970 8.95349
349250 8.29918
349540 8.25598
349830 8.35798
350000 8.32486
350120 8.30148
350410 8.78708
350690 9.68608
350980 9.51408
351270 8.24378
351560 7.39068
351850 6.12398
352150 5.89678
352440 7.77528
353020 8.51248
353310 7.86338
353610 7.50877
353900 7.35887
354190 7.40247
354490 8.30657
354780 7.77187
355070 7.09227
355370 6.84547
355660 6.30347
355960 6.96877
356260 7.76537
356550 5.48417
357150 7.68027
357440 7.69967
358040 7.62767
358340 7.65956
358640 7.84226
358940 7.79206
359840 7.29476
360140 7.23546
360440 7.57326
360740 8.19066
361040 7.21766
362250 6.93906
362860 6.10046
363160 5.99186
363470 7.37685
363770 9.35225
364080 7.67925
364390 6.82545
364690 7.57935
365310 7.92715
365610 7.85665
365920 7.97175
366230 8.59575
366540 10.6801
366850 11.0251
367160 9.17465
367470 8.24305
367780 7.82885
368400 7.40214
368710 7.47104
369020 7.74774
369330 8.67094
369650 8.23674
369960 7.49954
370270 7.43834
370590 7.13664
370900 7.50074
371220 9.15474
371530 9.17764
371850 7.87494
372160 8.13244
372480 8.66424
372800 8.00354
373110 6.18194
373430 5.81993
373750 5.66373
374070 6.24583
374390 7.21523
374710 7.52363
375020 9.15393
375340 9.54073
375670 7.72793
375990 7.47733
376310 7.06093
376630 7.03493
377270 7.18343
377920 8.30453
378240 7.26713
378570 6.91292
378890 8.45492
379220 9.54702
379540 6.60632
379870 5.94352
380190 5.41242
380520 4.70302
380850 4.45642
381180 6.08542
381500 6.12192
381830 6.11442
382160 5.57012
382490 4.90432
382820 4.49602
383150 6.24872
383480 7.45271
383810 7.93311
384140 7.87491
384470 7.33561
384810 7.61191
385140 7.44341
385470 7.41611
385800 7.24241
386140 7.72881
386470 8.95491
386810 7.01661
387140 6.68421
387480 6.66441
387810 6.82831
388830 5.54110
389160 5.02540
389500 4.62890
389840 4.55390
390180 3.80300
390520 4.18700
390860 5.54860
391200 5.03670
391880 6.18540
392220 7.21470
392570 8.02920
392910 7.09230
393250 6.56080
393600 5.01619
393940 6.39409
394280 7.35459
394630 7.77109
394970 9.00079
395320 7.55539
395670 7.30019
396360 7.93519
396710 6.55749
397060 6.75889
397410 6.46289
397760 6.94429
398110 6.23979
398460 6.21018
398810 6.40288
399160 5.16288
399510 5.62988
399860 6.63768
400210 7.12568
400560 6.91738
400920 7.09248
401270 7.13338
401620 6.99328
401980 7.22358
402330 7.73568
402690 7.60828
403050 9.61298
403400 8.38688
403760 7.28437
404120 7.46027
404470 7.72947
404830 7.55737
405190 7.61667
405550 7.59747
405910 7.15547
406270 7.01697
406630 7.68067
406990 8.82937
407360 7.31627
407720 6.95077
408080 6.29347
408440 5.25436
408810 5.71346
409170 8.11016
409540 7.62566
409900 7.90256
410270 7.68126
410630 7.54816
411000 7.20576
411740 7.78436
412100 9.06486
412470 8.09606
412840 9.01556
413210 7.88666
413580 8.16515
413950 7.61515
414320 7.86945
414690 7.45655
415070 7.66535
415440 7.75605
415810 9.14365
416190 8.12975
416560 7.22445
417310 6.83245
417690 6.73445
418060 7.02965
418440 7.14814
418810 7.99324
419190 7.95004
419570 9.34324
419950 7.66264
420330 6.45194
420710 6.28804
421090 7.01754
421470 7.95814
421850 6.78864
422230 6.48154
422610 6.92384
423000 6.18914
423380 6.01804
423760 6.51463
424150 4.83723
424530 5.95693
424920 6.31133
425310 5.61643
425690 6.00343
426080 6.13963
426470 6.42633
426850 5.55763
427240 5.76473
427630 8.67063
428020 9.72143
428410 7.32013
428800 7.27082
429190 8.29592
429590 7.45242
429980 8.21412
430370 7.55942
430760 7.45262
431160 7.13922
431550 7.18052
431950 7.55222
432340 6.76402
432740 6.66762
433930 7.74191
434330 9.22581
434730 7.90721
435130 8.10141
435530 6.96511
435930 6.91061
436330 6.64501
436730 6.89291
437130 8.76771
437540 7.65501
437940 7.33721
438340 7.99691
438750 6.97930
439150 6.60330
439560 6.47640
439960 6.76280
440370 6.80250
440780 6.67690
441190 6.07520
441590 5.85240
442410 8.04170
442820 6.71730
443230 5.87640
443640 5.68749
444060 7.19289
444470 8.21509
444880 8.45819
445290 7.79079
445710 6.22889
446120 5.04009
446540 6.39519
446950 9.25679
447370 7.85289
447790 7.08519
448210 7.02819
448620 7.90968
449040 7.20288
449460 6.63348
450000 6.75415
450300 6.82118
450720 6.66038
451140 6.75908
451570 6.32858
452410 6.74858
452840 6.28108
453260 6.54328
453690 6.99698
454110 7.24078
454540 7.11908
454970 6.71388
455390 7.27657
455820 8.13957
456250 6.73097
456680 6.25817
457110 6.37847
457540 6.82227
457970 6.43407
458400 5.44207
458840 4.88317
459270 6.56677
459700 7.09677
460140 6.56157
460570 6.34337
461010 6.30977
461440 6.78197
461880 6.19827
462320 7.25056
462760 5.04826
463190 4.96616
463630 6.87526
464070 6.74516
464510 6.10576
464960 6.88136
465400 5.99516
465840 5.79736
466280 6.71126
466730 5.01406
467170 4.46606
467620 5.70516
468060 6.03366
468510 6.16136
468960 6.63856
469400 6.73975
469850 6.49335
470300 6.38935
471200 7.31955
472100 6.79565
472550 6.31925
473010 6.19275
473460 6.25635
473910 5.44165
474370 6.97655
474820 6.87165
475280 6.43365
475730 6.23525
476190 6.20385
476650 6.53314
477110 6.55374
477570 7.79924
478030 7.77774
478490 7.04094
478950 7.99464
479410 7.57724
479870 7.33784
480340 6.52004
481730 5.78024
482200 5.81654
482660 5.79834
483130 6.64964
483600 5.31234
484070 4.56863
484540 4.57513
485010 3.93433
485480 3.55203
485950 4.93933
486420 6.64473
487370 6.21353
487840 6.95383
488790 6.05723
489270 4.82833
489750 5.56743
490220 6.07593
490700 6.31693
491180 6.29012
491660 6.68692
492140 7.20442
492620 6.38322
493100 6.24772
493590 7.80512
494070 7.50802
494550 6.43612
495040 6.68132
495520 6.19332
496010 7.04152
496500 7.20232
496980 7.85462
497470 8.43482
497960 6.80821
498450 6.21521
498940 6.04401
499430 6.15511
499920 7.83391
500000 7.59383
500420 6.33341
500910 6.35281
501410 7.85941
501900 7.49821
502400 6.92221
502890 6.21751
504390 6.12821
504890 6.56921
505390 8.23141
505890 8.61531
506390 7.48871
506890 5.50841
507390 5.79941
507900 6.21311
508400 6.31651
508910 6.30591
509410 6.35160
509920 6.05490
510420 5.67220
510930 5.35210
511440 5.30630
511950 5.81940
512460 6.16530
512970 7.57310
513480 8.06630
514000 6.09800
514510 7.16710
515020 8.00730
515540 6.64780
516060 5.78680
516570 6.34510
517090 6.06330
517610 5.90900
518130 5.94860
518650 5.80590
519170 6.16780
519690 6.28690
520210 4.97810
520730 4.30280
521260 4.82630
521780 4.22769
522310 3.80349
522830 3.92059
523360 3.73189
523890 4.87369
524420 5.49809
524940 7.18129
525470 6.73919
526010 5.24089
526540 4.83689
527070 6.53199
528140 5.78269
528670 5.73109
529210 6.05939
529740 6.18659
530280 6.02829
530820 5.99529
531360 6.11689
531900 6.57419
532980 6.51079
533520 6.04209
534070 6.66579
534610 5.89948
535160 6.87428
535700 6.45718
536250 7.44128
536800 7.95778
537340 6.50398
537890 6.55628
538440 6.48538
538990 5.91128
539540 5.80518
540100 5.93148
540650 6.48358
541200 6.05738
542870 6.59308
543430 6.10668
543990 6.25998
544540 5.94298
545100 6.31388
545670 6.37238
546230 6.97098
546790 7.68837
547350 6.74957
547920 6.11287
548480 5.84897
549050 5.50427
549620 4.72227
550000 4.64566
550180 4.60937
550750 4.28987
551320 4.87687
551890 5.78657
552460 5.80417
553040 5.57217
554180 5.88257
554760 6.43887
555330 5.69927
555910 5.93467
556490 5.61797
557070 5.49617
557650 5.04697
558230 5.43357
558810 5.40137
559390 6.00577
559970 5.48387
560560 5.47577
561140 6.26507
561730 6.29667
562320 6.73517
562900 6.79827
563490 6.95447
564080 7.56517
564670 6.13837
565260 6.61817
565860 8.06367
566450 6.28037
567040 5.99137
567640 5.84757
568230 6.82747
568830 6.43077
569430 6.25767
570030 5.82467
570630 5.59427
571230 5.93837
571830 4.81967
572430 5.33426
573040 6.23366
573640 5.89136
574250 6.31006
574850 6.23906
575460 5.59256
576070 5.75226
576680 6.80846
577290 6.42676
577900 6.72356
578510 6.93506
579130 5.66426
579740 5.86366
580360 5.89066
580970 5.50766
581590 5.48496
582210 5.79716
582830 5.68356
583450 6.11916
584070 7.93816
585310 6.24456
585940 6.61286
586560 6.90876
587190 7.03506
587810 6.33396
588440 5.96056
589070 5.82856
590330 6.14606
590970 6.53706
591600 6.47196
592230 5.83636
592870 5.67636
593500 6.81776
594140 6.16816
594780 5.61586
595420 5.84946
596060 5.88276
596700 6.24566
597340 6.39566
597990 7.10026
598630 6.49266
599280 6.29236
599920 6.41656
600570 5.73526
601220 6.24406
601870 6.23226
602520 6.99065
603170 6.73805
603830 5.77465
604480 5.72555
605130 5.85965
605790 5.84265
606450 6.54075
607770 5.59655
609090 5.85445
609750 6.85375
610410 5.75775
611080 5.40395
612410 5.20435
613080 6.29995
613750 5.73825
614420 6.67675
615090 7.16945
616440 5.07265
617110 5.15255
617790 5.36115
618460 5.45355
619140 5.42955
619820 5.55035
620500 5.54805
621180 5.92035
621860 6.37435
622550 5.75565
623230 6.11025
623920 5.51265
624600 5.44065
625290 6.82885
625980 7.55255
626670 6.29525
627360 5.65095
629450 5.27545
630140 6.44465
630840 5.61915
631540 5.04235
632240 5.61945
632940 5.74314
633640 5.65274
634340 6.38644
635050 5.55274
635750 6.05204
636460 6.18334
637170 6.03164
637870 6.67344
638580 6.51494
639290 6.12204
640010 5.92624
640720 5.39904
641440 5.06084
642150 5.56094
642870 6.52494
643590 6.88794
644310 5.88274
645030 5.08804
645750 5.73914
646470 6.12564
647200 5.28934
647920 5.48364
648650 6.07924
649380 6.01554
650110 5.58524
650840 5.46854
651570 6.19214
652300 5.77444
653040 5.72534
653770 5.58874
654510 5.73824
655250 7.29734
655990 5.63984
656730 4.82354
657470 5.91634
658210 6.91904
658960 6.59314
659700 6.05614
660450 6.06564
661200 6.25704
662700 6.80794
663450 5.75723
664200 6.50763
664960 5.86083
665710 5.69163
666470 5.31533
667230 5.59603
667990 6.51253
668750 5.36733
669510 5.66623
670280 6.27023
671040 5.82423
671810 6.18943
672580 6.33743
673340 5.65603
674110 5.11593
674890 5.39633
675660 5.27453
676430 5.68983
677210 5.96803
678760 4.86473
679540 4.55323
680320 4.00113
681890 5.78613
682670 5.24583
683460 5.28923
684250 6.66533
685040 5.45213
685830 5.01983
686620 5.61163
687410 5.42703
688210 5.62633
689000 5.10573
689800 5.21633
690600 5.42393
691400 5.33553
692200 6.55563
693000 5.16363
693810 4.47932
694610 6.11952
695420 5.40952
696230 5.42512
697040 5.97422
697850 5.62452
698660 5.08142
699480 5.70962
700000 5.77928
700290 5.81812
701110 5.44152
701930 6.36972
702750 6.27402
703570 5.43762
705220 5.14492
706040 5.49772
706870 5.98192
707700 6.53433
708530 5.97763
709360 5.65363
710190 5.23543
711020 5.48853
712700 5.13583
713540 5.95003
714380 6.10993
715220 5.71323
716060 5.69093
716910 5.90953
717750 6.30783
718600 5.60913
719450 5.22723
720300 5.39323
721150 5.32933
722010 4.65643
722860 5.55283
723720 5.47973
724580 5.53693
725440 5.06103
726300 4.90253
727160 4.91613
728020 4.89393
728890 5.89823
729760 5.60913
730630 6.61823
731500 5.83683
733240 5.21763
734120 5.42033
734990 5.36013
735870 5.83223
736750 5.72423
737630 5.52653
738520 6.33523
739400 6.17353
740290 5.64874
741180 5.64654
742070 5.56294
742960 5.29104
743850 5.84284
744750 5.23784
745640 5.06654
746540 5.15754
747440 4.70734
748340 4.46074
749240 5.73054
750150 6.11314
751050 5.71884
751960 5.53694
752870 5.42094
753780 4.79524
754690 5.04184
755600 5.34104
756520 4.99194
757440 6.10124
758360 5.70404
759280 6.73854
760200 6.37564
761120 5.04454
762050 5.61114
762980 5.04274
763910 5.17784
764840 5.16174
765770 5.41994
766700 5.53034
767640 4.95784
768580 5.20434
769520 5.97374
770460 5.52614
771400 4.76424
772340 4.97234
774240 4.81245
775190 4.77045
776140 5.34265
777090 5.02225
778050 5.81635
779010 5.42045
779960 6.11435
780920 5.49315
781890 5.19945
782850 4.73675
783820 5.68735
784780 4.98275
785750 4.87465
786720 5.72785
787700 5.44485
788670 5.10405
789650 4.94815
790630 4.59235
791610 5.91895
792590 5.62125
793570 5.10535
794560 4.65435
795540 4.96105
796530 5.46205
797520 4.60595
798520 4.38605
799510 5.45025
800000 5.50655
800510 5.56515
801510 5.19275
802510 4.71586
803510 4.76096
804510 4.65176
805520 4.72656
807540 5.87926
808550 5.14736
809560 4.98456
810580 5.10806
811600 5.11166
812620 5.65807
813640 5.29657
815690 4.76577
816710 4.75737
817740 5.23997
818770 4.99307
819810 5.03687
820840 4.68377
821880 4.56848
822920 4.69068
823960 4.56768
825000 5.86428
826050 5.84118
827090 6.01458
828140 4.89288
829190 5.42328
830240 5.39348
831300 5.42318
832360 5.37529
833410 4.37419
834480 4.58479
835540 5.10029
837670 4.97259
838740 5.35079
839810 5.23979
840880 4.93499
841960 4.71400
843030 4.76480
844110 4.39220
845200 4.31580
846280 5.05600
847360 5.13250
848450 4.85910
849540 4.71860
851730 5.95901
852830 5.04921
853930 5.35591
855030 4.99011
856130 5.06421
857230 5.28031
858340 5.12471
859440 5.58231
860550 5.12131
861670 5.80842
863900 5.71082
867270 4.86162
868390 5.07172
869520 4.36712
870650 4.63832
871780 5.00533
872920 4.80263
874060 5.30953
875190 4.91483
876340 5.73213
877480 5.65063
878630 4.89603
879780 5.05553
880930 4.73483
882080 5.14164
883230 4.64674
884390 5.25094
885550 5.37884
886710 4.95614
887880 4.95264
889040 4.53064
890210 4.98324
891380 4.99774
892560 5.21145
893730 5.13265
894910 4.76585
896090 4.84045
897270 5.20325
898460 5.02035
899650 5.45365
900000 5.37054
900300 5.29929
900335 5.29103
900840 5.17146
902030 4.31913
903220 5.05360
904420 4.93637
905620 5.53725
906820 5.27393
908020 5.41610
909230 4.73579
910440 4.62547
911650 4.68565
912870 5.67894
914080 5.08323
915300 5.59252
916520 5.46731
917740 6.00280
918970 5.65260
920200 4.93910
921430 4.71450
922660 5.81060
923900 5.33051
925140 5.54502
926380 4.47643
927620 4.71984
928870 4.50705
930120 4.94387
931370 5.50409
932620 4.72440
933870 4.75382
935130 4.65714
936390 4.82607
937660 4.81340
938920 4.91322
940190 5.19706
941460 5.76689
944010 5.37616
945290 4.84920
946580 4.54095
947860 4.76939
949150 4.83714
950440 5.04879
951730 4.93864
953030 4.55880
954320 4.38544
955620 4.73070
956930 4.75267
958230 6.10352
959540 4.98809
960850 5.77835
962160 5.19822
963480 5.35039
966120 4.87434
967440 4.79981
968770 4.97359
970100 4.96377
971430 5.00056
972760 5.12484
974100 5.02643
975440 5.16062
976790 5.12181
978130 5.13730
979480 5.41290
980830 5.11300
982190 5.23770
983550 5.29171
984910 5.07992
986270 5.55872
989000 5.31374
990380 4.62816
991750 5.15338
993130 5.15630
994510 4.80622
997280 5.54987
998670 4.86680
1.00000E+06 5.21759
1.00010E+06 5.24392
1.00150E+06 5.76225
1.00290E+06 4.66408
1.00430E+06 5.02190
1.00570E+06 4.55813
1.00710E+06 4.99746
1.00850E+06 4.91469
1.00990E+06 5.74371
1.01130E+06 4.65804
1.01270E+06 5.29397
1.01410E+06 5.25010
1.01560E+06 4.95096
1.01700E+06 4.60549
1.01840E+06 4.80082
1.01990E+06 5.22118
1.02130E+06 5.13201
1.02270E+06 5.20164
1.02420E+06 5.52730
1.02560E+06 5.66783
1.02710E+06 5.48049
1.02850E+06 5.70722
1.03000E+06 5.76919
1.03140E+06 5.36131
1.03290E+06 5.02208
1.03440E+06 5.01204
1.03580E+06 5.29477
1.03880E+06 4.57470
1.04030E+06 4.67187
1.04170E+06 5.08469
1.04320E+06 4.72026
1.04470E+06 4.94102
1.04620E+06 5.02469
1.04920E+06 4.92112
1.05070E+06 4.64649
1.05220E+06 4.49745
1.05370E+06 4.54492
1.05520E+06 4.82238
1.05670E+06 5.75445
1.05820E+06 5.10131
1.05970E+06 4.80908
1.06130E+06 4.86518
1.06280E+06 5.73504
1.06430E+06 5.75161
1.06580E+06 5.28697
1.06740E+06 5.34898
1.06890E+06 4.58434
1.07040E+06 5.62941
1.07200E+06 4.98031
1.07350E+06 4.77688
1.07510E+06 4.65848
1.07660E+06 4.69374
1.07820E+06 5.52565
1.07980E+06 5.18155
1.08130E+06 5.40581
1.08290E+06 5.32652
1.08450E+06 5.07732
1.08600E+06 5.07408
1.08760E+06 5.50849
1.08920E+06 4.68649
1.09080E+06 4.52899
1.09240E+06 4.80630
1.09400E+06 4.26390
1.09560E+06 4.86260
1.09720E+06 4.82280
1.09880E+06 4.83741
1.10040E+06 5.12731
1.10200E+06 5.16481
1.10360E+06 5.43082
1.10520E+06 5.00832
1.10680E+06 5.05942
1.10850E+06 4.80636
1.11010E+06 4.93126
1.11170E+06 5.48227
1.11340E+06 5.16381
1.11500E+06 5.45281
1.11660E+06 4.63451
1.11830E+06 5.17595
1.11990E+06 5.14586
1.12160E+06 4.50550
1.12330E+06 5.15324
1.12490E+06 4.62014
1.12660E+06 4.71618
1.12820E+06 5.39628
1.12990E+06 5.49022
1.13160E+06 4.66296
1.13330E+06 4.98651
1.13490E+06 5.35761
1.13660E+06 5.28645
1.13830E+06 4.83969
1.14170E+06 5.12757
1.14340E+06 5.23051
1.14510E+06 4.60885
1.14680E+06 5.12189
1.14850E+06 5.00003
1.15030E+06 4.61961
1.15200E+06 5.33885
1.15370E+06 4.67319
1.15540E+06 4.71263
1.15720E+06 5.05991
1.15890E+06 5.11895
1.16060E+06 4.98549
1.16240E+06 4.21037
1.16410E+06 5.11051
1.16590E+06 5.67569
1.16760E+06 5.62223
1.16940E+06 5.21921
1.17120E+06 5.17678
1.17290E+06 5.18692
1.17470E+06 5.03800
1.17650E+06 5.39268
1.17830E+06 5.13706
1.18000E+06 5.22650
1.18180E+06 5.02598
1.18360E+06 5.42066
1.18540E+06 5.44733
1.18720E+06 5.03051
1.18900E+06 4.98249
1.19080E+06 4.73587
1.19270E+06 4.81088
1.19450E+06 5.28156
1.19630E+06 5.37904
1.19810E+06 4.79462
1.19990E+06 5.25410
1.20000E+06 5.23411
1.20180E+06 4.87424
1.20360E+06 5.60555
1.20550E+06 5.16349
1.20730E+06 4.89710
1.20920E+06 5.09914
1.21100E+06 5.56024
1.21290E+06 5.12588
1.21470E+06 5.09169
1.21660E+06 5.14113
1.21850E+06 5.96187
1.22030E+06 5.27908
1.22220E+06 5.67372
1.22410E+06 5.20876
1.22600E+06 4.67860
1.22790E+06 4.64734
1.22980E+06 4.55338
1.23170E+06 4.50362
1.23360E+06 4.98906
1.23550E+06 5.22081
1.23740E+06 5.01995
1.23930E+06 5.18279
1.24130E+06 5.23806
1.24510E+06 4.93204
1.24710E+06 5.11042
1.24900E+06 4.97886
1.25100E+06 5.32473
1.25290E+06 5.45507
1.25490E+06 4.97275
1.25680E+06 5.24509
1.25880E+06 5.05006
1.26080E+06 4.96884
1.26270E+06 5.17798
1.26470E+06 4.86935
1.26670E+06 4.88943
1.26870E+06 5.17650
1.27070E+06 5.73127
1.27270E+06 4.93865
1.27470E+06 5.04332
1.27870E+06 4.95217
1.28070E+06 5.16775
1.28270E+06 4.91552
1.28480E+06 5.23783
1.28680E+06 5.03840
1.28880E+06 4.67898
1.29290E+06 4.95726
1.29500E+06 5.28187
1.29700E+06 5.16934
1.29910E+06 5.11545
1.30120E+06 5.16816
1.30320E+06 5.06013
1.30530E+06 5.22954
1.30740E+06 5.14575
1.30950E+06 4.99556
1.31370E+06 5.14897
1.31580E+06 4.89778
1.31790E+06 5.64939
1.32000E+06 5.94610
1.32210E+06 5.10201
1.32630E+06 5.19772
1.32850E+06 4.66777
1.33060E+06 5.00287
1.33270E+06 5.21288
1.33490E+06 5.13542
1.33700E+06 5.26283
1.33920E+06 4.97857
1.34140E+06 5.25831
1.34350E+06 5.20532
1.34570E+06 4.84707
1.34790E+06 5.15541
1.35010E+06 4.97025
1.35230E+06 5.02239
1.35450E+06 5.56773
1.35670E+06 5.47167
1.35890E+06 4.80262
1.36110E+06 5.06876
1.36330E+06 5.39660
1.36770E+06 5.24508
1.37000E+06 4.88766
1.37220E+06 4.88290
1.37440E+06 5.00884
1.37670E+06 4.68902
1.37890E+06 4.88896
1.38350E+06 5.46681
1.38570E+06 5.44275
1.38800E+06 5.08493
1.39030E+06 4.78910
1.39260E+06 5.22388
1.39490E+06 5.10286
1.39720E+06 5.32543
1.39950E+06 5.27551
1.40000E+06 5.19963
1.40180E+06 4.92643
1.40410E+06 4.70593
1.40640E+06 5.22233
1.40880E+06 5.57416
1.41110E+06 5.23817
1.41340E+06 5.11307
1.41580E+06 5.42590
1.41810E+06 5.04901
1.42050E+06 5.80354
1.42280E+06 5.00694
1.42520E+06 5.07418
1.43000E+06 5.82534
1.43230E+06 5.34305
1.43470E+06 5.40538
1.43710E+06 5.30601
1.43950E+06 4.82995
1.44190E+06 5.53748
1.44440E+06 4.85924
1.44680E+06 4.57778
1.44920E+06 5.14891
1.45160E+06 4.96814
1.45410E+06 5.28361
1.45650E+06 5.13244
1.45900E+06 5.11191
1.46140E+06 5.25414
1.46390E+06 5.65360
1.46640E+06 5.36507
1.46890E+06 5.39753
1.47140E+06 5.65600
1.47380E+06 5.68753
1.47630E+06 5.19929
1.47880E+06 5.86946
1.48390E+06 5.07722
1.48640E+06 5.33048
1.48890E+06 4.89234
1.49150E+06 5.09914
1.49400E+06 5.21310
1.49650E+06 5.11927
1.49910E+06 5.27636
1.50160E+06 5.23232
1.50420E+06 5.33422
1.50680E+06 5.02461
1.50940E+06 5.17171
1.51200E+06 5.00870
1.51460E+06 5.33500
1.51720E+06 5.53559
1.51980E+06 5.16639
1.52240E+06 5.13968
1.52500E+06 5.71748
1.53030E+06 4.98080
1.53290E+06 5.23399
1.53820E+06 5.19551
1.54090E+06 4.90593
1.54350E+06 4.87213
1.54620E+06 4.94325
1.54890E+06 5.09138
1.55160E+06 5.13790
1.55430E+06 5.58053
1.55700E+06 5.55895
1.55970E+06 5.03898
1.56240E+06 5.42231
1.56510E+06 6.12443
1.56790E+06 5.49469
1.57060E+06 5.30451
1.57340E+06 5.25977
1.57610E+06 5.72359
1.57890E+06 5.86525
1.58100E+06 5.46510
1.58160E+06 5.35077
1.58720E+06 5.45228
1.59280E+06 5.34430
1.59560E+06 5.67255
1.59840E+06 5.58731
1.60000E+06 5.33145
1.60120E+06 5.13952
1.60410E+06 5.63282
1.60970E+06 6.02205
1.61260E+06 5.70054
1.61576E+06 5.59012
1.61600E+06 5.58198
1.61830E+06 5.50331
1.62120E+06 5.07658
1.62410E+06 5.20994
1.62700E+06 5.29151
1.62990E+06 5.25847
1.63280E+06 5.26644
1.63570E+06 5.45920
1.63860E+06 5.80397
1.64450E+06 5.30030
1.65040E+06 5.20313
1.65930E+06 5.51342
1.66230E+06 4.63909
1.66530E+06 5.11905
1.66830E+06 5.44772
1.67130E+06 5.86398
1.67430E+06 5.33024
1.67730E+06 5.19241
1.68030E+06 5.50527
1.68340E+06 6.00044
1.68640E+06 5.81690
1.68950E+06 5.80216
1.69560E+06 5.11549
1.69870E+06 5.62755
1.70180E+06 5.36002
1.70490E+06 5.50398
1.70800E+06 5.57244
1.71110E+06 5.41711
1.71420E+06 5.34627
1.72050E+06 5.85509
1.72360E+06 5.31436
1.72680E+06 5.93402
1.73000E+06 5.46658
1.73310E+06 5.75754
1.73630E+06 5.58921
1.73950E+06 5.49277
1.74270E+06 5.97123
1.74590E+06 5.42379
1.74910E+06 5.20165
1.75240E+06 5.68301
1.75560E+06 5.97098
1.75890E+06 5.63864
1.76210E+06 5.43510
1.76540E+06 5.76806
1.76860E+06 5.61882
1.77190E+06 5.57428
1.77520E+06 5.37934
1.77850E+06 6.00540
1.78180E+06 5.98856
1.78520E+06 5.86772
1.78850E+06 5.49198
1.79180E+06 5.72684
1.79520E+06 5.84580
1.79850E+06 5.58006
1.80000E+06 5.57149
1.80190E+06 5.56012
1.80530E+06 5.92778
1.80870E+06 5.74624
1.81210E+06 6.05429
1.81550E+06 5.54955
1.81890E+06 5.85611
1.82230E+06 6.29037
1.82570E+06 5.93673
1.82920E+06 5.74846
1.83260E+06 6.32981
1.83610E+06 5.98084
1.83960E+06 6.19767
1.84310E+06 6.22560
1.84660E+06 5.80893
1.85010E+06 5.96766
1.85360E+06 5.68519
1.85710E+06 5.85412
1.86060E+06 6.32035
1.86420E+06 5.72616
1.86770E+06 6.00919
1.87130E+06 6.23069
1.87480E+06 5.67712
1.87840E+06 6.14502
1.88200E+06 5.62512
1.88560E+06 5.54813
1.88920E+06 5.93893
1.89290E+06 6.22560
1.89650E+06 6.34001
1.90020E+06 5.51238
1.90380E+06 5.47318
1.90750E+06 5.83106
1.91480E+06 6.19944
1.91850E+06 6.28031
1.92170E+06 5.99462
2.00000E+06 6.34003
2.20000E+06 6.72017
2.40000E+06 7.08242
2.44173E+06 7.15370
2.44200E+06 7.15417
2.50000E+06 7.25580
2.50400E+06 7.26180
2.50403E+06 7.26184
2.57700E+06 7.38160
2.57738E+06 7.38223
2.59500E+06 7.42727
2.59547E+06 7.42733
2.60000E+06 7.43562
2.60005E+06 7.44236
2.61100E+06 7.45153
2.61155E+06 7.45199
2.61300E+06 7.45370
2.61356E+06 7.45436
2.62963E+06 7.47913
2.63000E+06 7.47976
2.69800E+06 7.59545
2.75000E+06 7.68393
2.75400E+06 7.68844
2.75423E+06 7.68851
2.77900E+06 7.71431
2.77935E+06 7.71468
2.80000E+06 7.74100
2.83562E+06 7.78037
2.83600E+06 7.78083
2.86100E+06 7.81082
2.90000E+06 7.85856
2.93300E+06 7.87914
2.93309E+06 7.87919
2.97000E+06 7.90337
2.97027E+06 7.90355
3.00000E+06 7.92712
3.00041E+06 7.92719
3.05266E+06 7.94444
3.05300E+06 7.94458
3.10000E+06 7.96482
3.10600E+06 7.95850
3.13300E+06 7.93512
3.13305E+06 7.93508
3.16510E+06 7.90853
3.20000E+06 7.89448
3.30000E+06 7.83759
3.40000E+06 7.83600
3.50000E+06 7.84894
3.60000E+06 7.86188
3.70000E+06 7.94170
3.80000E+06 7.97141
3.81633E+06 7.96446
4.00000E+06 7.88621
4.10000E+06 7.82002
4.10700E+06 7.81838
4.40000E+06 7.74974
4.50000E+06 7.73548
4.75000E+06 7.64000
5.00000E+06 7.46585
5.50000E+06 7.04084
6.00000E+06 6.59583
6.50000E+06 6.18962
7.00000E+06 5.90992
7.49601E+06 5.68477
7.60000E+06 5.65804
7.75000E+06 5.59947
7.80000E+06 5.58811
8.00000E+06 5.52266
8.50000E+06 5.40708
8.98416E+06 5.29516
9.00000E+06 5.29149
9.46949E+06 5.21681
9.50000E+06 5.21196
1.00000E+07 5.15242
1.05000E+07 5.12577
1.10000E+07 5.10002
1.15000E+07 5.11503
1.20000E+07 5.13004
1.30000E+07 5.23871
1.40000E+07 5.34764
1.44203E+07 5.39573
1.45000E+07 5.40637
1.50000E+07 5.47298
1.55000E+07 5.52455
1.60000E+07 5.57603
1.65000E+07 5.64302
1.70000E+07 5.69501
1.75000E+07 5.75218
1.80000E+07 5.78935
1.85000E+07 5.82298
1.90000E+07 5.86498
1.95000E+07 5.88095
2.00000E+07 5.89703
2.00000E+07 5.89700
2.10000E+07 5.88560
2.20000E+07 5.84000
2.23781E+07 5.81296
2.25524E+07 5.80040
2.30000E+07 5.76827
2.40000E+07 5.70000
2.43597E+07 5.67729
2.43694E+07 5.67669
2.50000E+07 5.63847
2.59119E+07 5.58511
2.60000E+07 5.58000
2.70000E+07 5.51992
2.80000E+07 5.43000
2.90000E+07 5.30845
2.96258E+07 5.23274
3.00000E+07 5.19000
3.04452E+07 5.14080
3.10000E+07 5.08012
3.20000E+07 4.97442
3.24787E+07 4.92626
3.27936E+07 4.89563
3.30000E+07 4.87606
3.40000E+07 4.78736
3.41549E+07 4.77460
3.50000E+07 4.71000
3.57520E+07 4.65971
3.60000E+07 4.64440
3.70000E+07 4.58756
3.71417E+07 4.58002
3.80000E+07 4.53624
3.80919E+07 4.53171
3.90000E+07 4.48779
3.91542E+07 4.48043
3.97513E+07 4.45193
4.00000E+07 4.44000
4.10000E+07 4.39300
4.11931E+07 4.38430
4.20000E+07 4.35000
4.30000E+07 4.32254
4.40000E+07 4.31268
4.41637E+07 4.31200
4.50000E+07 4.31000
4.53481E+07 4.30930
4.56671E+07 4.30879
4.60000E+07 4.30843
4.70000E+07 4.30877
4.75650E+07 4.31017
4.80000E+07 4.31196
4.85219E+07 4.31502
4.90000E+07 4.31879
4.99264E+07 4.32901
5.00000E+07 4.33000
5.10000E+07 4.34420
5.20000E+07 4.35989
5.24852E+07 4.36816
5.30000E+07 4.37749
5.40000E+07 4.39741
5.42423E+07 4.40262
5.50000E+07 4.42000
5.55360E+07 4.43287
5.60000E+07 4.44401
5.70000E+07 4.46798
5.71524E+07 4.47164
5.80000E+07 4.49196
5.90000E+07 4.51595
6.00000E+07 4.54000
6.10000E+07 4.56463
6.13813E+07 4.57421
6.16793E+07 4.58171
6.20000E+07 4.58977
6.30000E+07 4.61456
6.40000E+07 4.63822
6.47727E+07 4.65525
6.50000E+07 4.66000
6.60000E+07 4.67970
6.61320E+07 4.68218
6.70000E+07 4.69797
6.80000E+07 4.71541
6.90000E+07 4.73258
7.00000E+07 4.75000
7.08648E+07 4.76778
7.10000E+07 4.77090
7.19345E+07 4.79332
7.20000E+07 4.79489
7.30000E+07 4.81728
7.40000E+07 4.83368
7.50000E+07 4.84000
7.60000E+07 4.84000
7.70000E+07 4.84000
7.80000E+07 4.84000
7.84526E+07 4.84000
7.90000E+07 4.84000
8.00000E+07 4.84000
8.10000E+07 4.84000
8.13943E+07 4.84000
8.20000E+07 4.84000
8.30000E+07 4.84000
8.40000E+07 4.84000
8.50000E+07 4.84000
8.60000E+07 4.83503
8.70000E+07 4.82284
8.79497E+07 4.80807
8.80000E+07 4.80726
8.90000E+07 4.79189
9.00000E+07 4.78000
9.10000E+07 4.77307
9.20000E+07 4.76886
9.30000E+07 4.76503
9.40000E+07 4.75942
9.50000E+07 4.75000
9.60000E+07 4.73638
9.70000E+07 4.71992
9.80000E+07 4.70129
9.90000E+07 4.68112
1.00000E+08 4.66000
1.02000E+08 4.61789
1.04000E+08 4.57662
1.06000E+08 4.53533
1.08000E+08 4.49333
1.10000E+08 4.45000
1.12000E+08 4.40621
1.14000E+08 4.36325
1.16000E+08 4.32119
1.18000E+08 4.28009
1.20000E+08 4.24000
1.22000E+08 4.20125
1.24000E+08 4.16357
1.26000E+08 4.12622
1.28000E+08 4.08855
1.30000E+08 4.05000
1.32000E+08 4.00729
1.34000E+08 3.95987
1.36000E+08 3.91101
1.38000E+08 3.86355
1.40000E+08 3.82000
1.42000E+08 3.77961
1.44000E+08 3.74028
1.46000E+08 3.70215
1.48000E+08 3.66535
1.50000E+08 3.63000
